# Input file       =  1196809110.124559_cleaned.dat
# Candidate        =  PSR_0332+5434
# Telescope        =  AR
# Epoch_topo       =  58095.957513015732
# Epoch_bary       =  N/A
# T_sample         =  0.002
# Data Folded      =  7340032
# Data Avg         =  0.0220006718080867
# Data StdDev      =  1.0000290172268  
# Profile Bins     =  512
# Profile Avg      =  315.29671291258  
# Profile StdDev   =  119.736510697438 
# Reduced chi-sqr  =  0.935
# Prob(Noise)      <  0.851   (~0.0 sigma)
# P_topo (ms)      =  714.534170151735  +/- 0.00022
# P'_topo (s/s)    =  -0                +/- 1.16e-10
# P''_topo (s/s^2) =  0                 +/- 5.13e-14
# P_bary (ms)      =  N/A
# P'_bary (s/s)    =  N/A
# P''_bary (s/s^2) =  N/A
# P_orb (s)        =  N/A
# asin(i)/c (s)    =  N/A
# eccentricity     =  N/A
# w (rad)          =  N/A
# T_peri           =  N/A
######################################################
   0  803.6802
   1  621.8704
   2  498.3764
   3  548.2296
   4  452.8577
   5  415.0465
   6  358.074
   7  324.5092
   8  237.8508
   9  319.1985
  10  300.3543
  11  391.2563
  12  327.5935
  13  378.0578
  14  412.6647
  15  442.7724
  16  307.344
  17  273.6475
  18  411.7296
  19  342.6243
  20  273.9701
  21  309.7362
  22  367.4019
  23  399.539
  24  323.0624
  25  367.0662
  26  409.6672
  27  304.516
  28  174.5474
  29  223.87
  30  298.324
  31  297.1561
  32  221.2394
  33  263.3195
  34  288.3713
  35  344.8766
  36  397.6529
  37  295.0758
  38  336.4838
  39  330.1656
  40  179.2023
  41  174.9893
  42  259.6044
  43  307.7559
  44  445.114
  45  503.3539
  46  335.0063
  47  264.6421
  48  240.8481
  49  269.906
  50  220.3528
  51  324.9351
  52  262.3743
  53  247.1031
  54  274.4737
  55  277.9675
  56  452.1297
  57  393.9991
  58  360.6665
  59  305.836
  60  256.9767
  61  264.1891
  62  285.7466
  63  334.2199
  64  319.267
  65  384.1104
  66  299.6301
  67  285.8536
  68  258.4881
  69  258.3789
  70  286.5645
  71  305.5192
  72  295.3685
  73  323.2614
  74  365.8825
  75  385.8698
  76  296.1385
  77  325.2559
  78  258.994
  79  394.2505
  80  196.7992
  81  226.728
  82  357.3467
  83  347.6705
  84  257.2159
  85  224.8149
  86  282.3302
  87  310.8534
  88  340.6305
  89  368.1079
  90  323.6302
  91  318.8174
  92  342.4016
  93  354.3982
  94  397.4606
  95  391.2318
  96  275.6648
  97  373.1058
  98  227.9378
  99  172.5445
 100  198.4835
 101  260.7764
 102  374.9463
 103  317.1652
 104  347.4177
 105  344.1812
 106  345.027
 107  266.0977
 108  213.7345
 109  239.048
 110  270.66
 111  424.7616
 112  360.0605
 113  301.8059
 114  233.7879
 115  290.6523
 116  231.3197
 117  225.0994
 118  295.778
 119  282.4237
 120  348.6589
 121  404.5449
 122  358.0337
 123  359.4217
 124  361.6521
 125  216.3113
 126  326.626
 127  315.1749
 128  356.5107
 129  411.1683
 130  292.0489
 131  231.1411
 132  280.9256
 133  334.9549
 134  326.8516
 135  222.8374
 136  246.0971
 137  429.4559
 138  311.367
 139  308.0307
 140  260.075
 141  275.6919
 142  286.5808
 143  256.8843
 144  300.6073
 145  329.0981
 146  403.2884
 147  361.8344
 148  233.2879
 149  202.093
 150  310.1202
 151  261.9423
 152  262.6846
 153  221.3922
 154  270.6157
 155  254.4156
 156  287.7899
 157  366.9777
 158  322.6493
 159  272.8347
 160  243.3522
 161  265.2142
 162  280.0177
 163  374.7427
 164  443.1309
 165  368.8448
 166  349.1947
 167  407.0989
 168  361.8848
 169  274.8724
 170  321.5821
 171  319.6851
 172  355.8383
 173  326.3329
 174  183.2036
 175  249.0364
 176  290.2436
 177  329.4445
 178  307.1597
 179  259.3111
 180  268.5219
 181  225.4649
 182  191.8235
 183  258.4849
 184  362.2179
 185  390.5216
 186  339.7216
 187  357.7002
 188  349.2699
 189  351.2007
 190  327.2715
 191  498.266
 192  436.3484
 193  393.1789
 194  385.5954
 195  375.6777
 196  287.1165
 197  263.4832
 198  292.8425
 199  361.2427
 200  321.3194
 201  301.7249
 202  389.0008
 203  361.5363
 204  343.7261
 205  300.5294
 206  216.6768
 207  153.5598
 208  322.8447
 209  272.0056
 210  476.5372
 211  366.1449
 212  308.4422
 213  403.7035
 214  401.6012
 215  398.3885
 216  314.0559
 217  252.7052
 218  247.5741
 219  260.8862
 220  297.558
 221  227.6679
 222  220.3312
 223  364.0598
 224  377.7717
 225  338.2324
 226  321.0985
 227  297.0552
 228  333.6638
 229  346.3184
 230  258.3775
 231  245.5596
 232  314.0398
 233  393.4833
 234  328.2158
 235  288.3182
 236  286.6539
 237  324.0787
 238  288.7593
 239  289.834
 240  326.9562
 241  288.2219
 242  320.3546
 243  283.7058
 244  338.7221
 245  331.9987
 246  297.035
 247  351.7777
 248  334.7548
 249  391.3493
 250  327.8311
 251  333.072
 252  359.3808
 253  374.1335
 254  324.9204
 255  373.5674
 256  339.7561
 257  262.298
 258  366.3544
 259  382.0762
 260  498.1492
 261  478.2199
 262  293.2122
 263  259.074
 264  268.8918
 265  432.2486
 266  449.5387
 267  417.5222
 268  275.7333
 269  268.5348
 270  262.1368
 271  251.6191
 272  278.2346
 273  275.1804
 274  307.4896
 275  299.3152
 276  213.9428
 277  197.9171
 278  326.8136
 279  415.5908
 280  275.9259
 281  428.582
 282  545.3036
 283  289.6885
 284  287.5623
 285  382.3376
 286  452.323
 287  484.6349
 288  341.6082
 289  180.6885
 290  218.8054
 291  278.4027
 292  360.9127
 293  336.2259
 294  329.9065
 295  334.056
 296  337.9815
 297  324.6237
 298  303.3079
 299  371.8958
 300  389.4751
 301  362.3991
 302  323.5741
 303  259.8698
 304  254.081
 305  321.5249
 306  361.021
 307  316.7186
 308  231.6659
 309  235.69
 310  156.9426
 311  240.0987
 312  312.4869
 313  343.3595
 314  380.7628
 315  337.9745
 316  322.45
 317  394.1321
 318  446.1233
 319  327.2637
 320  324.5693
 321  262.7593
 322  344.7879
 323  291.4965
 324  346.2296
 325  327.4242
 326  254.2668
 327  371.6998
 328  345.7639
 329  265.2956
 330  263.0012
 331  289.9339
 332  250.476
 333  413.4677
 334  321.985
 335  314.5623
 336  220.6023
 337  239.8203
 338  405.632
 339  393.6753
 340  369.8101
 341  425.0132
 342  426.8733
 343  391.9977
 344  393.1521
 345  380.5362
 346  337.3989
 347  336.5456
 348  347.3217
 349  323.0945
 350  252.8392
 351  470.3766
 352  514.2404
 353  456.8414
 354  511.0406
 355  443.3394
 356  343.4358
 357  291.6926
 358  246.4475
 359  276.0276
 360  281.4022
 361  368.1252
 362  367.5705
 363  361.2587
 364  317.8919
 365  184.4352
 366  274.1286
 367  343.7086
 368  212.4537
 369  160.2514
 370  148.0467
 371  258.5347
 372  269.0132
 373  267.3777
 374  237.3498
 375  267.5247
 376  198.1926
 377  250.9356
 378  274.2791
 379  308.1914
 380  295.5716
 381  297.7476
 382  286.7843
 383  225.6288
 384  150.2095
 385  194.9813
 386  230.1902
 387  281.7286
 388  306.0054
 389  215.457
 390  126.4996
 391  213.5656
 392  198.0714
 393  116.2133
 394  157.8925
 395  266.4048
 396  214.7949
 397  178.9406
 398  281.178
 399  303.0808
 400  353.7216
 401  395.0548
 402  354.2497
 403  214.4346
 404  289.6683
 405  393.6371
 406  319.5644
 407  265.7517
 408  233.2955
 409  333.708
 410  238.2016
 411  257.0399
 412  293.6308
 413  363.4709
 414  401.1869
 415  308.6389
 416  393.6751
 417  418.8615
 418  236.3018
 419  261.3631
 420  284.4263
 421  322.2785
 422  242.9272
 423  382.0708
 424  377.3621
 425  233.6324
 426  265.0754
 427  196.9341
 428  225.2427
 429  176.8011
 430  261.5803
 431  239.7041
 432  265.9755
 433  270.0864
 434  351.9511
 435  459.0508
 436  512.4104
 437  324.4166
 438  230.2294
 439  143.4967
 440  218.1747
 441  321.6794
 442  275.4417
 443  179.48
 444  299.7914
 445  392.1047
 446  481.9611
 447  422.4973
 448  368.4992
 449  445.8262
 450  300.5731
 451  233.6587
 452  341.3181
 453  250.7246
 454  243.0412
 455  292.8916
 456  320.3011
 457  276.7954
 458  309.3569
 459  206.1215
 460  253.201
 461  180.2639
 462  224.5665
 463  193.313
 464  136.4788
 465  188.5101
 466  298.3775
 467  377.4017
 468  274.2327
 469  200.0655
 470  319.6971
 471  396.6187
 472  338.1775
 473  393.8218
 474  356.1901
 475  249.7114
 476  267.0591
 477  235.4283
 478  283.9255
 479  372.7098
 480  424.9002
 481  284.45
 482  259.3804
 483  184.4465
 484  157.1715
 485  212.4447
 486  218.6051
 487  177.3938
 488  243.7806
 489  236.5589
 490  305.1066
 491  294.2913
 492  250.212
 493  222.3621
 494  298.8553
 495  306.1917
 496  298.2412
 497  453.4936
 498  390.4336
 499  361.3877
 500  312.5396
 501  387.6604
 502  295.9381
 503  342.5014
 504  382.1976
 505  456.7114
 506  536.1104
 507  545.2283
 508  476.2134
 509  511.4583
 510  623.1791
 511  780.4921
