# Input file       =  1196263036.115612_cleaned.dat
# Candidate        =  PSR_0332+5434
# Telescope        =  AR
# Epoch_topo       =  58089.637211986250
# Epoch_bary       =  N/A
# T_sample         =  0.002
# Data Folded      =  7208960
# Data Avg         =  1.44030455346219 
# Data StdDev      =  12.5491920090658 
# Profile Bins     =  512
# Profile Avg      =  20279.4702863113 
# Profile StdDev   =  1489.07678067051 
# Reduced chi-sqr  =  0.506
# Prob(Noise)      <  1   (~0.0 sigma)
# P_topo (ms)      =  714.527350530303  +/- 2.33e-05
# P'_topo (s/s)    =  -0                +/- 1.25e-11
# P''_topo (s/s^2) =  0                 +/- 5.63e-15
# P_bary (ms)      =  N/A
# P'_bary (s/s)    =  N/A
# P''_bary (s/s^2) =  N/A
# P_orb (s)        =  N/A
# asin(i)/c (s)    =  N/A
# eccentricity     =  N/A
# w (rad)          =  N/A
# T_peri           =  N/A
######################################################
   0  20687.11
   1  21023.08
   2  19371.28
   3  19468.68
   4  20810.2
   5  20580.48
   6  20561.23
   7  21503.28
   8  21698.75
   9  19729.71
  10  19929.88
  11  20373.46
  12  20739.59
  13  19833.04
  14  20821.98
  15  21919.51
  16  21178.64
  17  20942.51
  18  20799.96
  19  20942.8
  20  21287.09
  21  21766.96
  22  22034.84
  23  20630.57
  24  19534.21
  25  20548.04
  26  22234.37
  27  20705.66
  28  21308.83
  29  21648.8
  30  21116.17
  31  19332.39
  32  19657.23
  33  20548.8
  34  20511.86
  35  20598.57
  36  21368.15
  37  20401.3
  38  19401.69
  39  20418.25
  40  21448.23
  41  21177.57
  42  21227.16
  43  21676.07
  44  20646.83
  45  19226.06
  46  20090.02
  47  21128.78
  48  19907.43
  49  19403.2
  50  20782.6
  51  21168.68
  52  19757.05
  53  20029.7
  54  19954.61
  55  20276.16
  56  20198.97
  57  20442.64
  58  20830.1
  59  19538.61
  60  19641.36
  61  20549.1
  62  20627.1
  63  19212.31
  64  19054.64
  65  19509.95
  66  18830.97
  67  19450.9
  68  20680.74
  69  20302.8
  70  19903.84
  71  20921.97
  72  21376.69
  73  20547.92
  74  19331
  75  20375.36
  76  20717.54
  77  20362.38
  78  20348.49
  79  20642.2
  80  19819.47
  81  19377.49
  82  19947.88
  83  19029.32
  84  18549.32
  85  18599.71
  86  20633.83
  87  21455.8
  88  20150.13
  89  20078.88
  90  20276.59
  91  20112.37
  92  18247.8
  93  19405.86
  94  20142.13
  95  19646.98
  96  20019.23
  97  20060.23
  98  20446.41
  99  19851.28
 100  21327.51
 101  21516.51
 102  20524.09
 103  20655.19
 104  21319.51
 105  20341.6
 106  18792.89
 107  19475.83
 108  19361.05
 109  18767.58
 110  18884.23
 111  20047.96
 112  20728.38
 113  19987.88
 114  20141.17
 115  20476.67
 116  20709.53
 117  19959.21
 118  20693.79
 119  20731.86
 120  20546.57
 121  20711.06
 122  20439.48
 123  18812.15
 124  19073.86
 125  20888.68
 126  20768.88
 127  18941.26
 128  18863.05
 129  20641.85
 130  20655.64
 131  19923.96
 132  20573.61
 133  21089.29
 134  20411.47
 135  20722.71
 136  21286.93
 137  19997.34
 138  18318.25
 139  19010.46
 140  20929.52
 141  21022.83
 142  20193.74
 143  21078.55
 144  21816.52
 145  21263.31
 146  21137.06
 147  21257.94
 148  20743.38
 149  20936.44
 150  20615.08
 151  20418.41
 152  19456.53
 153  19787.55
 154  20909.73
 155  19841.8
 156  18691.99
 157  18716.64
 158  20481.91
 159  19901.55
 160  18764.3
 161  20027.43
 162  19335.29
 163  19243.53
 164  19798.63
 165  21141.84
 166  20590.3
 167  20366.6
 168  21080.86
 169  20408.47
 170  20226.86
 171  19426.36
 172  20641.64
 173  21243.35
 174  19518.87
 175  20061.76
 176  20685.32
 177  20448.54
 178  19477.08
 179  19896.16
 180  20018.15
 181  19798.76
 182  20054.86
 183  21015.23
 184  20681.83
 185  19163.48
 186  20229.79
 187  20898.21
 188  20719.27
 189  19498
 190  20853.8
 191  20327.21
 192  19650.63
 193  19911.86
 194  20919.42
 195  19808.49
 196  19835.78
 197  19574.02
 198  20288.83
 199  20090.88
 200  20055.63
 201  20073.31
 202  17921.06
 203  18405.87
 204  19924.22
 205  19866.05
 206  19324.49
 207  20259.91
 208  20655.54
 209  19642.63
 210  18411.87
 211  19668.62
 212  20236.35
 213  20207.67
 214  20380.87
 215  20827.8
 216  19998.02
 217  19871.47
 218  19798.34
 219  21187.34
 220  20676.68
 221  20423.3
 222  21039.21
 223  20821.85
 224  19898.79
 225  20128.47
 226  20306.38
 227  19953.07
 228  19944.23
 229  20499.12
 230  21085.69
 231  19741.5
 232  20830.92
 233  21391.65
 234  20603.2
 235  20283.18
 236  19963.13
 237  20011.86
 238  19430.74
 239  20577.03
 240  20770.11
 241  20542.69
 242  19400.15
 243  19850.55
 244  20073.51
 245  19420.19
 246  19102.43
 247  20405.1
 248  20356.77
 249  19712.56
 250  20220.86
 251  20815.45
 252  20308.92
 253  19723.55
 254  20584.97
 255  20178.06
 256  19129.88
 257  20398.56
 258  21284.34
 259  20143.73
 260  18672.9
 261  19812.75
 262  20929.77
 263  19831.71
 264  20023.72
 265  20249.91
 266  20957.8
 267  19639.46
 268  19808.75
 269  20073.85
 270  19625.81
 271  18932.62
 272  20696.33
 273  21815.42
 274  20766.32
 275  19412.5
 276  20024.94
 277  19881.18
 278  19064.22
 279  19475.8
 280  21288.25
 281  20804.9
 282  20556.87
 283  20491.18
 284  21096.84
 285  19477.66
 286  20743.01
 287  21707.05
 288  20861.89
 289  20174.71
 290  20651.07
 291  21195.59
 292  19929.15
 293  20846.66
 294  21635.35
 295  21410.99
 296  20404.47
 297  20385.56
 298  20225.81
 299  18820.71
 300  19787.04
 301  21834.63
 302  20156.99
 303  18936.57
 304  19768.23
 305  21025.56
 306  20490.16
 307  20046.82
 308  20388.83
 309  20425.34
 310  20168.78
 311  20091.68
 312  19826.28
 313  20198.09
 314  19804.73
 315  20392.37
 316  20141.91
 317  19127.04
 318  19747
 319  20700.11
 320  19939.89
 321  20078.55
 322  20238.75
 323  20127.78
 324  18268.06
 325  19364.55
 326  20688.96
 327  20674.87
 328  19314.27
 329  20575.44
 330  20965.8
 331  20009.56
 332  18860.16
 333  20039.88
 334  20814.73
 335  19434.58
 336  20039.72
 337  20109.35
 338  19515.27
 339  18576.91
 340  20693.34
 341  21110.56
 342  20296.65
 343  19766.85
 344  19599.72
 345  19132.22
 346  18143.45
 347  19691
 348  21075.31
 349  20328.34
 350  20474.66
 351  21146.24
 352  21337.62
 353  19920.52
 354  19706.47
 355  20815.59
 356  20465.69
 357  21047.92
 358  21559.08
 359  21735.72
 360  20849.91
 361  20868.85
 362  22308.98
 363  20805.91
 364  20072.09
 365  21297.73
 366  20707.08
 367  19326.46
 368  20012.47
 369  21201.42
 370  20820.5
 371  19672.73
 372  20930.63
 373  20801.7
 374  19798.3
 375  19255.55
 376  20150.22
 377  20048.27
 378  20027.16
 379  20207.56
 380  20806.88
 381  20013.49
 382  19323.41
 383  19959.55
 384  20020.32
 385  19786.24
 386  18987.16
 387  20310.54
 388  20578.7
 389  19834.28
 390  20107.81
 391  20334.86
 392  20364.98
 393  20322.91
 394  20683.84
 395  19518.88
 396  18675.23
 397  19869.11
 398  20838.33
 399  20499.86
 400  19917.49
 401  20579.03
 402  20792.34
 403  20378.49
 404  20437.41
 405  20997.8
 406  19732.98
 407  19721.18
 408  20684.28
 409  20812.78
 410  19709.86
 411  20544.68
 412  20603.64
 413  20128.3
 414  20098.55
 415  20528.61
 416  21106.04
 417  21311.62
 418  21289.98
 419  21153.54
 420  20122.77
 421  19839.96
 422  19845.5
 423  20666.22
 424  20444.55
 425  20085.65
 426  21596.26
 427  22675.63
 428  21793.51
 429  21345.57
 430  22429.57
 431  21845.19
 432  20931.47
 433  21056.01
 434  20323.88
 435  19312.02
 436  19868.13
 437  21617
 438  21595.3
 439  19955
 440  19641
 441  19555.18
 442  18882.01
 443  19529.33
 444  20646.14
 445  20677.85
 446  20482.27
 447  21060.72
 448  21419.98
 449  19884.85
 450  19668
 451  19638.76
 452  19936.15
 453  20066.95
 454  20021.31
 455  20866.93
 456  20344.68
 457  18830.63
 458  19066.45
 459  20164.52
 460  19656.57
 461  19685.43
 462  21385.22
 463  20821.97
 464  19768.9
 465  19917.26
 466  20978.16
 467  20167.57
 468  19618.19
 469  19554.68
 470  19449.17
 471  20205.2
 472  20463.66
 473  21641.45
 474  21018.71
 475  20425.91
 476  20760.23
 477  21127.98
 478  20016.52
 479  19544.54
 480  18778.68
 481  19151.79
 482  19460.12
 483  20205.94
 484  21023.35
 485  20554.71
 486  20223.46
 487  20905.96
 488  20655.51
 489  20107.4
 490  20927.44
 491  21533.5
 492  19662.89
 493  19799.75
 494  19770.59
 495  20695.06
 496  20586.64
 497  20554.49
 498  20544.76
 499  19920.37
 500  19097.63
 501  20860.18
 502  21636.85
 503  21329.81
 504  20582.38
 505  22284.11
 506  21843.46
 507  20273.05
 508  20595
 509  20436.28
 510  21112.69
 511  19452.59
