# Input file       =  1196176904.130603_cleaned.dat
# Candidate        =  PSR_0332+5434
# Telescope        =  AR
# Epoch_topo       =  58088.640314011609
# Epoch_bary       =  N/A
# T_sample         =  0.002
# Data Folded      =  7208960
# Data Avg         =  0.0224005792311141
# Data StdDev      =  9.03483043464604 
# Profile Bins     =  512
# Profile Avg      =  315.47932161813  
# Profile StdDev   =  1072.06553280941 
# Reduced chi-sqr  =  0.403
# Prob(Noise)      <  1   (~0.0 sigma)
# P_topo (ms)      =  714.52632411464   +/- 2.66e-05
# P'_topo (s/s)    =  -0                +/- 1.43e-11
# P''_topo (s/s^2) =  0                 +/- 6.41e-15
# P_bary (ms)      =  N/A
# P'_bary (s/s)    =  N/A
# P''_bary (s/s^2) =  N/A
# P_orb (s)        =  N/A
# asin(i)/c (s)    =  N/A
# eccentricity     =  N/A
# w (rad)          =  N/A
# T_peri           =  N/A
######################################################
   0  -110.0788
   1  211.5717
   2  72.47521
   3  332.6628
   4  834.0179
   5  406.9323
   6  -326.7136
   7  -386.5336
   8  448.7278
   9  172.2611
  10  -181.3558
  11  -76.82487
  12  631.6591
  13  -41.40904
  14  155.7556
  15  561.0319
  16  719.3219
  17  670.3017
  18  430.8459
  19  249.606
  20  584.2813
  21  56.23344
  22  96.05296
  23  14.3642
  24  198.3339
  25  1106.055
  26  1989.391
  27  1104.998
  28  277.9578
  29  338.7847
  30  289.2004
  31  204.6334
  32  492.8033
  33  922.6169
  34  302.2687
  35  -169.9944
  36  83.63728
  37  -238.8632
  38  -11.96744
  39  37.27063
  40  -97.39064
  41  -367.5905
  42  -737.2195
  43  166.1494
  44  -206.6455
  45  -510.7885
  46  157.9358
  47  608.5139
  48  499.8943
  49  126.2451
  50  -63.88777
  51  357.2938
  52  -266.1996
  53  128.8993
  54  340.7632
  55  633.9429
  56  2.959646
  57  366.8575
  58  974.0533
  59  921.1101
  60  266.4292
  61  720.9263
  62  1110.544
  63  516.8036
  64  218.3263
  65  1131.962
  66  923.7736
  67  -447.2234
  68  -255.9944
  69  442.808
  70  257.594
  71  -39.47126
  72  207.2801
  73  795.7456
  74  177.2394
  75  687.6938
  76  735.5474
  77  250.6214
  78  102.5127
  79  884.9354
  80  880.7735
  81  57.47918
  82  45.13377
  83  81.18136
  84  389.7785
  85  197.018
  86  954.7028
  87  839.904
  88  -35.76265
  89  38.2457
  90  252.5828
  91  187.8896
  92  -378.1007
  93  386.6122
  94  452.8818
  95  -51.11252
  96  -516.2161
  97  211.9579
  98  946.8627
  99  -68.4931
 100  469.1637
 101  660.2888
 102  434.6443
 103  -124.285
 104  235.2416
 105  439.4158
 106  145.481
 107  263.5793
 108  600.8989
 109  926.9952
 110  404.4871
 111  37.63716
 112  -73.61595
 113  -690.9285
 114  -835.9542
 115  -654.8481
 116  7.858159
 117  -671.031
 118  -156.7737
 119  569.1642
 120  -222.1341
 121  -880.7686
 122  -164.4149
 123  277.5893
 124  -186.0772
 125  -225.6324
 126  695.8333
 127  382.0182
 128  290.1135
 129  1018.722
 130  997.4176
 131  746.9679
 132  258.8907
 133  422.1026
 134  432.609
 135  49.05949
 136  138.0643
 137  699.3176
 138  -30.88142
 139  175.6893
 140  701.7821
 141  594.7047
 142  434.4753
 143  1065.134
 144  1383.829
 145  1285.444
 146  104.6748
 147  -107.6654
 148  -136.6916
 149  -196.9563
 150  -362.5975
 151  -113.1735
 152  200.0915
 153  -265.4046
 154  -482.0965
 155  -159.2471
 156  580.8791
 157  344.2977
 158  443.9341
 159  216.2778
 160  -1088.816
 161  -901.723
 162  -211.6274
 163  339.0129
 164  -64.44353
 165  -477.0529
 166  -6.973182
 167  -465.1922
 168  -1167.512
 169  -673.8328
 170  -136.9904
 171  701.0438
 172  1587.31
 173  1228.377
 174  -35.18493
 175  -271.9292
 176  440.9258
 177  295.3969
 178  30.72169
 179  1026.369
 180  968.5428
 181  361.2171
 182  125.6974
 183  441.4536
 184  600.3256
 185  407.107
 186  1089.354
 187  1358.327
 188  497.5291
 189  91.20292
 190  747.5931
 191  239.2821
 192  -60.33111
 193  74.36034
 194  653.5315
 195  -79.62309
 196  -874.6187
 197  -21.40393
 198  474.5462
 199  -108.1598
 200  -347.7397
 201  579.7932
 202  314.8809
 203  -112.8327
 204  -23.83362
 205  983.3409
 206  949.5793
 207  274.3631
 208  786.2932
 209  803.7053
 210  -147.3882
 211  107.2671
 212  545.8071
 213  564.3286
 214  324.7272
 215  926.2733
 216  1041.055
 217  -175.9064
 218  -511.9176
 219  -463.5652
 220  -388.5281
 221  -467.5523
 222  26.76672
 223  1136.157
 224  603.1056
 225  134.1902
 226  381.2182
 227  -58.81926
 228  -978.5961
 229  -679.4225
 230  478.9868
 231  511.9489
 232  263.5591
 233  469.1456
 234  483.0952
 235  -86.00315
 236  -343.4469
 237  455.2964
 238  354.8916
 239  453.8258
 240  635.1364
 241  376.8369
 242  344.4112
 243  212.5007
 244  754.4813
 245  21.64159
 246  -553.423
 247  28.41203
 248  599.1072
 249  682.0754
 250  601.6072
 251  883.3098
 252  1105.994
 253  634.3437
 254  350.6636
 255  910.3275
 256  702.7871
 257  997.6194
 258  1587.283
 259  1290.979
 260  226.8828
 261  -271.4269
 262  528.4085
 263  441.5987
 264  -115.2653
 265  312.495
 266  832.1205
 267  302.8592
 268  -334.3364
 269  63.47053
 270  1043.438
 271  391.8419
 272  636.0491
 273  1087.225
 274  371.7374
 275  -768.6456
 276  -118.204
 277  203.5284
 278  -171.2958
 279  176.4491
 280  1264.335
 281  802.4283
 282  182.1594
 283  394.6416
 284  686.1577
 285  533.8715
 286  755.7567
 287  1434.857
 288  1084.511
 289  575.2317
 290  1194.117
 291  1240.263
 292  535.7007
 293  649.9369
 294  766.6168
 295  387.0544
 296  138.2315
 297  418.6224
 298  178.3538
 299  -113.0511
 300  24.6827
 301  -4.779671
 302  125.8985
 303  -293.2455
 304  410.5505
 305  1384.058
 306  1245.754
 307  590.1695
 308  351.7645
 309  503.197
 310  -207.8335
 311  211.5348
 312  827.29
 313  1200.899
 314  977.4475
 315  1258.022
 316  822.056
 317  -458.4573
 318  -515.1062
 319  367.425
 320  827.3802
 321  41.54737
 322  -326.266
 323  196.1498
 324  201.1068
 325  229.8596
 326  871.1242
 327  741.6419
 328  15.03956
 329  -297.3882
 330  855.2219
 331  931.8978
 332  529.0519
 333  569.8665
 334  580.5146
 335  625.3257
 336  808.197
 337  618.2398
 338  609.3988
 339  104.813
 340  441.7373
 341  907.3787
 342  -208.5818
 343  -683.1727
 344  166.0312
 345  619.3458
 346  546.106
 347  773.4485
 348  978.3384
 349  -237.7208
 350  -716.3135
 351  -325.1058
 352  378.7243
 353  -44.97828
 354  376.5956
 355  592.4625
 356  344.6139
 357  69.39899
 358  835.5237
 359  1028.957
 360  85.81797
 361  224.2277
 362  434.6079
 363  713.7159
 364  -248.1762
 365  140.6696
 366  1272.148
 367  613.522
 368  -199.5432
 369  105.1101
 370  517.4615
 371  18.3298
 372  229.0463
 373  835.7311
 374  799.5699
 375  689.4867
 376  1289.8
 377  1013.317
 378  -82.55824
 379  -225.3748
 380  783.4133
 381  609.5428
 382  -197.8146
 383  742.8058
 384  814.9708
 385  74.93923
 386  58.60983
 387  477.6064
 388  400.0833
 389  -226.8317
 390  14.05349
 391  471.5272
 392  725.537
 393  18.76578
 394  612.1965
 395  522.8314
 396  280.8951
 397  771.0366
 398  515.587
 399  811.2607
 400  186.1737
 401  838.9587
 402  260.5378
 403  -720.575
 404  -322.1123
 405  926.326
 406  909.9744
 407  205.3181
 408  430.5247
 409  896.2784
 410  -131.307
 411  -868.6639
 412  606.5796
 413  712.4871
 414  -289.6045
 415  -312.3496
 416  336.2241
 417  17.67629
 418  -663.033
 419  269.3798
 420  432.1785
 421  61.19178
 422  -280.5254
 423  592.4915
 424  439.4704
 425  86.83327
 426  323.5605
 427  663.978
 428  -27.37852
 429  47.15248
 430  905.5911
 431  493.7671
 432  -226.8037
 433  14.77324
 434  920.1616
 435  325.2076
 436  -883.3455
 437  377.268
 438  1009.546
 439  347.0709
 440  424.1152
 441  998.8243
 442  725.2407
 443  -519.3547
 444  -125.6729
 445  197.5726
 446  314.2351
 447  41.59105
 448  640.6962
 449  195.5628
 450  -100.3882
 451  -291.5955
 452  849.6879
 453  949.7924
 454  778.573
 455  412.4552
 456  -91.60611
 457  -426.3452
 458  -597.7955
 459  215.8871
 460  310.6723
 461  20.81755
 462  423.3436
 463  459.5389
 464  46.48241
 465  -63.95444
 466  274.3631
 467  350.8277
 468  23.51336
 469  620.8215
 470  946.7022
 471  317.73
 472  193.6351
 473  577.2485
 474  369.4606
 475  -386.2051
 476  -46.17717
 477  911.4415
 478  501.731
 479  517.2833
 480  873.1448
 481  1134.518
 482  672.2678
 483  233.3202
 484  1154.093
 485  1181.373
 486  338.795
 487  690.9183
 488  826.2659
 489  335.0479
 490  244.9336
 491  1326.765
 492  1130.37
 493  33.23602
 494  181.7647
 495  664.0966
 496  423.3054
 497  46.09587
 498  654.1172
 499  799.0567
 500  181.1736
 501  193.486
 502  500.3724
 503  216.8206
 504  -627.2169
 505  -345.3786
 506  533.4533
 507  390.1937
 508  165.9971
 509  197.491
 510  -117.3754
 511  -342.445
