# Input file       =  1196794206.116471_cleaned.dat
# Candidate        =  PSR_0332+5434
# Telescope        =  AR
# Epoch_topo       =  58095.785012922119
# Epoch_bary       =  N/A
# T_sample         =  0.002
# Data Folded      =  7340032
# Data Avg         =  0.025765148169693
# Data StdDev      =  0.999985018906787
# Profile Bins     =  512
# Profile Avg      =  369.376062285645 
# Profile StdDev   =  119.731242644988 
# Reduced chi-sqr  =  1.028
# Prob(Noise)      <  0.322   (~0.5 sigma)
# P_topo (ms)      =  714.533662095796  +/- 0.000312
# P'_topo (s/s)    =  -0                +/- 1.65e-10
# P''_topo (s/s^2) =  0                 +/- 7.26e-14
# P_bary (ms)      =  N/A
# P'_bary (s/s)    =  N/A
# P''_bary (s/s^2) =  N/A
# P_orb (s)        =  N/A
# asin(i)/c (s)    =  N/A
# eccentricity     =  N/A
# w (rad)          =  N/A
# T_peri           =  N/A
######################################################
   0  394.0137
   1  386.3909
   2  309.0183
   3  302.1245
   4  379.3158
   5  366.1384
   6  318.7852
   7  300.3681
   8  314.2294
   9  315.3293
  10  343.839
  11  372.3319
  12  431.0265
  13  422.1861
  14  515.6112
  15  442.4438
  16  311.9381
  17  249.7809
  18  213.0614
  19  287.8138
  20  286.0661
  21  302.3141
  22  318.3128
  23  270.7783
  24  247.6252
  25  345.7518
  26  272.8072
  27  290.8904
  28  312.5046
  29  259.9419
  30  226.0663
  31  304.0677
  32  320.7625
  33  277.7394
  34  444.6242
  35  432.292
  36  289.943
  37  328.4924
  38  324.9001
  39  340.0992
  40  445.4976
  41  366.2036
  42  394.8115
  43  369.4783
  44  386.4055
  45  329.584
  46  429.0514
  47  449.1371
  48  338.4843
  49  212.6746
  50  241.9554
  51  371.136
  52  494.4795
  53  448.016
  54  432.3002
  55  452.163
  56  510.5431
  57  475.489
  58  450.9321
  59  479.893
  60  405.2628
  61  381.355
  62  397.8455
  63  406.2422
  64  392.6577
  65  450.4229
  66  529.7574
  67  408.5164
  68  558.4517
  69  700.1946
  70  788.8008
  71  899.6331
  72  836.037
  73  630.1057
  74  501.4624
  75  396.2625
  76  477.7522
  77  447.8583
  78  255.4665
  79  169.302
  80  405.4703
  81  476.6755
  82  479.1516
  83  360.1943
  84  453.499
  85  463.559
  86  563.3813
  87  401.4729
  88  332.0509
  89  363.9857
  90  322.2493
  91  252.6681
  92  257.0818
  93  303.4716
  94  390.3166
  95  390.2167
  96  302.9752
  97  341.8589
  98  424.8721
  99  300.8281
 100  332.6883
 101  273.5333
 102  249.0574
 103  304.671
 104  346.6768
 105  321.627
 106  309.9926
 107  274.1091
 108  400.4058
 109  441.7543
 110  408.0785
 111  460.8606
 112  403.7637
 113  284.194
 114  182.6389
 115  242.2427
 116  341.0941
 117  436.3488
 118  511.6787
 119  527.4843
 120  410.6836
 121  396.1832
 122  395.3426
 123  502.3198
 124  460.1432
 125  484.8036
 126  449.2452
 127  405.2752
 128  312.6813
 129  407.981
 130  475.5929
 131  475.7998
 132  341.2971
 133  268.6136
 134  324.2932
 135  255.7222
 136  357.7375
 137  342.4849
 138  355.3365
 139  427.1781
 140  439.7216
 141  327.2904
 142  404.337
 143  416.0347
 144  315.4088
 145  290.584
 146  260.9708
 147  411.5623
 148  505.2545
 149  497.905
 150  352.5067
 151  274.3194
 152  302.3754
 153  417.2664
 154  456.6154
 155  381.1229
 156  385.1612
 157  280.9191
 158  316.6834
 159  274.7021
 160  210.3421
 161  242.7366
 162  331.2685
 163  385.5542
 164  340.4489
 165  382.1476
 166  462.2343
 167  425.1495
 168  310.0016
 169  301.0042
 170  414.103
 171  366.7898
 172  404.9875
 173  379.6123
 174  357.5221
 175  292.1378
 176  312.5264
 177  482.2026
 178  525.6167
 179  506.8788
 180  456.9825
 181  364.7779
 182  378.1927
 183  432.8268
 184  438.2481
 185  344.1805
 186  275.4622
 187  267.3379
 188  337.9676
 189  398.2527
 190  471.9945
 191  493.5477
 192  418.1096
 193  405.2352
 194  461.5926
 195  358.9099
 196  407.5712
 197  316.8766
 198  374.6811
 199  378.1136
 200  350.4669
 201  331.3829
 202  340.58
 203  388.4799
 204  354.682
 205  432.8523
 206  233.3367
 207  347.9583
 208  453.9413
 209  385.5629
 210  290.8254
 211  346.9229
 212  421.6836
 213  282.6648
 214  149.0815
 215  211.0318
 216  239.3427
 217  303.3136
 218  373.1852
 219  346.2255
 220  360.0792
 221  440.5032
 222  394.5071
 223  343.0497
 224  367.9936
 225  388.7339
 226  349.2807
 227  339.4253
 228  296.4742
 229  206.4231
 230  147.6633
 231  298.5797
 232  393.9537
 233  320.8224
 234  372.6286
 235  372.4085
 236  376.4252
 237  259.1371
 238  309.1682
 239  372.1378
 240  351.3268
 241  380.8195
 242  507.3794
 243  525.0051
 244  452.8003
 245  353.3293
 246  316.0983
 247  359.4903
 248  379.8868
 249  268.9836
 250  214.3863
 251  294.4537
 252  464.5692
 253  415.7687
 254  290.1805
 255  306.4796
 256  353.1404
 257  349.5681
 258  339.7354
 259  219.5655
 260  296.3568
 261  463.731
 262  483.359
 263  309.6449
 264  328.3594
 265  384.9391
 266  436.9154
 267  308.8268
 268  312.7334
 269  262.13
 270  295.1899
 271  376.0648
 272  237.2088
 273  264.9069
 274  399.0318
 275  357.0156
 276  240.7777
 277  253.1714
 278  252.8663
 279  368.6451
 280  364.2099
 281  364.7304
 282  426.6169
 283  436.894
 284  514.3036
 285  447.773
 286  385.7685
 287  337.5909
 288  320.091
 289  341.4896
 290  258.7144
 291  286.6434
 292  337.3944
 293  425.1616
 294  505.1993
 295  379.8966
 296  240.2227
 297  331.2901
 298  367.5976
 299  376.3216
 300  313.9852
 301  244.6165
 302  311.8485
 303  374.0298
 304  461.4792
 305  411.97
 306  434.4557
 307  403.7997
 308  380.2068
 309  360.5052
 310  317.9114
 311  295.6513
 312  306.486
 313  319.2186
 314  306.7667
 315  367.5257
 316  441.7892
 317  303.7733
 318  168.7175
 319  407.4191
 320  455.4404
 321  399.9398
 322  380.6881
 323  356.0786
 324  268.597
 325  303.2791
 326  441.1293
 327  443.7281
 328  447.8892
 329  393.8242
 330  179.1845
 331  280.4354
 332  275.4104
 333  329.9745
 334  367.8256
 335  356.138
 336  339.9957
 337  300.78
 338  288.3792
 339  354.0096
 340  439.7266
 341  450.2693
 342  404.9199
 343  474.0857
 344  458.2915
 345  366.7078
 346  285.7735
 347  308.7752
 348  256.575
 349  219.8242
 350  325.4926
 351  422.1601
 352  393.2425
 353  386.0659
 354  415.9287
 355  368.5952
 356  322.1387
 357  307.5791
 358  393.0691
 359  430.6935
 360  341.5255
 361  382.7888
 362  234.2388
 363  257.2149
 364  360.4626
 365  458.451
 366  386.3537
 367  418.8728
 368  399.0999
 369  335.1835
 370  389.8948
 371  467.9456
 372  462.9082
 373  370.045
 374  270.9724
 375  343.5781
 376  328.4838
 377  354.8728
 378  356.8039
 379  450.6236
 380  315.0937
 381  193.553
 382  210.1768
 383  391.003
 384  414.1366
 385  460.3376
 386  439.9091
 387  342.6447
 388  308.0336
 389  374.5281
 390  342.8507
 391  560.4498
 392  597.4641
 393  416.2444
 394  350.1213
 395  401.4512
 396  512.3076
 397  478.2221
 398  425.2514
 399  442.2131
 400  415.5714
 401  338.7223
 402  343.8578
 403  359.2023
 404  289.5803
 405  431.6999
 406  541.9194
 407  426.3861
 408  282.5319
 409  403.8458
 410  341.1504
 411  297.4113
 412  434.4437
 413  434.6363
 414  322.7623
 415  328.135
 416  495.9776
 417  491.8994
 418  329.1338
 419  287.9962
 420  334.1818
 421  287.605
 422  228.9315
 423  312.3679
 424  296.8223
 425  370.2769
 426  298.1063
 427  405.6262
 428  418.7823
 429  387.6379
 430  301.2505
 431  231.7658
 432  270.7914
 433  466.3916
 434  496.0298
 435  485.9417
 436  433.0014
 437  413.1811
 438  377.8374
 439  450.1505
 440  458.7196
 441  349.4424
 442  384.7531
 443  383.3864
 444  431.4645
 445  400.7273
 446  331.4507
 447  217.9742
 448  324.3109
 449  349.7673
 450  486.7569
 451  445.9892
 452  307.5185
 453  276.9391
 454  277.9174
 455  338.0064
 456  395.7181
 457  387.8373
 458  468.6244
 459  420.5777
 460  377.9181
 461  292.7289
 462  347.9832
 463  319.873
 464  404.6607
 465  414.7923
 466  422.9405
 467  353.3389
 468  360.6577
 469  437.6134
 470  383.1857
 471  399.0669
 472  452.6205
 473  396.8956
 474  340.6588
 475  266.5044
 476  250.3885
 477  284.9444
 478  340.7815
 479  373.1558
 480  297.3193
 481  254.8922
 482  228.7732
 483  238.4311
 484  271.3207
 485  316.6571
 486  323.0557
 487  327.9922
 488  425.623
 489  353.3752
 490  414.8
 491  418.41
 492  450.3593
 493  461.6538
 494  466.2835
 495  443.561
 496  471.9955
 497  268.183
 498  334.1973
 499  451.8305
 500  431.7934
 501  404.9986
 502  402.7222
 503  415.0187
 504  590.4603
 505  531.7784
 506  449.6174
 507  366.7502
 508  353.0276
 509  347.5472
 510  293.9366
 511  309.4666
