# Input file       =  1196363886.122779_cleaned.dat
# Candidate        =  PSR_0332+5434
# Telescope        =  AR
# Epoch_topo       =  58090.804457439568
# Epoch_bary       =  N/A
# T_sample         =  0.002
# Data Folded      =  7340032
# Data Avg         =  0.157171387144315
# Data StdDev      =  4.33509736883639 
# Profile Bins     =  512
# Profile Avg      =  2253.08822837193 
# Profile StdDev   =  519.054370959711 
# Reduced chi-sqr  =  0.737
# Prob(Noise)      <  1   (~0.0 sigma)
# P_topo (ms)      =  714.528574643304  +/- 0.000169
# P'_topo (s/s)    =  -0                +/- 8.93e-11
# P''_topo (s/s^2) =  0                 +/- 3.94e-14
# P_bary (ms)      =  N/A
# P'_bary (s/s)    =  N/A
# P''_bary (s/s^2) =  N/A
# P_orb (s)        =  N/A
# asin(i)/c (s)    =  N/A
# eccentricity     =  N/A
# w (rad)          =  N/A
# T_peri           =  N/A
######################################################
   0  2007.291
   1  2191.141
   2  2313.392
   3  2125.001
   4  1682.202
   5  1705.13
   6  1908.704
   7  1990.881
   8  1678.048
   9  1760.722
  10  1854.422
  11  1966.368
  12  1914.21
  13  1954.63
  14  1855.477
  15  2087.536
  16  2293.171
  17  2071.929
  18  1919.524
  19  2179.159
  20  2152.235
  21  2103.073
  22  2089.645
  23  2089.779
  24  1935.625
  25  1884.872
  26  1794.185
  27  1756.021
  28  1840.297
  29  1947.547
  30  2133.548
  31  1896.94
  32  1729.777
  33  1909.081
  34  1657.796
  35  1905.17
  36  2197.362
  37  2460.829
  38  2326.884
  39  2151.583
  40  2150.22
  41  2175.889
  42  2286.139
  43  1972.276
  44  2182.401
  45  1993.131
  46  2084.744
  47  1564.505
  48  1402.317
  49  2078.198
  50  2183.685
  51  2144.93
  52  2188.925
  53  2146.072
  54  1833.283
  55  1964.693
  56  1966.931
  57  2295.728
  58  2443.08
  59  1956.134
  60  2054.928
  61  1762.312
  62  1698.337
  63  1999.054
  64  2040.855
  65  2026.16
  66  2474.461
  67  2275.877
  68  2101.163
  69  1593.426
  70  1721.479
  71  1744.126
  72  1862.369
  73  1854.738
  74  2026.993
  75  2168.446
  76  2000.777
  77  1829.432
  78  2099.606
  79  2008.306
  80  2143.217
  81  2216.443
  82  2317.322
  83  2014.532
  84  2020.557
  85  2376.674
  86  2352.283
  87  2224.04
  88  2391.989
  89  2358.347
  90  2485.021
  91  2491.438
  92  2545.273
  93  2141.621
  94  2419.241
  95  2553.466
  96  2345.522
  97  2189.017
  98  2365.589
  99  2788.672
 100  2643.1
 101  2771.43
 102  2627.641
 103  2234.164
 104  1886.961
 105  2218.363
 106  2284.124
 107  2392.82
 108  2225.279
 109  1694.932
 110  2081.731
 111  2342.071
 112  2269.774
 113  2087.773
 114  2164.487
 115  2136.693
 116  2090.318
 117  2216.046
 118  2402.166
 119  2344.644
 120  1942.144
 121  1959.157
 122  2045.729
 123  2265.971
 124  2220.047
 125  2287.891
 126  2294.168
 127  2044.154
 128  2323.73
 129  2412.406
 130  2187.77
 131  2201.538
 132  2453.206
 133  2669.562
 134  2273.867
 135  2248.532
 136  2443.425
 137  2787.189
 138  2625.552
 139  2299.73
 140  2122.85
 141  2164.651
 142  1988.159
 143  1823.547
 144  1947.233
 145  2196.238
 146  2527.104
 147  2247.058
 148  2233.931
 149  2390.351
 150  2204.649
 151  2625.838
 152  2588.952
 153  2691.591
 154  2575.36
 155  3063.871
 156  2888.09
 157  2754.05
 158  2633.297
 159  2628.316
 160  2767.364
 161  2711.964
 162  2635.5
 163  2397.043
 164  2283.111
 165  2109.267
 166  2190.737
 167  2463.426
 168  2332.478
 169  2056.327
 170  1897.403
 171  2017.083
 172  1900.832
 173  2505.113
 174  2798.624
 175  2737.634
 176  2073.315
 177  2136.36
 178  2325.604
 179  2494.216
 180  2375.118
 181  2228.568
 182  2197.601
 183  2176.333
 184  1952.758
 185  2162.141
 186  2209.141
 187  2200.698
 188  1835.24
 189  1928.137
 190  2133.103
 191  1894.91
 192  2143.744
 193  2560.158
 194  2192.077
 195  2016.496
 196  2136.306
 197  2318.309
 198  2210.89
 199  1789.974
 200  1879.54
 201  1827.067
 202  2074.493
 203  1924.127
 204  1517.622
 205  1522.614
 206  1510.635
 207  2121.163
 208  2214.453
 209  2443.156
 210  2407.519
 211  2284.74
 212  2507.894
 213  2717
 214  2801.165
 215  2939.317
 216  2926.531
 217  2603.374
 218  2604.778
 219  2355.42
 220  2199.564
 221  2634.003
 222  2675.975
 223  2602.584
 224  2470.882
 225  2644.571
 226  2349.71
 227  2153.532
 228  2689.621
 229  3090.643
 230  3058.349
 231  3160.156
 232  3013.186
 233  2600.539
 234  2160.063
 235  2240.844
 236  2309.57
 237  2196.731
 238  2192.821
 239  2197.2
 240  2053.831
 241  2324.153
 242  2185.118
 243  2187.671
 244  2126.393
 245  2176.475
 246  2099.806
 247  2403.526
 248  2733.05
 249  2606.326
 250  2491.261
 251  2484.576
 252  2269.168
 253  2266.442
 254  2549.505
 255  2735.854
 256  2554.573
 257  2478.586
 258  2337.759
 259  2273.355
 260  2028.072
 261  2346.214
 262  2014.775
 263  1859.031
 264  1894.838
 265  2352.022
 266  2489.98
 267  2381.818
 268  2142.067
 269  2158.402
 270  2400.354
 271  2319.52
 272  2167.312
 273  2316.056
 274  1945.966
 275  1874.916
 276  2036.86
 277  1853.27
 278  1464.977
 279  1808.169
 280  1732.899
 281  1916.669
 282  2357.308
 283  2235.849
 284  2247.252
 285  2646.574
 286  2696.49
 287  2646.483
 288  2613.143
 289  2526.853
 290  2527.594
 291  2370.417
 292  2420.869
 293  2236.847
 294  2216.799
 295  2156.724
 296  2256.669
 297  2211.228
 298  2097.424
 299  2170.958
 300  2002.845
 301  2202.427
 302  2181.072
 303  2514.502
 304  2509.575
 305  2728.769
 306  2721.263
 307  2601.418
 308  2585.832
 309  2812.699
 310  2607.764
 311  2223.905
 312  2353.496
 313  2137.567
 314  2400.855
 315  1942.004
 316  2079.047
 317  2551.369
 318  2467.254
 319  2324.695
 320  2198.034
 321  2035.181
 322  2090.344
 323  2191.157
 324  2504.093
 325  2441.689
 326  2675.824
 327  2370.235
 328  2488.997
 329  2349.58
 330  2236.383
 331  2258.829
 332  2244.613
 333  2300.164
 334  2502.007
 335  2273.387
 336  2282.822
 337  2189.444
 338  2604.61
 339  2671.059
 340  2166.044
 341  2364.384
 342  2559.487
 343  2518.476
 344  2354.962
 345  2660.547
 346  2469.054
 347  2274.357
 348  2474.46
 349  2297.808
 350  2292.812
 351  2252.165
 352  2029.194
 353  2272.96
 354  2197.585
 355  2153.169
 356  2326.692
 357  2311.141
 358  2120.009
 359  1987.947
 360  2326.444
 361  2415.25
 362  2516.692
 363  2927.052
 364  2860.224
 365  2846.923
 366  2554.487
 367  2485.868
 368  2177.986
 369  2007.844
 370  2236.622
 371  2601.167
 372  2561.256
 373  2764.512
 374  2855.972
 375  2741.118
 376  2172.744
 377  2430.096
 378  2175.352
 379  2370.785
 380  2527.668
 381  2874.464
 382  2835.141
 383  2666.767
 384  2871.077
 385  2676.471
 386  2738.579
 387  2366.005
 388  2209.569
 389  2364.053
 390  2508.894
 391  2286.406
 392  2244.196
 393  2319.478
 394  2052.227
 395  1889.628
 396  2131.813
 397  2377.708
 398  2562.23
 399  2644.366
 400  2320.591
 401  2253.038
 402  2215.565
 403  2082.044
 404  2234.24
 405  2157.434
 406  2225.094
 407  2132.169
 408  1611.396
 409  1323.774
 410  1434.7
 411  1881.341
 412  1605.03
 413  1333.638
 414  1813.969
 415  2004.734
 416  1870.06
 417  1786.682
 418  1883.134
 419  1710.343
 420  2081.998
 421  1834.886
 422  2151.445
 423  2153.95
 424  1844.882
 425  2135.938
 426  2412.235
 427  2111.416
 428  1796.429
 429  1579.326
 430  1576.629
 431  1805.534
 432  1802.955
 433  1734.571
 434  2085.875
 435  2172.656
 436  2139.51
 437  2533.684
 438  2936.966
 439  2541.714
 440  2252.097
 441  2506.196
 442  2516.865
 443  2466.558
 444  2152.63
 445  2078.695
 446  2320.903
 447  1987.784
 448  2133.428
 449  2025.161
 450  2115.594
 451  2397.832
 452  2169.743
 453  2291.218
 454  2625.19
 455  2792.219
 456  3020.689
 457  2971.412
 458  2772.865
 459  2622.44
 460  2530.952
 461  2441.751
 462  2322.52
 463  2385.966
 464  2193.639
 465  2198.862
 466  2374.808
 467  2270.908
 468  2329.489
 469  2509.701
 470  2395.404
 471  2158.606
 472  2281.443
 473  2269.48
 474  2536.66
 475  2458.029
 476  2146.838
 477  2339.633
 478  2251.772
 479  2156.506
 480  1856.427
 481  2113.039
 482  2656.806
 483  2293.766
 484  2119.162
 485  1696.212
 486  2056.571
 487  2412.164
 488  2008.445
 489  2206.252
 490  2507.382
 491  2523.946
 492  2650.372
 493  3087.349
 494  2792.196
 495  2873.646
 496  3499.99
 497  3108.097
 498  2686.985
 499  2412.42
 500  2109.397
 501  1758.312
 502  1758.047
 503  2270.128
 504  2237.653
 505  1771.574
 506  2009.505
 507  2182.986
 508  1815.055
 509  1566.355
 510  1770.828
 511  1862.507
