# Input file       =  1196277675.112092_cleaned.dat
# Candidate        =  PSR_0332+5434
# Telescope        =  AR
# Epoch_topo       =  58089.806644815879
# Epoch_bary       =  N/A
# T_sample         =  0.002
# Data Folded      =  7340032
# Data Avg         =  0.165995747437201
# Data StdDev      =  4.33845558801867 
# Profile Bins     =  512
# Profile Avg      =  2379.72574287825 
# Profile StdDev   =  519.456460739223 
# Reduced chi-sqr  =  0.507
# Prob(Noise)      <  1   (~0.0 sigma)
# P_topo (ms)      =  714.527548701641  +/- 0.000889
# P'_topo (s/s)    =  -0                +/- 4.69e-10
# P''_topo (s/s^2) =  0                 +/- 2.07e-13
# P_bary (ms)      =  N/A
# P'_bary (s/s)    =  N/A
# P''_bary (s/s^2) =  N/A
# P_orb (s)        =  N/A
# asin(i)/c (s)    =  N/A
# eccentricity     =  N/A
# w (rad)          =  N/A
# T_peri           =  N/A
######################################################
   0  2474.536
   1  2902.795
   2  2741.449
   3  2396.254
   4  2620.716
   5  2550.408
   6  2391.28
   7  2469.169
   8  2496.146
   9  2168.921
  10  1884.666
  11  2399.94
  12  2399.278
  13  2316.628
  14  1728.946
  15  1706.702
  16  1949.566
  17  2273.823
  18  2266.999
  19  2181.317
  20  1639.815
  21  1783.269
  22  1955.748
  23  2160.626
  24  2506.641
  25  2393.035
  26  2303.902
  27  2554.697
  28  2358.597
  29  2391.391
  30  2213.573
  31  2219.817
  32  2283.279
  33  2559.44
  34  2320.561
  35  2201.798
  36  2397.124
  37  2388.367
  38  2115.923
  39  1945.938
  40  2287.652
  41  2644.634
  42  2606.47
  43  2546.916
  44  2666.094
  45  2513.036
  46  2658.063
  47  2175.418
  48  2464.444
  49  2540.18
  50  2606.306
  51  2998.163
  52  2398.37
  53  2333.918
  54  2251.917
  55  1914.965
  56  2153.752
  57  2219.844
  58  2722.138
  59  2684.461
  60  2503.108
  61  2675.064
  62  2687.33
  63  2605.696
  64  2669.739
  65  2470.864
  66  2565.36
  67  2704.311
  68  2624.773
  69  2549.017
  70  2401.374
  71  2261.21
  72  2168.236
  73  2133.851
  74  1944.373
  75  1559.332
  76  2079.791
  77  1981.522
  78  2026.501
  79  1953.707
  80  2223.549
  81  2405.323
  82  2320.841
  83  2277.029
  84  2159.02
  85  1850.735
  86  2031.242
  87  2501.222
  88  2400.862
  89  2414.336
  90  2552.815
  91  2606.119
  92  2494.654
  93  2091.881
  94  2032.4
  95  2116.104
  96  2087.456
  97  2482.012
  98  2606.838
  99  2428.133
 100  2296.533
 101  2297.964
 102  2427.081
 103  2204.297
 104  2607.846
 105  2603.218
 106  2693.014
 107  2715.631
 108  2494.396
 109  2506.876
 110  2845.125
 111  2614.66
 112  2593.839
 113  2152.259
 114  2576.125
 115  2613.187
 116  2726.337
 117  2706.739
 118  2685.765
 119  2428.758
 120  2199.774
 121  2193.267
 122  2154.301
 123  2142.576
 124  2423.045
 125  2548.584
 126  2750.85
 127  2404.666
 128  2215.92
 129  2353.718
 130  2436.908
 131  2360.521
 132  2974.851
 133  2673.336
 134  2418.793
 135  2324.443
 136  2302.554
 137  2066.712
 138  1964.721
 139  1983.077
 140  2121.097
 141  2318.258
 142  2530.454
 143  2477.798
 144  2410.774
 145  2026.609
 146  1765.913
 147  1669.027
 148  1736.79
 149  2218.749
 150  2321.992
 151  1924.032
 152  1900.932
 153  2063.718
 154  2387.857
 155  2484.844
 156  2604.033
 157  2215.634
 158  2239.857
 159  2143.799
 160  2307.492
 161  2509.786
 162  2435.211
 163  1957.936
 164  1754.664
 165  2300.475
 166  2327.445
 167  2267.898
 168  2544.458
 169  2608.746
 170  2228.067
 171  2253.35
 172  2177.162
 173  2165.649
 174  2138.752
 175  2340.02
 176  2503.158
 177  2678.897
 178  2438.242
 179  2400.922
 180  2474.849
 181  2280.218
 182  2421.621
 183  2228.447
 184  2617.302
 185  2235.823
 186  2367.372
 187  2625.257
 188  2294.1
 189  1676.901
 190  1985.7
 191  2441.982
 192  2474.858
 193  2539.532
 194  2170.709
 195  2116.402
 196  2295.75
 197  2636.986
 198  2898.859
 199  3079.782
 200  3178.217
 201  3151.331
 202  3064.599
 203  3506.914
 204  3347.768
 205  2853.746
 206  2557.222
 207  2377.198
 208  2349.414
 209  2399.519
 210  2190.564
 211  2100.48
 212  2277.7
 213  2225.805
 214  2201.524
 215  2061.296
 216  2177.781
 217  2285.296
 218  2180.407
 219  2406.507
 220  2468.822
 221  2271.963
 222  1929.228
 223  2357.575
 224  2285.71
 225  2668.486
 226  2461.164
 227  2110.172
 228  2099.301
 229  2222.551
 230  2436.164
 231  2409.068
 232  2712.331
 233  2565.681
 234  1944.38
 235  2175.234
 236  2341.162
 237  2575.601
 238  2242.279
 239  2279.257
 240  2529.323
 241  2750.77
 242  2521.171
 243  2514.771
 244  2208.224
 245  2476.807
 246  2414.067
 247  2707.732
 248  2539.137
 249  2295.13
 250  1970.759
 251  1880.322
 252  2148.725
 253  2538.05
 254  2675.621
 255  2532.618
 256  2623.65
 257  2329.73
 258  2015.411
 259  1937.032
 260  2037.112
 261  2264.746
 262  2475.835
 263  2126.146
 264  2101.337
 265  2427.205
 266  2380.307
 267  2398.83
 268  2470.006
 269  2371.824
 270  2701.14
 271  2355.439
 272  2266.845
 273  2028.797
 274  1922.052
 275  2161.967
 276  2555.757
 277  2645.834
 278  2509.507
 279  2349.942
 280  2215.379
 281  2278.777
 282  2208.328
 283  2157.454
 284  2417.759
 285  2468.438
 286  2638.676
 287  3112.324
 288  3147.432
 289  2977.808
 290  2562.199
 291  2687.486
 292  2728.125
 293  2750.135
 294  2434.822
 295  2622.441
 296  2526.592
 297  2307.979
 298  2378.55
 299  2577.24
 300  2429.991
 301  2143.019
 302  1994.862
 303  2187.335
 304  2565.53
 305  2494.834
 306  2827.841
 307  2787.562
 308  2336.173
 309  2361.638
 310  1972.194
 311  2422.547
 312  2572.711
 313  2428.276
 314  2448.962
 315  2456.871
 316  2132.444
 317  2342.629
 318  2590.643
 319  2249.831
 320  2679.645
 321  2538.176
 322  2422.411
 323  2430.798
 324  2497.659
 325  2236.957
 326  2505.525
 327  2792.813
 328  2805.534
 329  2543.551
 330  2472.132
 331  2503.346
 332  2472.551
 333  2688.44
 334  2613.092
 335  2355.292
 336  2660.097
 337  2444.128
 338  2413.17
 339  2398.482
 340  2299.945
 341  2259.711
 342  2117.986
 343  2152.384
 344  2349.397
 345  2504.612
 346  2867.141
 347  2582.802
 348  2609.713
 349  2403.24
 350  2100.099
 351  2192.263
 352  2339.341
 353  2675.5
 354  2894.236
 355  2947.537
 356  2685.999
 357  2292.222
 358  1946.956
 359  2127.466
 360  2163.248
 361  2277.968
 362  2567.107
 363  2701.172
 364  2497.98
 365  2414.323
 366  2511.175
 367  2384.587
 368  2348.717
 369  2655.557
 370  2895.747
 371  2700.577
 372  2296.795
 373  2239.248
 374  2550.448
 375  2522.555
 376  2877.512
 377  2573.464
 378  2067.587
 379  2163.612
 380  2279.101
 381  2092.384
 382  2112.451
 383  2162.428
 384  2395.789
 385  2367.546
 386  2567.947
 387  2412.282
 388  2263.694
 389  2331.775
 390  2580.578
 391  2389.147
 392  1922.2
 393  2330.371
 394  2207.59
 395  2136.91
 396  2337.975
 397  2301.384
 398  2181.09
 399  2210.194
 400  2519.607
 401  2397.317
 402  2220.411
 403  2641.61
 404  2379.015
 405  2393.654
 406  2485.626
 407  2417.606
 408  2500.897
 409  2338.921
 410  2489.523
 411  2354.51
 412  2426.52
 413  2298.852
 414  2117.865
 415  2562.214
 416  2782.618
 417  2646.982
 418  2523.52
 419  2223.622
 420  2419.781
 421  2419.854
 422  2295.948
 423  2555.041
 424  2650.29
 425  2578.304
 426  2419.394
 427  2474.923
 428  2689.452
 429  2488.319
 430  2431.946
 431  2293.97
 432  1990.206
 433  2097.907
 434  2501.777
 435  2150.71
 436  2111.795
 437  1911.432
 438  2014.295
 439  2372.507
 440  2488.138
 441  2459.56
 442  2381.374
 443  2148.704
 444  2059.706
 445  1947.724
 446  2155.655
 447  2321.202
 448  2442.002
 449  2235.298
 450  1956.712
 451  1896.669
 452  1823.388
 453  1817.854
 454  2113.855
 455  2502.396
 456  2310.188
 457  2265.569
 458  2241.227
 459  2128.625
 460  2514.326
 461  2506.165
 462  2286.751
 463  2347.572
 464  2449.983
 465  2339.21
 466  2078.562
 467  2432.506
 468  2591.745
 469  2154.291
 470  2056.541
 471  2322.869
 472  2478.444
 473  2510.176
 474  2642.842
 475  2724.614
 476  2592.862
 477  2774.471
 478  2776.304
 479  2883.208
 480  2794.02
 481  2666.393
 482  2582.986
 483  2635.382
 484  2506.109
 485  2567.815
 486  2592.983
 487  2600.768
 488  2483.573
 489  2595.748
 490  2410.619
 491  2413.951
 492  2222.052
 493  2021.934
 494  2039.241
 495  2381.657
 496  2598.276
 497  2780.134
 498  2219.299
 499  2139.033
 500  2609.989
 501  2504.641
 502  2219.664
 503  2060.041
 504  2770.421
 505  2630.137
 506  2227.51
 507  2213.155
 508  2124.111
 509  2056.406
 510  2012.811
 511  2130.441
