# Input file       =  1196722911.118757-PSRB0329-2ms-sampling-dd.dat
# Candidate        =  PSR_0332+5434
# Telescope        =  AR
# Epoch_topo       =  58094.959839337469
# Epoch_bary       =  N/A
# T_sample         =  0.002
# Data Folded      =  7340032
# Data Avg         =  -1.88647068768389e-10
# Data StdDev      =  5.76822255093448 
# Profile Bins     =  512
# Profile Avg      =  0.59515281891551 
# Profile StdDev   =  690.646800520321 
# Reduced chi-sqr  =  0.387
# Prob(Noise)      <  1   (~0.0 sigma)
# P_topo (ms)      =  714.533153377017  +/- 0.000105
# P'_topo (s/s)    =  -0                +/- 5.55e-11
# P''_topo (s/s^2) =  0                 +/- 2.45e-14
# P_bary (ms)      =  N/A
# P'_bary (s/s)    =  N/A
# P''_bary (s/s^2) =  N/A
# P_orb (s)        =  N/A
# asin(i)/c (s)    =  N/A
# eccentricity     =  N/A
# w (rad)          =  N/A
# T_peri           =  N/A
######################################################
   0  -213.6897
   1  -344.5178
   2  -366.1351
   3  -64.80843
   4  -111.1863
   5  -336.3025
   6  -99.30149
   7  321.7071
   8  346.4153
   9  -0.2967241
  10  -299.0128
  11  -154.6432
  12  119.6142
  13  244.9319
  14  280.2898
  15  308.0208
  16  -265.9216
  17  -690.0147
  18  -671.5071
  19  -218.274
  20  -88.54462
  21  -36.99564
  22  -8.693799
  23  74.15163
  24  208.9486
  25  -444.494
  26  -377.9733
  27  -570.3987
  28  -317.4937
  29  -693.3584
  30  -239.277
  31  355.9527
  32  493.9595
  33  53.33887
  34  -77.61222
  35  -347.919
  36  -80.62986
  37  15.11775
  38  253.469
  39  219.3705
  40  -22.89416
  41  -101.3559
  42  -395.7959
  43  -162.7883
  44  75.83855
  45  424.1053
  46  647.3583
  47  389.6862
  48  79.24846
  49  55.05947
  50  74.71904
  51  -4.325941
  52  -103.9828
  53  145.4598
  54  -17.24569
  55  279.0801
  56  92.75988
  57  -143.8409
  58  281.7997
  59  306.1149
  60  195.789
  61  221.8293
  62  341.032
  63  327.8536
  64  89.59978
  65  417.5801
  66  263.7611
  67  323.4062
  68  327.8932
  69  -302.265
  70  -409.4106
  71  -335.9593
  72  -98.58281
  73  173.7182
  74  464.8195
  75  655.9402
  76  394.1852
  77  -13.1822
  78  -302.5285
  79  -144.8233
  80  150.1203
  81  284.1382
  82  56.83494
  83  276.9647
  84  80.66628
  85  -255.001
  86  -319.303
  87  -226.9618
  88  -68.9671
  89  141.9576
  90  75.81155
  91  -402.0091
  92  -305.8248
  93  -131.4868
  94  106.0259
  95  476.7097
  96  276.3498
  97  303.6252
  98  -100.5518
  99  -493.9752
 100  -458.1391
 101  -147.4283
 102  226.3386
 103  37.77516
 104  34.82449
 105  -258.5966
 106  -465.7991
 107  -488.523
 108  -344.3992
 109  -46.97689
 110  10.23109
 111  78.54928
 112  162.8549
 113  222.5568
 114  -140.1365
 115  -73.38157
 116  -26.78774
 117  175.5777
 118  300.2638
 119  -76.53214
 120  298.6874
 121  382.7977
 122  431.9413
 123  76.18402
 124  36.14966
 125  -509.6412
 126  -671.227
 127  -142.2172
 128  208.8409
 129  -81.08361
 130  -99.09046
 131  167.0782
 132  -83.61275
 133  -286.1033
 134  -727.4062
 135  -526.3847
 136  -303.415
 137  -152.22
 138  218.6439
 139  172.9594
 140  281.6704
 141  56.35437
 142  106.4099
 143  251.0416
 144  132.9895
 145  217.3288
 146  311.4706
 147  296.0633
 148  696.1277
 149  641.7599
 150  620.6363
 151  -17.90165
 152  -208.7736
 153  21.55646
 154  186.5106
 155  506.5576
 156  111.8015
 157  503.4291
 158  -148.0256
 159  -305.2215
 160  -330.0926
 161  307.9174
 162  222.6479
 163  -13.50479
 164  -350.2282
 165  -586.828
 166  -520.9447
 167  -422.119
 168  -109.3516
 169  190.4705
 170  594.5099
 171  487.9329
 172  -299.702
 173  -385.9132
 174  52.88384
 175  62.49359
 176  270.6236
 177  -37.28349
 178  -211.1415
 179  22.06132
 180  132.557
 181  -154.6111
 182  -159.2906
 183  -274.7472
 184  59.90392
 185  42.35786
 186  26.16083
 187  22.05151
 188  -45.07607
 189  -36.36419
 190  60.08913
 191  -339.9832
 192  114.8074
 193  96.35972
 194  110.835
 195  246.5118
 196  422.9325
 197  187.9365
 198  524.5262
 199  -295.1152
 200  -340.5112
 201  107.9164
 202  484.336
 203  586.2509
 204  376.1101
 205  -49.02486
 206  -491.6217
 207  -683.5327
 208  -346.9518
 209  -204.5101
 210  17.65789
 211  -7.314374
 212  -205.3954
 213  -21.87553
 214  -33.47715
 215  -210.0522
 216  -336.2073
 217  -420.2839
 218  -405.207
 219  112.5605
 220  -164.4244
 221  201.8663
 222  164.3195
 223  -40.64039
 224  -381.8626
 225  -193.8775
 226  182.6698
 227  -42.75706
 228  -10.63358
 229  253.8962
 230  150.9578
 231  562.6161
 232  165.7888
 233  -257.2737
 234  161.032
 235  701.8951
 236  439.1813
 237  402.6388
 238  164.132
 239  76.17816
 240  -266.8936
 241  -239.678
 242  190.7639
 243  443.1939
 244  191.0939
 245  40.27968
 246  20.61621
 247  240.59
 248  -137.8321
 249  -85.22162
 250  292.4068
 251  -5.30991
 252  -28.29779
 253  -35.66544
 254  -379.1003
 255  -651.1004
 256  -462.8609
 257  -300.4869
 258  358.2917
 259  391.6349
 260  535.6332
 261  966.2715
 262  956.4239
 263  646.0771
 264  643.6785
 265  516.7599
 266  275.1569
 267  292.1917
 268  5.588889
 269  -76.4294
 270  185.7978
 271  462.5031
 272  362.5071
 273  -153.6067
 274  202.7856
 275  474.7918
 276  529.5871
 277  548.989
 278  46.99978
 279  -266.9817
 280  -463.8015
 281  -241.5585
 282  -242.8539
 283  -482.3253
 284  -181.7097
 285  117.612
 286  -752.7825
 287  -835.1318
 288  -755.4338
 289  -266.4246
 290  -410.6861
 291  -32.60964
 292  145.2701
 293  6.015181
 294  -238.4175
 295  -261.7639
 296  45.817
 297  -210.4448
 298  -339.4118
 299  -65.52631
 300  311.1173
 301  142.9411
 302  -8.821681
 303  161.0661
 304  -50.29061
 305  -20.94627
 306  -192.7716
 307  -156.2518
 308  7.315419
 309  349.1078
 310  63.6948
 311  376.1692
 312  587.11
 313  -26.50035
 314  -319.0819
 315  -326.7583
 316  190.7827
 317  -75.52727
 318  61.71132
 319  41.5746
 320  -149.0455
 321  -120.8116
 322  -515.4682
 323  -377.4619
 324  64.02816
 325  148.0889
 326  44.18219
 327  -190.6347
 328  -182.6808
 329  -5.955567
 330  178.8731
 331  380.4203
 332  178.119
 333  245.5706
 334  -49.15229
 335  -229.1741
 336  14.97155
 337  -10.39907
 338  57.2138
 339  -22.93636
 340  -7.475737
 341  -68.35744
 342  -55.87294
 343  272.7811
 344  186.5844
 345  -77.70802
 346  -386.9045
 347  -238.8629
 348  -428.3792
 349  -582.3392
 350  -277.0191
 351  77.11311
 352  126.5762
 353  -254.1602
 354  -538.2704
 355  -471.9749
 356  -300.9545
 357  -246.7506
 358  -359.8494
 359  -364.8475
 360  -80.8856
 361  207.089
 362  159.1765
 363  -235.1093
 364  -255.1308
 365  -386.3625
 366  22.13974
 367  109.1927
 368  34.04396
 369  -126.0657
 370  -243.7907
 371  -306.0833
 372  -306.7103
 373  -252.4282
 374  60.47308
 375  96.54366
 376  -16.08195
 377  297.9896
 378  91.15405
 379  -190.0728
 380  -128.2477
 381  -85.58521
 382  -166.8067
 383  -314.0263
 384  -493.4619
 385  -143.6327
 386  -250.8911
 387  -13.99201
 388  -169.9204
 389  -288.601
 390  -245.5535
 391  -570.2343
 392  -493.8695
 393  -521.0133
 394  53.62495
 395  -38.67828
 396  -404.5128
 397  -306.1864
 398  -572.9221
 399  -322.2919
 400  -409.7686
 401  -431.4015
 402  -154.9514
 403  239.2095
 404  146.2582
 405  93.12486
 406  127.6849
 407  145.2892
 408  -338.3714
 409  -351.4793
 410  33.60692
 411  225.3735
 412  249.2345
 413  -97.07761
 414  -321.8395
 415  -662.4844
 416  -652.1345
 417  -341.5651
 418  -210.8181
 419  291.55
 420  273.2015
 421  -149.874
 422  -252.5396
 423  -483.4457
 424  -49.84046
 425  169.8407
 426  330.9265
 427  102.8072
 428  300.2453
 429  376.7657
 430  146.0093
 431  2.57011
 432  -114.2589
 433  392.1128
 434  549.6721
 435  486.8522
 436  248.2106
 437  134.6661
 438  193.8096
 439  -38.12197
 440  335.7947
 441  385.369
 442  264.7146
 443  151.3864
 444  121.9851
 445  -440.5558
 446  -475.2501
 447  -301.6352
 448  164.486
 449  361.0939
 450  -67.33272
 451  38.26789
 452  354.4669
 453  271.6295
 454  165.8616
 455  -418.6353
 456  -414.1725
 457  383.1266
 458  277.8286
 459  253.6821
 460  474.4506
 461  680.8275
 462  -66.95396
 463  -75.89454
 464  99.74518
 465  -162.6416
 466  -233.5029
 467  254.5428
 468  256.5488
 469  318.7631
 470  339.7194
 471  -59.61186
 472  -437.7116
 473  -141.1882
 474  26.81682
 475  146.0696
 476  264.8546
 477  247.2055
 478  22.57826
 479  -111.4814
 480  -452.8869
 481  -340.6505
 482  -24.58625
 483  14.80711
 484  267.2251
 485  537.2006
 486  827.6837
 487  659.2615
 488  509.0242
 489  112.5504
 490  -79.04947
 491  -322.5627
 492  41.71731
 493  813.4406
 494  693.1445
 495  579.3513
 496  587.9182
 497  -57.47294
 498  -145.2162
 499  -360.9555
 500  -259.7082
 501  -355.3558
 502  -85.94964
 503  -205.2524
 504  -62.32376
 505  172.6597
 506  129.1966
 507  -241.9414
 508  156.8244
 509  7.663643
 510  53.9278
 511  499.9128
