# Input file       =  1196191533.124590-PSRB0329-2ms-sampling-dd.dat
# Candidate        =  PSR_0332+5434
# Telescope        =  AR
# Epoch_topo       =  58088.809631071643
# Epoch_bary       =  N/A
# T_sample         =  0.002
# Data Folded      =  7340032
# Data Avg         =  -3.83364219659993e-10
# Data StdDev      =  5.84842286018397 
# Profile Bins     =  512
# Profile Avg      =  -0.011229559752204
# Profile StdDev   =  700.249427065118 
# Reduced chi-sqr  =  0.404
# Prob(Noise)      <  1   (~0.0 sigma)
# P_topo (ms)      =  714.526522901503  +/- 9.29e-05
# P'_topo (s/s)    =  -0                +/- 4.9e-11
# P''_topo (s/s^2) =  0                 +/- 2.16e-14
# P_bary (ms)      =  N/A
# P'_bary (s/s)    =  N/A
# P''_bary (s/s^2) =  N/A
# P_orb (s)        =  N/A
# asin(i)/c (s)    =  N/A
# eccentricity     =  N/A
# w (rad)          =  N/A
# T_peri           =  N/A
######################################################
   0  -44.57903
   1  -95.25958
   2  -599.8658
   3  -271.7523
   4  20.221
   5  79.1191
   6  16.38521
   7  -243.5663
   8  -304.2608
   9  -308.1198
  10  -547.6394
  11  -275.5931
  12  6.558348
  13  -80.21364
  14  -391.0037
  15  -442.5981
  16  -487.1864
  17  -454.6379
  18  -491.2759
  19  -791.3357
  20  -364.9431
  21  -377.7275
  22  -171.4391
  23  -376.6348
  24  -396.0564
  25  -156.9698
  26  52.60685
  27  59.01443
  28  -284.3
  29  -258.6559
  30  -553.3463
  31  -572.793
  32  -470.3498
  33  -333.0405
  34  -531.3745
  35  -360.3687
  36  -209.7188
  37  -785.6651
  38  -867.1505
  39  -627.3059
  40  -487.9636
  41  -714.1425
  42  -248.5255
  43  152.0123
  44  -81.67806
  45  -341.5746
  46  -144.4306
  47  34.2418
  48  239.0268
  49  38.63187
  50  -37.72764
  51  355.6021
  52  594.7658
  53  326.6674
  54  273.3707
  55  266.1872
  56  617.7845
  57  349.4222
  58  -198.6897
  59  -158.7776
  60  97.83251
  61  288.8374
  62  234.3302
  63  362.5257
  64  263.919
  65  -112.3975
  66  -31.90213
  67  -333.2934
  68  187.6085
  69  429.2687
  70  348.5831
  71  361.8509
  72  306.3187
  73  -26.38771
  74  -351.51
  75  82.66862
  76  174.3467
  77  -55.04329
  78  -76.42563
  79  157.3211
  80  493.1642
  81  308.2488
  82  -7.98567
  83  -46.84585
  84  270.6679
  85  569.2399
  86  488.935
  87  300.1579
  88  -174.8306
  89  -203.4482
  90  176.96
  91  351.701
  92  -187.7517
  93  -603.9764
  94  -438.0535
  95  -71.02144
  96  -74.85667
  97  -89.64967
  98  67.38354
  99  124.8162
 100  37.16602
 101  -0.2878946
 102  -173.317
 103  -289.4966
 104  37.88234
 105  325.9149
 106  160.1592
 107  331.862
 108  331.7002
 109  -60.10843
 110  -59.46557
 111  55.11755
 112  -41.84229
 113  -56.11007
 114  112.6254
 115  -42.6573
 116  -248.1482
 117  -339.3509
 118  -95.74438
 119  44.82104
 120  1.49543
 121  -416.8812
 122  -376.3274
 123  -68.93099
 124  -11.3004
 125  -53.33654
 126  -353.3581
 127  -168.5966
 128  111.1758
 129  -1.804627
 130  -323.586
 131  -129.8172
 132  -491.1543
 133  -512.8387
 134  -85.47771
 135  -174.6221
 136  10.23023
 137  5.106859
 138  -75.66602
 139  10.24526
 140  49.73685
 141  -8.724337
 142  120.834
 143  344.5761
 144  428.2464
 145  22.69424
 146  -258.9959
 147  267.4934
 148  654.6606
 149  530.9822
 150  307.3902
 151  321.7227
 152  679.3007
 153  243.6043
 154  -113.7876
 155  245.2853
 156  240.093
 157  386.9809
 158  281.6002
 159  26.50263
 160  -699.4364
 161  -312.9714
 162  -97.14561
 163  198.0926
 164  387.7991
 165  -133.5736
 166  -253.2729
 167  -423.8435
 168  -610.6671
 169  -1056.96
 170  -982.0464
 171  168.3493
 172  258.7641
 173  -107.8021
 174  -643.2181
 175  -758.1732
 176  -528.2562
 177  -203.8294
 178  -563.4373
 179  5.756617
 180  482.9363
 181  272.5604
 182  -221.8422
 183  -495.581
 184  -291.7704
 185  -92.85018
 186  198.6405
 187  518.5947
 188  12.67252
 189  -27.99507
 190  190.4557
 191  171.866
 192  131.9811
 193  -81.16343
 194  -317.8918
 195  -418.9117
 196  -79.48133
 197  -161.4254
 198  -155.242
 199  112.6984
 200  553.7858
 201  977.8512
 202  905.4633
 203  644.8079
 204  612.8207
 205  534.6403
 206  395.8326
 207  548.0101
 208  540.5562
 209  165.0882
 210  408.2732
 211  240.6538
 212  -154.1214
 213  -389.9198
 214  145.5025
 215  378.5982
 216  387.2586
 217  235.0795
 218  -57.25848
 219  62.68213
 220  105.6565
 221  -27.12345
 222  59.30402
 223  280.1043
 224  516.3202
 225  214.0728
 226  110.7936
 227  316.6938
 228  385.6134
 229  322.2088
 230  396.3886
 231  326.3785
 232  170.245
 233  783.1145
 234  799.9301
 235  632.6654
 236  388.2167
 237  -20.80482
 238  386.4341
 239  400.0055
 240  393.0002
 241  -79.19019
 242  -107.3909
 243  314.2079
 244  274.2055
 245  181.2411
 246  56.24678
 247  114.8224
 248  87.9127
 249  284.2589
 250  304.5681
 251  67.3084
 252  432.5335
 253  274.3959
 254  -36.96164
 255  -4.316462
 256  -20.64375
 257  -60.93339
 258  406.6549
 259  363.0209
 260  -188.8621
 261  -329.455
 262  -76.83789
 263  16.96865
 264  -265.5392
 265  -255.3725
 266  -307.9377
 267  117.4687
 268  -25.16553
 269  -572.2536
 270  -525.8611
 271  -222.6994
 272  -261.3208
 273  -72.28819
 274  -418.7508
 275  -328.3791
 276  -19.55451
 277  2.035474
 278  -260.183
 279  -27.62075
 280  322.8608
 281  324.435
 282  268.3996
 283  -269.474
 284  79.88643
 285  -21.35773
 286  -136.3288
 287  380.0383
 288  533.6891
 289  340.2393
 290  132.5229
 291  322.87
 292  212.7491
 293  37.38563
 294  172.8995
 295  254.6891
 296  78.58866
 297  -82.29508
 298  -133.0671
 299  123.1603
 300  32.32341
 301  39.83215
 302  317.3445
 303  231.6624
 304  -26.90406
 305  8.574364
 306  431.3328
 307  450.8775
 308  525.4517
 309  721.1676
 310  386.9252
 311  314.1118
 312  227.1189
 313  -281.735
 314  -106.646
 315  92.13662
 316  396.0193
 317  289.4265
 318  108.2978
 319  233.7172
 320  44.43336
 321  37.10033
 322  171.5729
 323  487.8759
 324  25.44957
 325  51.11801
 326  -143.1721
 327  -58.55325
 328  -77.0563
 329  -367.4884
 330  2.655493
 331  -22.47349
 332  17.88941
 333  -502.9636
 334  -577.3682
 335  -186.0693
 336  -501.0311
 337  -717.9185
 338  -332.4056
 339  33.07358
 340  106.4429
 341  -155.184
 342  -322.7228
 343  -250.2207
 344  -364.4822
 345  -147.0641
 346  169.1858
 347  169.2673
 348  175.362
 349  76.51696
 350  158.3947
 351  362.5232
 352  342.5932
 353  455.6936
 354  470.6579
 355  260.944
 356  -42.97674
 357  -298.3849
 358  6.631809
 359  -50.60797
 360  25.92114
 361  -242.3895
 362  -46.24643
 363  292.5362
 364  -113.0297
 365  -240.6432
 366  -244.9839
 367  381.3067
 368  306.8788
 369  -132.8586
 370  21.56863
 371  92.55981
 372  219.687
 373  429.4885
 374  249.8597
 375  85.40583
 376  566.4982
 377  445.1697
 378  -223.5869
 379  -305.2451
 380  330.7412
 381  381.803
 382  396.9448
 383  27.35593
 384  -125.2166
 385  -587.8243
 386  -486.5708
 387  36.18623
 388  -79.32512
 389  -425.3958
 390  -188.3504
 391  -72.366
 392  -226.1629
 393  -427.642
 394  -27.57945
 395  241.7377
 396  -166.7228
 397  -363.7725
 398  -159.6824
 399  200.4507
 400  529.8097
 401  313.2231
 402  741.8107
 403  568.9995
 404  170.8769
 405  -329.3446
 406  -152.3324
 407  193.2884
 408  276.9308
 409  179.4533
 410  279.4071
 411  51.41963
 412  -371.2885
 413  -415.1295
 414  -188.3631
 415  17.48506
 416  111.7953
 417  305.1836
 418  -134.5
 419  -126.5413
 420  -363.4261
 421  -311.2049
 422  -72.86062
 423  252.2543
 424  455.3847
 425  87.18688
 426  -188.1786
 427  -86.42694
 428  -101.2707
 429  -106.4741
 430  300.9767
 431  339.3399
 432  220.1404
 433  153.9631
 434  94.28989
 435  448.1612
 436  254.1764
 437  495.8805
 438  200.9656
 439  431.7034
 440  391.9448
 441  -28.01841
 442  23.82906
 443  2.733918
 444  -99.51666
 445  -43.71526
 446  -185.3667
 447  -312.4286
 448  -11.51371
 449  10.66537
 450  -73.0491
 451  -196.7877
 452  -210.0046
 453  -161.685
 454  -70.57929
 455  -159.2304
 456  -178.4729
 457  -231.3434
 458  41.32095
 459  317.1567
 460  198.8081
 461  -237.6869
 462  -179.2435
 463  -200.5177
 464  -637.3577
 465  -475.8975
 466  75.45433
 467  82.08002
 468  -357.7442
 469  -450.1971
 470  -572.0179
 471  -786.2448
 472  -730.732
 473  -285.0059
 474  80.85765
 475  -119.095
 476  -118.0742
 477  -720.7021
 478  -630.3077
 479  -438.6788
 480  -426.5244
 481  23.99579
 482  202.1693
 483  148.9722
 484  -185.9764
 485  -586.5942
 486  -192.6663
 487  1.377524
 488  324.1185
 489  231.5176
 490  1.400218
 491  203.1056
 492  131.1608
 493  -245.4159
 494  -166.2179
 495  115.2266
 496  109.1171
 497  278.5666
 498  -25.77363
 499  -176.9398
 500  -273.9142
 501  -104.465
 502  217.3942
 503  433.3657
 504  -83.12493
 505  -744.6635
 506  -352.1689
 507  2.843382
 508  -165.2274
 509  -278.936
 510  -199.9035
 511  145.6684
