# Input file       =  1196004548.112581_cleaned.dat
# Candidate        =  PSR_0332+5434
# Telescope        =  AR
# Epoch_topo       =  58086.645452691911
# Epoch_bary       =  N/A
# T_sample         =  0.002
# Data Folded      =  7208960
# Data Avg         =  5.22958083853272 
# Data StdDev      =  41.9005221249381 
# Profile Bins     =  1024
# Profile Avg      =  36816.2451194951 
# Profile StdDev   =  3515.65106780674 
# Reduced chi-sqr  =  0.551
# Prob(Noise)      <  1   (~0.0 sigma)
# P_topo (ms)      =  714.524265766815  +/- 0.000519
# P'_topo (s/s)    =  -0                +/- 2.79e-10
# P''_topo (s/s^2) =  0                 +/- 1.25e-13
# P_bary (ms)      =  N/A
# P'_bary (s/s)    =  N/A
# P''_bary (s/s^2) =  N/A
# P_orb (s)        =  N/A
# asin(i)/c (s)    =  N/A
# eccentricity     =  N/A
# w (rad)          =  N/A
# T_peri           =  N/A
######################################################
   0  38702.38
   1  39184.94
   2  39122.72
   3  37917.89
   4  38134.6
   5  36905.62
   6  35369.36
   7  36540.87
   8  36707.63
   9  36367.18
  10  35617.01
  11  33865.82
  12  35165.9
  13  34873.68
  14  35927.77
  15  36752.64
  16  35943.65
  17  37706.82
  18  37295.5
  19  36952.75
  20  36886.82
  21  36285.42
  22  37135.82
  23  35561.73
  24  34797.7
  25  36470.12
  26  36368.33
  27  36836.49
  28  37318.57
  29  36980.96
  30  35469.03
  31  34174.32
  32  33809.08
  33  34995.98
  34  34383.48
  35  36537.48
  36  37303.1
  37  35969.89
  38  35624.92
  39  36023.32
  40  35732.82
  41  35652.3
  42  34414.75
  43  36644.68
  44  35829.5
  45  34536.27
  46  34461.24
  47  34843.48
  48  35746.98
  49  36425.93
  50  36381.36
  51  36971.39
  52  37115.91
  53  38057.56
  54  38598.08
  55  36119.86
  56  33483.76
  57  32826.7
  58  33672.34
  59  36898.44
  60  37757.98
  61  38107.07
  62  36561.24
  63  35356.8
  64  36019.57
  65  36404.09
  66  35225.03
  67  34800.39
  68  34224.76
  69  34935.74
  70  35278.75
  71  34468.85
  72  35099.47
  73  35123.13
  74  35954.88
  75  36741.59
  76  36364.67
  77  36125.52
  78  36203.36
  79  35462
  80  36605.3
  81  36744.96
  82  39248.92
  83  38633.02
  84  36351.09
  85  35233.91
  86  35831.4
  87  36362.21
  88  36518.88
  89  36553.9
  90  38141.91
  91  37683.77
  92  37753.91
  93  35777.62
  94  35748.6
  95  35407.52
  96  38022.9
  97  39397.69
  98  38529.11
  99  37293.09
 100  37334.15
 101  38044.52
 102  36450.35
 103  36626.09
 104  36308.23
 105  35699.27
 106  35285.26
 107  34079.85
 108  33880.52
 109  33802.59
 110  34398.32
 111  36046.44
 112  36149.49
 113  36669.2
 114  36936.73
 115  34573.07
 116  34433.21
 117  34191.09
 118  34821.96
 119  35963.3
 120  35481.91
 121  35820.15
 122  35214.57
 123  35330.07
 124  38939.11
 125  40379.11
 126  40226.33
 127  39043.77
 128  36178.48
 129  36866.84
 130  37257.9
 131  37662.54
 132  38792.48
 133  38705.63
 134  38169.4
 135  35897.12
 136  35239.82
 137  36425.5
 138  37846.65
 139  37964.95
 140  38569.25
 141  37657.89
 142  37744.22
 143  37655.38
 144  36598.05
 145  37007.76
 146  35525.23
 147  36728.88
 148  38107.75
 149  37122.14
 150  37264.79
 151  37107.72
 152  38432.75
 153  39272.05
 154  38021.77
 155  38616.82
 156  38477.34
 157  38383.33
 158  40639.29
 159  40261.17
 160  39164.77
 161  39578.75
 162  38577.65
 163  40521.89
 164  40424.78
 165  40498.75
 166  40328.44
 167  37645.12
 168  38867.43
 169  37502
 170  35523.93
 171  34227.16
 172  33499.83
 173  34207.11
 174  34920.12
 175  34839.8
 176  35139.5
 177  34646.28
 178  34951.7
 179  35377.01
 180  34151.51
 181  34555.44
 182  36138.93
 183  37971.32
 184  37660.07
 185  37112.65
 186  37778.16
 187  39489.04
 188  37458.17
 189  36656.21
 190  36706
 191  36105.82
 192  37033.73
 193  35728.28
 194  38027.14
 195  38139.73
 196  38829.84
 197  40307.34
 198  38402.8
 199  36998.73
 200  35579.98
 201  35393
 202  35126.26
 203  34841.24
 204  35800.04
 205  37215.6
 206  36302.04
 207  36775.66
 208  36766.55
 209  35184.34
 210  35665.07
 211  36176.65
 212  37854.21
 213  38088.32
 214  37680.94
 215  39583.96
 216  39287.38
 217  39520.86
 218  41054.11
 219  40512.37
 220  39188.57
 221  38040.38
 222  38034.18
 223  40438.25
 224  40541.77
 225  41645.55
 226  41147.56
 227  39091.29
 228  38608.54
 229  38477.27
 230  37062.31
 231  37813.13
 232  37928.79
 233  37801.99
 234  36324.72
 235  34771.89
 236  35870.34
 237  35403.29
 238  34558.65
 239  36254.33
 240  35647.47
 241  35861.63
 242  35903.94
 243  36603.4
 244  37808.96
 245  35272.3
 246  35735.6
 247  36969.77
 248  36936.39
 249  35789.89
 250  34673.65
 251  34615.71
 252  35232.39
 253  34794.84
 254  36139.75
 255  37113.14
 256  35498.18
 257  36282.8
 258  36243.96
 259  37191.03
 260  37133.98
 261  37561.48
 262  38586.27
 263  37677.29
 264  36613.34
 265  36738.46
 266  36272.14
 267  36782.07
 268  37538.47
 269  38028.03
 270  38919.34
 271  37551.57
 272  39167.72
 273  39933.96
 274  38192.19
 275  37290.59
 276  36227.05
 277  36333.57
 278  35487.46
 279  36341.2
 280  37248.7
 281  36836.75
 282  35672
 283  37805.8
 284  37567.25
 285  37969.61
 286  37887.63
 287  37619.87
 288  37454.35
 289  35926.98
 290  36147.43
 291  36702.39
 292  36196.3
 293  37420.45
 294  36801.83
 295  35956.41
 296  34904.82
 297  34890.29
 298  34921
 299  35930.21
 300  34583.14
 301  36015.02
 302  35598.58
 303  35989.39
 304  37253.5
 305  37932.78
 306  38533.11
 307  38961.89
 308  37043.08
 309  36989.97
 310  35205.17
 311  36117.14
 312  36810.88
 313  37297.6
 314  37590.54
 315  37141.29
 316  35070.42
 317  36242.14
 318  35903.74
 319  37887.97
 320  37308.34
 321  35350.89
 322  35463.99
 323  35690.57
 324  35479.9
 325  37035.77
 326  37179.46
 327  39122.26
 328  39309.3
 329  38935.8
 330  39001.97
 331  38591.73
 332  37775.77
 333  38080.48
 334  36480.49
 335  37016.21
 336  36097.51
 337  36853.71
 338  36506.03
 339  35227.26
 340  35754.8
 341  36684.24
 342  35973.46
 343  37042.41
 344  37969.16
 345  37126.5
 346  36973.25
 347  38024.71
 348  39868.06
 349  39009.23
 350  37345.71
 351  38168.09
 352  38254.83
 353  38382.88
 354  37908.3
 355  36928.33
 356  36414.31
 357  35010.54
 358  36553.26
 359  37808.23
 360  36935.71
 361  36874.36
 362  37170.04
 363  36983.78
 364  36054.36
 365  35447.84
 366  37034.42
 367  37425.02
 368  37241.08
 369  38898.08
 370  39246.62
 371  39790.04
 372  39302.46
 373  38164.82
 374  38376.22
 375  36813.19
 376  36203.74
 377  35761.27
 378  35002.45
 379  35856.32
 380  36720.29
 381  35392.26
 382  36733.5
 383  37251.32
 384  37313.73
 385  36659.96
 386  36297.61
 387  39078.4
 388  38840.76
 389  37230.82
 390  38460.58
 391  39220.46
 392  39507.54
 393  38097.76
 394  37923.78
 395  38862.64
 396  38546.12
 397  36664.4
 398  35152.86
 399  33824.62
 400  35019.16
 401  35077.34
 402  34789.21
 403  35812.46
 404  36734.59
 405  37349.8
 406  37799.76
 407  36790.21
 408  37754.36
 409  37533.14
 410  37642.22
 411  38775.31
 412  39263.84
 413  38950.37
 414  38801.88
 415  38593.33
 416  38960.16
 417  37203.95
 418  37515.7
 419  38924.43
 420  38738.86
 421  37824.65
 422  36737.27
 423  37031.4
 424  38813.78
 425  39004.15
 426  41036.66
 427  39682.23
 428  38161.79
 429  37994.54
 430  38400.64
 431  37409.6
 432  37219.62
 433  37741.32
 434  38145.18
 435  37482.66
 436  37504.77
 437  38709.75
 438  37034.68
 439  36243.81
 440  36835.95
 441  37746.77
 442  38858.2
 443  36742.75
 444  37644.45
 445  37811.3
 446  36311.42
 447  36230.61
 448  35459.23
 449  35424.79
 450  34815.8
 451  35169.34
 452  35727.63
 453  35356.26
 454  35460.14
 455  37553.8
 456  36612.54
 457  36488.1
 458  36597.49
 459  35713.96
 460  35875.61
 461  35262.43
 462  36250.82
 463  36598.08
 464  35555.67
 465  37762.99
 466  38117.82
 467  37979.66
 468  37365.55
 469  37929.5
 470  37710.6
 471  37094.93
 472  35691.43
 473  37446.4
 474  36970.43
 475  36214.2
 476  37129.94
 477  37330.64
 478  36426.63
 479  35667.96
 480  36701.88
 481  38265.27
 482  39048.09
 483  39421.3
 484  39428.66
 485  37577.12
 486  37136
 487  37420.73
 488  34984.48
 489  34196.6
 490  32609.02
 491  33032.44
 492  34231.71
 493  34121.48
 494  36855.28
 495  36875.57
 496  36610.15
 497  35180.62
 498  34757.18
 499  35634.94
 500  35811.52
 501  36154.06
 502  36654.09
 503  36180.49
 504  36306.86
 505  38052.84
 506  36527.16
 507  35595.64
 508  34213.66
 509  34006.2
 510  35589.71
 511  35450.07
 512  36703.69
 513  35342.88
 514  34393.67
 515  35224.32
 516  35775
 517  36871.53
 518  37607.24
 519  37698.25
 520  38416.52
 521  37946.55
 522  37244.37
 523  37386.94
 524  36160.66
 525  36081.66
 526  36205.35
 527  36124.89
 528  37236.75
 529  36618.53
 530  36779.96
 531  36293.39
 532  36391.52
 533  37638.03
 534  37697.88
 535  36302.62
 536  36576.82
 537  37794.03
 538  38841.25
 539  37935.29
 540  37045.87
 541  38576.93
 542  37579.16
 543  36797.71
 544  36177.09
 545  34682.71
 546  34363.7
 547  34698.68
 548  35772.37
 549  35824.25
 550  35236.98
 551  35609.83
 552  36475.59
 553  35202.15
 554  35934.41
 555  36362.68
 556  36542.52
 557  36361.52
 558  35373.96
 559  36528.54
 560  37897.26
 561  38837.44
 562  39040.84
 563  36744.66
 564  35061.72
 565  36328.08
 566  35831.03
 567  36857.79
 568  36247.49
 569  37339.6
 570  38832.86
 571  37122.99
 572  37051.61
 573  37422.53
 574  37351.63
 575  37545.27
 576  36307.87
 577  36040.18
 578  35566.32
 579  34520.58
 580  35540.53
 581  34452.71
 582  34153.49
 583  35273.09
 584  36746.22
 585  37520.29
 586  36457.45
 587  36875.95
 588  38151.83
 589  37465.21
 590  36920.27
 591  37261.16
 592  37389.9
 593  37234.86
 594  38356.5
 595  39227.27
 596  39826.78
 597  38267.64
 598  38006.68
 599  36665.45
 600  34797.59
 601  35275.65
 602  35273.26
 603  36125.78
 604  37073.65
 605  37646.78
 606  37268.25
 607  35964.65
 608  36749.81
 609  37848.84
 610  38197.89
 611  38607.75
 612  39858.73
 613  39126.49
 614  37732.44
 615  36365.74
 616  36392.09
 617  36999.97
 618  36492.14
 619  37811.11
 620  37316.06
 621  37033.42
 622  37038.2
 623  36863.19
 624  38302.24
 625  37967.28
 626  38327.93
 627  38863
 628  38061.89
 629  37901.17
 630  37983.08
 631  36773.3
 632  37058.81
 633  37517.24
 634  38664.09
 635  40260.01
 636  38173.91
 637  38925.68
 638  38574.54
 639  37287.96
 640  38196.77
 641  37569.37
 642  37740.47
 643  37478.79
 644  36100.96
 645  36947.53
 646  35281.94
 647  34687.28
 648  36161.48
 649  36225.85
 650  37510.8
 651  36431.17
 652  37132.63
 653  38444.8
 654  38913.95
 655  39631.02
 656  39411.46
 657  36318.7
 658  36430.71
 659  37115.5
 660  37971.28
 661  38079.65
 662  37432.33
 663  37727.47
 664  37234.07
 665  35841.22
 666  36900.3
 667  36094.55
 668  36222.14
 669  37581.98
 670  37488.15
 671  36998.01
 672  36115.67
 673  36219.05
 674  36757.28
 675  35901.89
 676  36385.19
 677  36452.17
 678  34313.63
 679  34004.82
 680  35719.07
 681  36270.37
 682  36697.48
 683  36801.32
 684  38330.55
 685  37577.02
 686  36079.92
 687  36970.25
 688  35923.39
 689  34941.44
 690  35094.29
 691  36428.58
 692  37188.14
 693  35842.8
 694  35000.07
 695  34978.61
 696  33936.99
 697  34015.64
 698  36055.48
 699  37547.7
 700  38249.3
 701  38572.49
 702  39613.4
 703  39360.94
 704  37918.25
 705  38553.64
 706  37751.21
 707  36562.48
 708  36930.44
 709  36890.75
 710  37432.98
 711  35284.54
 712  33867.88
 713  33840.49
 714  32637.64
 715  34750.87
 716  36424.18
 717  36693.97
 718  36685.27
 719  36104
 720  37200.32
 721  36874.93
 722  35988.21
 723  37331.98
 724  38609.58
 725  37583.58
 726  37521.72
 727  36822.98
 728  36795.83
 729  36446.69
 730  35268.2
 731  37109.89
 732  37199.87
 733  36821.45
 734  37666.68
 735  37444.19
 736  36331.7
 737  35725.75
 738  34959.49
 739  36376.48
 740  35938.53
 741  36860.34
 742  37918.46
 743  36026.6
 744  36169
 745  34383.28
 746  33937.87
 747  33931.4
 748  35046.8
 749  36802.38
 750  36691.88
 751  35251.1
 752  36164.71
 753  37156.04
 754  37621.98
 755  37701.13
 756  37594.01
 757  36927.54
 758  35391.35
 759  35413.57
 760  36545.22
 761  36118.89
 762  36869.94
 763  37464.55
 764  36313.57
 765  34541.86
 766  34516.32
 767  35010.24
 768  35381.77
 769  34609.36
 770  34382.77
 771  34499.3
 772  33967.19
 773  35998.51
 774  35892.18
 775  35061.71
 776  34939.86
 777  35316.51
 778  35057.08
 779  33104.68
 780  34469.07
 781  35858.41
 782  34946.96
 783  35136.21
 784  36179.15
 785  35826.77
 786  34199.98
 787  33380.58
 788  34847.66
 789  35809.21
 790  35229.02
 791  35848.77
 792  34811.38
 793  33381
 794  33549.83
 795  34397.55
 796  36311.68
 797  36139.52
 798  36491.34
 799  38441.37
 800  37106.73
 801  37787.84
 802  37631.46
 803  36687.05
 804  37263.12
 805  37698.99
 806  36932.2
 807  36246.38
 808  35124.11
 809  37258.11
 810  36872.84
 811  36870.66
 812  38458.96
 813  37854.41
 814  37011.95
 815  36078.81
 816  35312.31
 817  36751.79
 818  36018.84
 819  36181.29
 820  37384.59
 821  37466.81
 822  37245.07
 823  36377
 824  36783.21
 825  39073.82
 826  39191.6
 827  39971.63
 828  39867.25
 829  38329.47
 830  37351.73
 831  36841.71
 832  36685.17
 833  37292.17
 834  37300.68
 835  37469.95
 836  36689.14
 837  34402.85
 838  35683.89
 839  34320.06
 840  34347.87
 841  35385.02
 842  37263.91
 843  38531.44
 844  37067.42
 845  37250.97
 846  37873.59
 847  37147.2
 848  38475.56
 849  39509.95
 850  37729.14
 851  36171.78
 852  36958.38
 853  37841.23
 854  38394.41
 855  38241.36
 856  38346.16
 857  36395.35
 858  34921.55
 859  36169.14
 860  36147.7
 861  35390.76
 862  36500.42
 863  37391.77
 864  37688.54
 865  36296.3
 866  36092.93
 867  37714.83
 868  37350.36
 869  37608.02
 870  37250.01
 871  36375.52
 872  36478.36
 873  35318.01
 874  36966.27
 875  37436.95
 876  37428.46
 877  37582.91
 878  36621.92
 879  35303.66
 880  35942.61
 881  37464.91
 882  38540.36
 883  38583.55
 884  36649.1
 885  36470.98
 886  34360.88
 887  35479.39
 888  37053.57
 889  36084.91
 890  38182.5
 891  38240.55
 892  38398
 893  36505.17
 894  35639.87
 895  37767.45
 896  37632.81
 897  36438.69
 898  37209.75
 899  37179.13
 900  37771.15
 901  37034.61
 902  35921.38
 903  37743.23
 904  38632.36
 905  40055.74
 906  39587.16
 907  37826
 908  36437.78
 909  37523.59
 910  38021.35
 911  38844.25
 912  38095.79
 913  39276.56
 914  40504
 915  37787.33
 916  38112.85
 917  37921.12
 918  38046.13
 919  37194.55
 920  36420.21
 921  36610.01
 922  35698.58
 923  34984.36
 924  36056.61
 925  34988.88
 926  34072.09
 927  35515.84
 928  36462.68
 929  36133.6
 930  35598.46
 931  36764.48
 932  37357.25
 933  36447.94
 934  35996.08
 935  36127.29
 936  34280.34
 937  35115.21
 938  36534.68
 939  37215.49
 940  37010.25
 941  36038.1
 942  36899.2
 943  35770.97
 944  35064.04
 945  37034.38
 946  37407.42
 947  37441.57
 948  36769.04
 949  36108.09
 950  36200.8
 951  35718.46
 952  36464.24
 953  37932.69
 954  38049.32
 955  39066.12
 956  39315.21
 957  39042.93
 958  37009.96
 959  36004.32
 960  37035.61
 961  38196.12
 962  37749.99
 963  39126.22
 964  39059.3
 965  37808.5
 966  36180.46
 967  37603.8
 968  38194.05
 969  37710.28
 970  36377.47
 971  37022.45
 972  36550.6
 973  36992.4
 974  38070.35
 975  37391.4
 976  38887.7
 977  39930.53
 978  40238.27
 979  37706.04
 980  35353.23
 981  36503.09
 982  37002.76
 983  35873.86
 984  36619.56
 985  36139.18
 986  36316.42
 987  35572.98
 988  34986.32
 989  35896.92
 990  35573.8
 991  35729.16
 992  36274.76
 993  35741.71
 994  36023.99
 995  36036.16
 996  36120.73
 997  37272.81
 998  35935.07
 999  36588.34
1000  36471.69
1001  35359.61
1002  34597.98
1003  34616.09
1004  35885.25
1005  38790.92
1006  39303.63
1007  38900.1
1008  37683.42
1009  36624.26
1010  37565.34
1011  37724.77
1012  37608.07
1013  37950.09
1014  36958.92
1015  36899.18
1016  36029.52
1017  36202.18
1018  36829.89
1019  35546.5
1020  36064.38
1021  36699.52
1022  36449.12
1023  36986.21
