# Input file       =  1196176904.130603_cleaned.dat
# Candidate        =  PSR_0332+5434
# Telescope        =  AR
# Epoch_topo       =  58088.640314011609
# Epoch_bary       =  N/A
# T_sample         =  0.002
# Data Folded      =  7208960
# Data Avg         =  0.0215703273962643
# Data StdDev      =  1.00044760907343 
# Profile Bins     =  512
# Profile Avg      =  303.724667986011 
# Profile StdDev   =  118.712288717262 
# Reduced chi-sqr  =  0.714
# Prob(Noise)      <  1   (~0.0 sigma)
# P_topo (ms)      =  714.526322725741  +/- 5.03e-05
# P'_topo (s/s)    =  -0                +/- 2.7e-11
# P''_topo (s/s^2) =  0                 +/- 1.22e-14
# P_bary (ms)      =  N/A
# P'_bary (s/s)    =  N/A
# P''_bary (s/s^2) =  N/A
# P_orb (s)        =  N/A
# asin(i)/c (s)    =  N/A
# eccentricity     =  N/A
# w (rad)          =  N/A
# T_peri           =  N/A
######################################################
   0  551.3024
   1  550.5982
   2  468.2982
   3  299.207
   4  319.1945
   5  379.0321
   6  399.998
   7  291.3276
   8  258.1304
   9  283.5244
  10  351.7282
  11  422.2844
  12  440.1871
  13  445.6785
  14  313.4322
  15  237.7182
  16  380.3762
  17  384.571
  18  339.1565
  19  323.5749
  20  283.5841
  21  304.4143
  22  402.7643
  23  333.4936
  24  304.0653
  25  285.9547
  26  332.3825
  27  414.0428
  28  263.9327
  29  207.095
  30  274.8252
  31  277.4831
  32  342.1824
  33  378.732
  34  411.6011
  35  310.0595
  36  279.9784
  37  227.7459
  38  339.7145
  39  303.1848
  40  403.1526
  41  310.8768
  42  230.9153
  43  281.5102
  44  363.7158
  45  356.3353
  46  297.7119
  47  348.7267
  48  286.7809
  49  287.0875
  50  120.8876
  51  176.4911
  52  315.1802
  53  307.1013
  54  268.2266
  55  285.6096
  56  287.1468
  57  274.7111
  58  250.6927
  59  336.6158
  60  353.3461
  61  393.4312
  62  394.5792
  63  345.9839
  64  249.0759
  65  199.482
  66  277.2412
  67  261.9934
  68  241.1867
  69  369.1546
  70  324.3445
  71  257.0251
  72  266.9402
  73  253.7364
  74  283.9978
  75  178.8801
  76  195.3032
  77  248.7911
  78  318.5632
  79  280.8996
  80  304.7107
  81  273.5089
  82  296.6922
  83  341.3105
  84  247.588
  85  267.9215
  86  222.6647
  87  325.2147
  88  245.1053
  89  217.1095
  90  300.9014
  91  376.1834
  92  323.0677
  93  256.1223
  94  271.4965
  95  404.3674
  96  297.4602
  97  199.0291
  98  338.4538
  99  315.875
 100  188.6546
 101  239.8556
 102  306.974
 103  245.7236
 104  220.8776
 105  280.4964
 106  244.0482
 107  234.4593
 108  277.795
 109  316.2335
 110  274.9297
 111  268.7307
 112  311.3877
 113  280.9751
 114  236.6451
 115  239.6881
 116  367.4534
 117  302.5771
 118  237.1841
 119  292.2391
 120  391.4412
 121  327.5895
 122  122.005
 123  270.5497
 124  381.0003
 125  337.8502
 126  361.2164
 127  431.0078
 128  331.9341
 129  225.6299
 130  210.2661
 131  228.101
 132  310.718
 133  284.3867
 134  324.7635
 135  345.397
 136  324.9907
 137  262.5533
 138  330.7205
 139  371.1773
 140  390.6624
 141  269.6843
 142  204.624
 143  255.1924
 144  208.4451
 145  280.9391
 146  362.7611
 147  283.0138
 148  281.9023
 149  329.8659
 150  262.2717
 151  279.1324
 152  301.351
 153  347.3343
 154  295.5005
 155  388.7149
 156  371.9807
 157  321.8183
 158  354.1305
 159  436.6728
 160  381.7185
 161  307.3828
 162  342.5958
 163  365.2222
 164  277.5995
 165  322.3923
 166  415.9956
 167  505.0271
 168  443.8004
 169  340.7524
 170  432.3596
 171  426.5147
 172  343.049
 173  373.8458
 174  387.9855
 175  354.7458
 176  347.7462
 177  421.9538
 178  414.1384
 179  266.0473
 180  389.7601
 181  433.8788
 182  366.5487
 183  319.1613
 184  380.9971
 185  400.9387
 186  369.8608
 187  317.4375
 188  301.7545
 189  302.7986
 190  208.3138
 191  220.5734
 192  320.398
 193  298.2578
 194  306.1565
 195  235.1149
 196  175.2762
 197  188.7196
 198  217.5118
 199  218.6195
 200  193.8973
 201  259.9111
 202  373.4971
 203  299.8987
 204  182.8863
 205  172.8596
 206  278.7484
 207  288.5312
 208  217.0436
 209  177.6415
 210  259.6542
 211  235.4318
 212  250.466
 213  308.2762
 214  335.2842
 215  317.7979
 216  243.3658
 217  217.9452
 218  309.7922
 219  266.0707
 220  225.2604
 221  237.9568
 222  284.3264
 223  372.1466
 224  484.0377
 225  373.5496
 226  233.2751
 227  260.6789
 228  253.3211
 229  289.2477
 230  331.3552
 231  306.1526
 232  253.6607
 233  202.4031
 234  241.8297
 235  246.674
 236  332.3039
 237  328.4178
 238  227.778
 239  177.4707
 240  180.4045
 241  290.037
 242  175.8059
 243  171.2558
 244  314.9509
 245  328.7347
 246  273.5202
 247  309.948
 248  256.7224
 249  253.0942
 250  226.2986
 251  286.5604
 252  226.8752
 253  293.3171
 254  260.7115
 255  308.7916
 256  353.2093
 257  374.4766
 258  272.1681
 259  342.0181
 260  445.6578
 261  308.4952
 262  285.2737
 263  398.6357
 264  362.8789
 265  248.8939
 266  249.5506
 267  315.9521
 268  277.0556
 269  223.6953
 270  233.1558
 271  332.6848
 272  343.7818
 273  397.7916
 274  343.009
 275  264.0579
 276  251.318
 277  361.9613
 278  380.7552
 279  285.1436
 280  287.6096
 281  260.9035
 282  333.4936
 283  330.062
 284  397.7867
 285  315.3051
 286  223.9093
 287  263.9615
 288  237.5719
 289  222.9118
 290  234.4999
 291  368.527
 292  276.5933
 293  288.6317
 294  169.3066
 295  316.3913
 296  368.8229
 297  288.834
 298  341.8575
 299  366.4813
 300  323.188
 301  277.1155
 302  262.7805
 303  323.0385
 304  365.565
 305  380.1062
 306  390.5007
 307  444.725
 308  395.3438
 309  324.0741
 310  290.0895
 311  225.0117
 312  223.1984
 313  166.166
 314  292.7336
 315  242.46
 316  333.8085
 317  389.5757
 318  275.9863
 319  203.0451
 320  298.6212
 321  335.5118
 322  265.5041
 323  276.9611
 324  359.1613
 325  345.2203
 326  428.8184
 327  479.9798
 328  365.694
 329  343.0994
 330  280.4037
 331  239.2482
 332  272.9888
 333  289.9881
 334  276.869
 335  345.074
 336  333.0575
 337  382.5523
 338  353.4497
 339  263.6349
 340  299.4227
 341  351.6685
 342  390.7966
 343  388.3023
 344  338.8084
 345  300.2791
 346  299.4289
 347  258.551
 348  165.9772
 349  210.0084
 350  273.0062
 351  238.2295
 352  154.6762
 353  208.1427
 354  325.7357
 355  213.9901
 356  237.8236
 357  226.9389
 358  80.87738
 359  93.21512
 360  168.9841
 361  292.0265
 362  205.9264
 363  70.07638
 364  266.1822
 365  261.2578
 366  151.5604
 367  154.8737
 368  257.4082
 369  379.7971
 370  452.0697
 371  390.8008
 372  216.4531
 373  229.5042
 374  314.5915
 375  326.6488
 376  316.8841
 377  443.5678
 378  379.6031
 379  285.0269
 380  289.9872
 381  332.8617
 382  330.1767
 383  356.8927
 384  385.1262
 385  404.0769
 386  319.6927
 387  309.8365
 388  351.4138
 389  291.0818
 390  241.8402
 391  239.6937
 392  313.8362
 393  257.5826
 394  171.6223
 395  336.5958
 396  349.3321
 397  307.7539
 398  234.9868
 399  315.2715
 400  282.9514
 401  336.6665
 402  322.431
 403  431.1935
 404  416.9364
 405  322.6956
 406  406.6187
 407  445.7737
 408  311.1871
 409  289.0256
 410  270.6446
 411  315.5975
 412  247.0784
 413  327.6639
 414  347.9832
 415  246.3248
 416  192.5057
 417  165.9962
 418  179.5059
 419  230.205
 420  260.6612
 421  351.2008
 422  297.6754
 423  273.364
 424  308.0678
 425  219.8141
 426  164.0381
 427  220.3589
 428  306.2791
 429  324.8527
 430  300.5792
 431  269.0086
 432  279.9864
 433  319.5425
 434  199.4319
 435  241.3851
 436  270.5718
 437  359.3325
 438  331.5495
 439  239.0573
 440  283.6807
 441  258.6669
 442  315.2729
 443  296.0731
 444  272.9846
 445  281.7091
 446  228.5899
 447  308.9436
 448  286.7804
 449  305.3478
 450  369.992
 451  388.3939
 452  335.1185
 453  403.4033
 454  323.8614
 455  341.0773
 456  394.0893
 457  337.132
 458  243.1657
 459  215.2308
 460  323.8152
 461  390.1848
 462  272.8943
 463  273.5918
 464  368.5453
 465  329.0296
 466  171.3614
 467  241.6622
 468  455.5896
 469  386.3997
 470  292.1638
 471  384.0809
 472  282.0111
 473  174.1012
 474  255.0849
 475  282.5261
 476  242.3705
 477  294.3991
 478  345.3243
 479  281.307
 480  233.3291
 481  247.8044
 482  319.32
 483  384.2123
 484  384.4232
 485  447.6947
 486  348.9624
 487  287.5262
 488  375.9387
 489  390.9724
 490  357.9862
 491  402.3357
 492  331.2956
 493  263.5842
 494  319.1632
 495  386.9524
 496  300.9525
 497  252.4822
 498  305.4457
 499  287.0876
 500  250.6105
 501  264.2502
 502  401.5697
 503  460.0558
 504  459.272
 505  408.3548
 506  374.6146
 507  421.0892
 508  310.5782
 509  476.7845
 510  487.2946
 511  493.3591
