# Input file       =  1196536233.113593_cleaned.dat
# Candidate        =  PSR_0332+5434
# Telescope        =  AR
# Epoch_topo       =  58092.799214277700
# Epoch_bary       =  N/A
# T_sample         =  0.002
# Data Folded      =  7340032
# Data Avg         =  0.0318149628461818
# Data StdDev      =  1.00005022415676 
# Profile Bins     =  512
# Profile Avg      =  456.10096107946  
# Profile StdDev   =  119.739049867555 
# Reduced chi-sqr  =  0.842
# Prob(Noise)      <  0.996   (~0.0 sigma)
# P_topo (ms)      =  714.530619536311  +/- 0.000649
# P'_topo (s/s)    =  -0                +/- 3.42e-10
# P''_topo (s/s^2) =  0                 +/- 1.51e-13
# P_bary (ms)      =  N/A
# P'_bary (s/s)    =  N/A
# P''_bary (s/s^2) =  N/A
# P_orb (s)        =  N/A
# asin(i)/c (s)    =  N/A
# eccentricity     =  N/A
# w (rad)          =  N/A
# T_peri           =  N/A
######################################################
   0  487.461
   1  471.0346
   2  441.2435
   3  434.1812
   4  367.6829
   5  422.2653
   6  346.6579
   7  430.3759
   8  447.3679
   9  415.3529
  10  319.35
  11  405.7743
  12  511.1177
  13  501.7781
  14  449.123
  15  455.115
  16  425.2304
  17  472.4263
  18  414.1931
  19  490.5411
  20  522.3983
  21  477.6458
  22  392.011
  23  324.6855
  24  429.766
  25  372.1486
  26  391.4583
  27  338.1112
  28  471.6985
  29  526.6393
  30  374.5828
  31  280.0935
  32  344.8044
  33  405.3445
  34  376.159
  35  466.661
  36  421.423
  37  364.8724
  38  391.8692
  39  271.3498
  40  347.2649
  41  358.2608
  42  397.2937
  43  415.2915
  44  540.9619
  45  548.8386
  46  541.8412
  47  362.4222
  48  425.7931
  49  621.7139
  50  655.587
  51  527.3152
  52  516.2253
  53  497.3631
  54  451.2275
  55  424.2615
  56  519.5456
  57  595.458
  58  446.7798
  59  437.6653
  60  444.4413
  61  454.2059
  62  472.0401
  63  545.0663
  64  515.2793
  65  482.0227
  66  586.8768
  67  712.3084
  68  577.2132
  69  550.4249
  70  409.137
  71  381.0127
  72  458.8644
  73  467.7349
  74  427.5777
  75  463.0191
  76  555.8199
  77  526.2674
  78  344.6229
  79  527.2866
  80  476.4252
  81  416.1561
  82  479.7866
  83  484.686
  84  354.9417
  85  381.8256
  86  424.6997
  87  430.7939
  88  411.2462
  89  409.4244
  90  415.9816
  91  432.3716
  92  461.8158
  93  562.0269
  94  433.012
  95  350.1572
  96  407.3963
  97  459.6006
  98  305.363
  99  291.1196
 100  432.2759
 101  484.6472
 102  497.2257
 103  477.8734
 104  471.9457
 105  394.7213
 106  426.2967
 107  456.5621
 108  442.4624
 109  474.5524
 110  525.158
 111  401.2126
 112  388.0938
 113  382.1416
 114  329.167
 115  403.5743
 116  394.3238
 117  406.8223
 118  332.8563
 119  477.8056
 120  484.4902
 121  450.679
 122  334.8577
 123  412.7013
 124  405.261
 125  259.7866
 126  380.9685
 127  329.7581
 128  365.9898
 129  426.4023
 130  346.8035
 131  192.8092
 132  248.1681
 133  379.756
 134  294.9306
 135  410.3996
 136  392.4101
 137  277.2644
 138  295.8239
 139  244.953
 140  276.0534
 141  446.3747
 142  526.1171
 143  451.0812
 144  333.7591
 145  423.2718
 146  445.5569
 147  372.3593
 148  396.0196
 149  375.5227
 150  275.5267
 151  281.0808
 152  361.8937
 153  432.1463
 154  449.0863
 155  352.054
 156  474.347
 157  543.2668
 158  652.3638
 159  434.6094
 160  507.3606
 161  441.9639
 162  469.5305
 163  507.8775
 164  451.4059
 165  480.9553
 166  500.3678
 167  593.6875
 168  613.5374
 169  529.8366
 170  489.4753
 171  476.9809
 172  427.1695
 173  509.0171
 174  487.7046
 175  496.1641
 176  492.8454
 177  548.8523
 178  536.9969
 179  531.8256
 180  506.073
 181  482.2602
 182  482.6319
 183  513.8448
 184  449.4673
 185  380.8011
 186  442.9832
 187  415.1006
 188  496.9067
 189  552.745
 190  542.0326
 191  491.481
 192  547.8145
 193  434.0492
 194  413.1162
 195  398.0703
 196  507.0133
 197  496.1564
 198  448.6788
 199  584.0359
 200  566.4364
 201  489.1774
 202  467.2318
 203  485.0874
 204  572.8458
 205  457.6766
 206  519.5098
 207  506.1291
 208  423.2609
 209  350.7774
 210  343.8698
 211  400.4321
 212  383.8168
 213  410.7429
 214  465.5869
 215  474.9355
 216  464.7072
 217  351.368
 218  434.4969
 219  402.4005
 220  325.3265
 221  447.0386
 222  464.1412
 223  454.5429
 224  471.9565
 225  395.014
 226  446.7759
 227  317.6223
 228  417.9189
 229  559.8041
 230  406.8991
 231  369.7888
 232  426.0952
 233  376.5717
 234  384.7342
 235  539.5154
 236  511.6451
 237  383.7405
 238  418.7677
 239  457.247
 240  339.0663
 241  225.6995
 242  386.9468
 243  512.674
 244  386.7415
 245  372.4614
 246  339.0623
 247  332.8358
 248  353.6242
 249  410.771
 250  486.7806
 251  590.6913
 252  544.3961
 253  481.2009
 254  480.4323
 255  399.7071
 256  341.5567
 257  405.2466
 258  462.2997
 259  461.7513
 260  486.4115
 261  484.2762
 262  462.119
 263  341.7076
 264  430.4011
 265  546.2264
 266  540.9136
 267  425.1279
 268  386.4345
 269  341.357
 270  415.04
 271  575.7936
 272  574.0825
 273  575.7567
 274  484.9599
 275  438.5388
 276  369.5686
 277  338.4825
 278  439.1187
 279  514.4167
 280  386.1621
 281  399.4962
 282  419.4017
 283  372.3732
 284  349.0218
 285  443.7092
 286  529.2736
 287  417.3019
 288  333.6965
 289  429.4905
 290  435.151
 291  398.8383
 292  580.5727
 293  556.9622
 294  505.6445
 295  478.5501
 296  365.6864
 297  450.6776
 298  493.5338
 299  491.7617
 300  460.7634
 301  351.0352
 302  469.7907
 303  521.6957
 304  424.4363
 305  530.2382
 306  474.7449
 307  452.5135
 308  460.4245
 309  494.7157
 310  555.8353
 311  578.1627
 312  537.4968
 313  491.2191
 314  449.7942
 315  429.8276
 316  536.5838
 317  501.7077
 318  484.3152
 319  606.2412
 320  576.6002
 321  593.8962
 322  702.1427
 323  667.2936
 324  697.6907
 325  759.1935
 326  595.8019
 327  572.852
 328  569.8816
 329  504.8753
 330  438.5096
 331  431.3102
 332  419.977
 333  431.0107
 334  486.8153
 335  497.4394
 336  491.1246
 337  375.2487
 338  436.4534
 339  401.3814
 340  346.4886
 341  398.0134
 342  365.221
 343  357.7481
 344  528.9133
 345  531.9175
 346  410.9764
 347  477.1501
 348  456.5097
 349  343.2067
 350  417.9547
 351  495.8389
 352  528.6031
 353  478.5168
 354  395.3275
 355  332.8045
 356  505.201
 357  611.2288
 358  466.7583
 359  501.1217
 360  652.7067
 361  564.1415
 362  529.4791
 363  607.2288
 364  509.2243
 365  622.16
 366  479.32
 367  423.4777
 368  527.145
 369  591.6648
 370  515.46
 371  462.6774
 372  458.4811
 373  474.1979
 374  504.7983
 375  554.5806
 376  528.9081
 377  479.105
 378  566.9162
 379  603.2256
 380  557.3641
 381  536.3536
 382  430.4559
 383  407.4016
 384  427.7332
 385  485.567
 386  454.1433
 387  495.9411
 388  489.8034
 389  404.9593
 390  513.6741
 391  503.803
 392  485.9263
 393  448.6073
 394  444.5497
 395  481.769
 396  400.1828
 397  400.3979
 398  392.3807
 399  411.0338
 400  396.7352
 401  519.132
 402  481.2211
 403  508.0871
 404  410.445
 405  343.6315
 406  356.5931
 407  383.8688
 408  590.28
 409  568.1759
 410  501.9862
 411  520.8163
 412  438.0856
 413  323.6942
 414  416.8799
 415  547.493
 416  546.1044
 417  440.3962
 418  404.1821
 419  396.7001
 420  432.8515
 421  563.1287
 422  491.8575
 423  435.4333
 424  508.5772
 425  521.9685
 426  358.7371
 427  333.9557
 428  498.1784
 429  558.7195
 430  475.7588
 431  469.2159
 432  443.3589
 433  487.5559
 434  464.393
 435  439.9987
 436  477.4588
 437  475.7802
 438  446.1086
 439  452.5461
 440  488.7685
 441  537.7823
 442  457.7511
 443  411.8449
 444  357.1505
 445  438.3912
 446  538.8564
 447  428.9822
 448  466.5004
 449  532.3365
 450  490.3729
 451  378.2216
 452  442.0483
 453  470.5904
 454  362.1862
 455  377.618
 456  440.7799
 457  411.4757
 458  473.049
 459  535.5955
 460  533.0923
 461  404.8214
 462  375.1021
 463  466.5496
 464  559.2396
 465  372.2541
 466  419.1512
 467  485.9709
 468  549.6716
 469  480.5168
 470  403.9164
 471  361.2635
 472  494.7184
 473  472.3081
 474  548.9214
 475  599.0894
 476  530.9371
 477  435.6643
 478  463.1519
 479  606.4954
 480  670.4536
 481  501.2941
 482  484.5608
 483  436.7812
 484  388.0947
 485  438.8172
 486  437.6563
 487  406.3003
 488  391.8576
 489  413.6087
 490  456.6646
 491  513.2479
 492  402.0774
 493  428.641
 494  460.5145
 495  497.2935
 496  568.7625
 497  442.6178
 498  489.0208
 499  506.3872
 500  452.3594
 501  487.1273
 502  458.1341
 503  467.2422
 504  471.0822
 505  583.1127
 506  522.051
 507  494.2893
 508  472.8006
 509  484.4872
 510  592.7488
 511  476.8822
