# Input file       =  1196708008.118209_cleaned.dat
# Candidate        =  PSR_0332+5434
# Telescope        =  AR
# Epoch_topo       =  58094.787350905193
# Epoch_bary       =  N/A
# T_sample         =  0.002
# Data Folded      =  7340032
# Data Avg         =  0.225622708412369
# Data StdDev      =  3.96561187435124 
# Profile Bins     =  256
# Profile Avg      =  6465.7769906733  
# Profile StdDev   =  671.48946020724  
# Reduced chi-sqr  =  0.713
# Prob(Noise)      <  1   (~0.0 sigma)
# P_topo (ms)      =  714.532643937244  +/- 0.000193
# P'_topo (s/s)    =  -0                +/- 1.02e-10
# P''_topo (s/s^2) =  0                 +/- 4.5e-14
# P_bary (ms)      =  N/A
# P'_bary (s/s)    =  N/A
# P''_bary (s/s^2) =  N/A
# P_orb (s)        =  N/A
# asin(i)/c (s)    =  N/A
# eccentricity     =  N/A
# w (rad)          =  N/A
# T_peri           =  N/A
######################################################
   0  6593.495
   1  6009.981
   2  5634.167
   3  5856.342
   4  6371.803
   5  6029.081
   6  6487.29
   7  6704.099
   8  6528.481
   9  7333.409
  10  7125.95
  11  7473.281
  12  6724.162
  13  7158.209
  14  7012.177
  15  6881.846
  16  6532.238
  17  6415.171
  18  6359.298
  19  6179.277
  20  7065.771
  21  7088.199
  22  7297.322
  23  7157.97
  24  6822.563
  25  6738.061
  26  7289.415
  27  6991.435
  28  6426.814
  29  6323.387
  30  6661.16
  31  6443.336
  32  6666.266
  33  6891.405
  34  6566.504
  35  7014.052
  36  6715.461
  37  6346.956
  38  7195.708
  39  6386.598
  40  6305.568
  41  6799.369
  42  6988.069
  43  6964.542
  44  6099.474
  45  6211.546
  46  5796.377
  47  6644.681
  48  6395.991
  49  6300.174
  50  6064.548
  51  6583.345
  52  6307.78
  53  6714.959
  54  6043.293
  55  5864.318
  56  6327.473
  57  6621.533
  58  7341.635
  59  6869.925
  60  7046.391
  61  6059.802
  62  6816.64
  63  7503.625
  64  7109.574
  65  7260.013
  66  5995.132
  67  6254.943
  68  6560.952
  69  6353.245
  70  6182.555
  71  6931.234
  72  5932.294
  73  5954.986
  74  6273.046
  75  5979.127
  76  6383.422
  77  6045.045
  78  6515.84
  79  5927.457
  80  6573.781
  81  6970.369
  82  6682.24
  83  7361.562
  84  7084.944
  85  7650.606
  86  6778.523
  87  6198.106
  88  6310.76
  89  6571.886
  90  6637.594
  91  6567.522
  92  6788.622
  93  6525.266
  94  7005.47
  95  6156.821
  96  6283.787
  97  6194.329
  98  6073.3
  99  7257.002
 100  6342.241
 101  6391.757
 102  6016.372
 103  6613.503
 104  6132.783
 105  5768.049
 106  6172.466
 107  7119.724
 108  6361.125
 109  6250.78
 110  6635.335
 111  7186.93
 112  6645.546
 113  6951.1
 114  6720.014
 115  6433.596
 116  6075.361
 117  6513.898
 118  7232.587
 119  7110.539
 120  6850.073
 121  6249.813
 122  5918.745
 123  6119.891
 124  6906.833
 125  6896.489
 126  6173.703
 127  5873.493
 128  6707
 129  6755.652
 130  6202.865
 131  6612.886
 132  6895.122
 133  6326.502
 134  6406.056
 135  6578.002
 136  5653.209
 137  5166.131
 138  5570.018
 139  5481.163
 140  5705.496
 141  5708.89
 142  6081.12
 143  5997.084
 144  6317.765
 145  6115.986
 146  6816.288
 147  7246.825
 148  6638.967
 149  6230.955
 150  6599.342
 151  6454.712
 152  6606.737
 153  6331.311
 154  7123.052
 155  7365.439
 156  8275.098
 157  8221.223
 158  6558.996
 159  6082.384
 160  5856.647
 161  6077.817
 162  6510.128
 163  6291.405
 164  6255.315
 165  5967.687
 166  6506.107
 167  6951.307
 168  6973.56
 169  6879.951
 170  6990.687
 171  6614.483
 172  6373.026
 173  6815.117
 174  7022.112
 175  6176.115
 176  5900.027
 177  5504.186
 178  6180.115
 179  5471.53
 180  6367.003
 181  6744.358
 182  6472.149
 183  6715.034
 184  5938.853
 185  5997.65
 186  6112.016
 187  5641.487
 188  6157.07
 189  7084.909
 190  6234.303
 191  6221.907
 192  6652.612
 193  6322.813
 194  6514
 195  6558.739
 196  6653.138
 197  6041.355
 198  5348.012
 199  6301.889
 200  6671.644
 201  6114.958
 202  5948.67
 203  6601.697
 204  6542.572
 205  6375.548
 206  6189.505
 207  6488.078
 208  5981.527
 209  5013.167
 210  5989.649
 211  6053.131
 212  5554.617
 213  6513.839
 214  7298.608
 215  5571.5
 216  5958.286
 217  5609.344
 218  6018.013
 219  6221.84
 220  6162.664
 221  6687.243
 222  7184.748
 223  6599.373
 224  6397.167
 225  6390.556
 226  6194.934
 227  6672.915
 228  6788.488
 229  6672.092
 230  5807.448
 231  6105.535
 232  6883.038
 233  6923.489
 234  6157.432
 235  6240.31
 236  6403.131
 237  6577.398
 238  6328.739
 239  6091.881
 240  6477.03
 241  5920.049
 242  5213.784
 243  6320.108
 244  6609.85
 245  5807.715
 246  6148.639
 247  6733.267
 248  6703.166
 249  6738.913
 250  6014.21
 251  6778.381
 252  6860.56
 253  6203.929
 254  6646.312
 255  6686.025
