# Input file       =  1196206442.107451_cleaned.dat
# Candidate        =  PSR_0332+5434
# Telescope        =  AR
# Epoch_topo       =  58088.982188743648
# Epoch_bary       =  N/A
# T_sample         =  0.002
# Data Folded      =  7340032
# Data Avg         =  1.3308152891259  
# Data StdDev      =  11.3937788802378 
# Profile Bins     =  512
# Profile Avg      =  19078.5296850455 
# Profile StdDev   =  1364.21174113634 
# Reduced chi-sqr  =  0.748
# Prob(Noise)      <  1   (~0.0 sigma)
# P_topo (ms)      =  714.527040253016  +/- 2.51e-05
# P'_topo (s/s)    =  -0                +/- 1.33e-11
# P''_topo (s/s^2) =  0                 +/- 5.85e-15
# P_bary (ms)      =  N/A
# P'_bary (s/s)    =  N/A
# P''_bary (s/s^2) =  N/A
# P_orb (s)        =  N/A
# asin(i)/c (s)    =  N/A
# eccentricity     =  N/A
# w (rad)          =  N/A
# T_peri           =  N/A
######################################################
   0  19231.54
   1  19996.79
   2  19383.63
   3  19517.33
   4  19920.65
   5  19189.31
   6  18534.56
   7  19159.82
   8  19454.01
   9  18520.7
  10  19488.74
  11  20196.84
  12  18673.1
  13  18818
  14  19046.35
  15  19663.19
  16  19349.86
  17  19380.89
  18  20400.3
  19  20110.44
  20  18649.91
  21  18448.28
  22  19941.8
  23  20076.15
  24  20827.79
  25  21570.34
  26  20695.5
  27  19953.49
  28  20495.57
  29  20861.04
  30  19763.46
  31  19311.05
  32  19423.29
  33  20011.6
  34  19457.82
  35  21098.4
  36  20921.66
  37  18293.9
  38  17936.13
  39  18572.57
  40  20068.21
  41  19558.9
  42  20217.27
  43  20193.71
  44  19249.85
  45  18242.69
  46  18284.88
  47  19673.27
  48  19553.87
  49  20074.21
  50  20828.2
  51  19808.95
  52  19061.99
  53  19484.73
  54  20107.47
  55  19700.11
  56  19008.85
  57  20618.93
  58  20657.89
  59  19449.47
  60  19430.37
  61  19996.02
  62  18542.19
  63  17764.75
  64  18170.33
  65  18508.37
  66  18948.82
  67  18111.81
  68  19031.67
  69  19127.34
  70  19428.86
  71  19065.59
  72  19480.56
  73  18821.58
  74  17967.13
  75  18344.25
  76  19124.59
  77  19317.86
  78  19552.92
  79  20652.95
  80  19413.74
  81  18068.26
  82  18012.88
  83  18716.93
  84  17905.12
  85  16868.05
  86  18123.18
  87  18879.45
  88  18217.39
  89  18394.83
  90  19041.93
  91  19496.86
  92  19127.8
  93  18385.06
  94  18284.93
  95  18853.07
  96  19458.12
  97  20271.2
  98  19071.44
  99  18877.65
 100  19057.96
 101  18530.46
 102  17325.36
 103  17576.71
 104  19699.24
 105  18508.96
 106  18293.95
 107  19673.14
 108  19720.51
 109  19318.49
 110  19276.29
 111  19264.58
 112  18836.27
 113  18557.33
 114  18311.99
 115  18332.4
 116  18666.12
 117  18115.53
 118  19071.07
 119  19155.35
 120  18710.97
 121  19645.66
 122  19675.56
 123  18620.71
 124  18148.63
 125  19889.38
 126  19316.77
 127  18166.55
 128  19194.8
 129  19913.99
 130  19174.51
 131  18545.28
 132  19151.56
 133  19051.48
 134  17855.14
 135  18737.39
 136  19528.6
 137  20561.15
 138  19204.04
 139  17962.29
 140  19159.13
 141  18870.09
 142  18297.66
 143  19357.83
 144  18999.85
 145  18674.38
 146  17983.76
 147  18854.53
 148  17790.92
 149  17315.03
 150  18074.27
 151  19174.27
 152  18820.07
 153  18414.28
 154  18170.7
 155  17965.88
 156  17594.87
 157  18802.52
 158  19569.5
 159  18987.95
 160  19398.65
 161  19842.33
 162  18727.38
 163  17268.42
 164  18726.31
 165  20220.05
 166  18552.42
 167  18260.95
 168  20643.42
 169  20786.3
 170  20035.93
 171  19492.75
 172  20337.37
 173  19535.5
 174  19042.48
 175  19616.86
 176  19570.92
 177  18949.94
 178  19127.13
 179  19546.36
 180  18578.6
 181  17593.69
 182  18279.79
 183  17342.29
 184  17922.47
 185  17808.97
 186  19627.14
 187  19915.26
 188  17824.09
 189  17641.23
 190  18858.15
 191  19407.22
 192  18450.75
 193  18098.97
 194  19227.27
 195  18493.27
 196  17851.88
 197  19153.63
 198  17857.05
 199  16737.08
 200  18457.6
 201  19617.43
 202  19287.96
 203  17820.72
 204  18663.06
 205  19475.2
 206  18424.69
 207  18064.06
 208  19239.11
 209  18915.21
 210  18591.38
 211  19448.12
 212  19077.41
 213  18550.87
 214  18381.81
 215  19047.89
 216  19242.49
 217  19329.17
 218  20246.16
 219  20501.46
 220  19220.39
 221  19619.61
 222  19848.53
 223  19591.6
 224  18498.05
 225  19880.91
 226  20075.4
 227  19797.45
 228  19859.81
 229  20200.54
 230  19607.25
 231  18116.95
 232  18542.39
 233  19757.7
 234  18558.46
 235  19161.35
 236  19607.99
 237  18493.79
 238  18316.64
 239  19141.1
 240  19836.96
 241  19245.94
 242  18858.12
 243  19426.8
 244  20109.22
 245  19028.67
 246  19032.78
 247  19496.39
 248  20033.81
 249  19879.89
 250  20435.59
 251  21086.22
 252  19499.52
 253  19249.83
 254  19942.21
 255  20259.8
 256  18984.79
 257  19335.54
 258  19874.52
 259  19659.16
 260  18818.91
 261  19180.76
 262  20129.91
 263  19153.6
 264  19676.19
 265  19497.32
 266  19479.74
 267  20264.95
 268  20559.86
 269  20389.78
 270  18102.92
 271  18153.32
 272  19391.4
 273  20058.77
 274  19627.47
 275  19779.27
 276  20098.48
 277  18569.87
 278  18041.13
 279  19347.04
 280  20824.14
 281  19002.91
 282  18555.34
 283  19704.98
 284  19217.51
 285  18402.84
 286  19138.14
 287  18830.59
 288  18307.84
 289  18420.9
 290  20201.17
 291  19531.96
 292  18805.64
 293  19441.62
 294  19069.62
 295  17677.13
 296  17973.06
 297  19217.38
 298  19360.37
 299  18966.11
 300  19281.65
 301  19329.84
 302  18299.15
 303  17878.04
 304  18422.62
 305  18968.32
 306  18322.29
 307  18274.35
 308  19040.21
 309  19053.7
 310  18645.64
 311  19801.92
 312  20625.09
 313  20685.51
 314  20338.33
 315  21007.25
 316  21180.12
 317  19995.07
 318  18725.16
 319  18984.84
 320  19469.87
 321  18794.42
 322  19665.09
 323  19202.62
 324  18593.13
 325  18132.78
 326  19512.56
 327  18741.34
 328  18068.29
 329  18699.73
 330  18953.9
 331  19158.4
 332  18900.9
 333  19928.63
 334  19021.15
 335  18054.24
 336  19182.04
 337  19332.78
 338  18799.69
 339  18677.58
 340  19765.71
 341  20370.27
 342  19704.75
 343  19455.26
 344  19821.06
 345  19548.66
 346  17989.86
 347  18223.69
 348  20039.56
 349  19435.05
 350  18989.77
 351  19334.07
 352  19688.01
 353  18285.7
 354  18666.16
 355  20075.22
 356  19909.38
 357  19670.87
 358  20323.38
 359  20566.71
 360  19212.59
 361  19631.48
 362  19005.1
 363  18526.01
 364  18997.08
 365  19868.1
 366  19808.65
 367  17554.08
 368  17946.56
 369  18865.55
 370  18637.36
 371  19462.73
 372  20846.15
 373  20175.04
 374  18472.94
 375  18278.01
 376  19531.32
 377  19934.15
 378  19764.63
 379  19760.65
 380  20395.26
 381  20606.54
 382  20142.72
 383  20563.17
 384  21881.24
 385  20488.22
 386  19544.75
 387  19588.96
 388  18281
 389  17535.06
 390  18485.5
 391  18866.46
 392  18497.84
 393  18560.62
 394  19757.75
 395  19089.49
 396  18428.64
 397  18461.26
 398  18964.52
 399  19305.74
 400  18630.57
 401  19642.66
 402  19576.79
 403  18519.74
 404  18946.55
 405  20362.28
 406  20811.77
 407  20126.79
 408  20700.27
 409  21004.49
 410  18890.24
 411  18216.97
 412  19199.24
 413  18520.41
 414  18093.14
 415  19681.88
 416  19855.94
 417  19477.3
 418  18577.53
 419  18885.84
 420  18522.18
 421  18213.36
 422  18362.03
 423  19119.68
 424  19707.46
 425  18918.39
 426  19875.23
 427  20237.87
 428  20233.57
 429  18858.79
 430  19106.76
 431  20311.34
 432  20579.71
 433  19203.4
 434  18695.66
 435  18823.93
 436  19344.67
 437  18927.31
 438  18617.01
 439  18642.14
 440  18899.68
 441  19036.37
 442  19216.5
 443  18158.75
 444  18002.03
 445  18204.23
 446  16937.14
 447  17392.8
 448  17868.59
 449  18053.19
 450  17721.98
 451  18275.99
 452  18342.21
 453  18275.55
 454  17993.66
 455  17611.37
 456  17725.41
 457  16566.69
 458  17590.1
 459  18244.17
 460  17310.39
 461  17585.36
 462  18502.76
 463  18625.47
 464  17849.04
 465  18804.82
 466  18753.16
 467  17861.6
 468  17171.97
 469  18451.92
 470  19844.47
 471  19216.88
 472  19253.29
 473  19500.89
 474  19242.46
 475  18018.76
 476  18092.56
 477  19416.01
 478  18264.34
 479  18292.06
 480  18602.56
 481  18266.87
 482  18041.82
 483  18904.33
 484  19317.39
 485  19115.88
 486  18560.22
 487  18717.85
 488  17779.69
 489  18057.79
 490  18957.22
 491  19166.27
 492  18332.31
 493  17385.05
 494  18113.03
 495  18316.32
 496  18506.58
 497  19657.57
 498  18726.61
 499  18308.56
 500  17346.66
 501  17973.77
 502  18330.28
 503  18902.47
 504  19709.57
 505  20522.61
 506  19479.81
 507  18517.08
 508  19330.13
 509  19605.85
 510  19207.25
 511  17775.53
