# Input file       =  1196292583.114135-PSRB0329-2ms-sampling-dd.dat
# Candidate        =  PSR_0332+5434
# Telescope        =  AR
# Epoch_topo       =  58089.979191135819
# Epoch_bary       =  N/A
# T_sample         =  0.002
# Data Folded      =  7340032
# Data Avg         =  -1.09549431157904e-10
# Data StdDev      =  8.23966730137294 
# Profile Bins     =  512
# Profile Avg      =  0.0540499650551283
# Profile StdDev   =  986.560384727736 
# Reduced chi-sqr  =  0.524
# Prob(Noise)      <  1   (~0.0 sigma)
# P_topo (ms)      =  714.528065147879  +/- 0.000561
# P'_topo (s/s)    =  -0                +/- 2.96e-10
# P''_topo (s/s^2) =  0                 +/- 1.31e-13
# P_bary (ms)      =  N/A
# P'_bary (s/s)    =  N/A
# P''_bary (s/s^2) =  N/A
# P_orb (s)        =  N/A
# asin(i)/c (s)    =  N/A
# eccentricity     =  N/A
# w (rad)          =  N/A
# T_peri           =  N/A
######################################################
   0  185.755
   1  155.0632
   2  458.2307
   3  209.2962
   4  -388.2812
   5  -412.6171
   6  -139.5346
   7  71.34797
   8  391.9938
   9  -253.7205
  10  -415.5364
  11  -291.6414
  12  -523.7944
  13  -65.07979
  14  36.9022
  15  -194.1805
  16  -225.8662
  17  -918.3588
  18  -620.0522
  19  -699.821
  20  -381.0248
  21  -1309.697
  22  -694.1932
  23  -819.5361
  24  -720.3902
  25  -785.4897
  26  -404.6885
  27  -222.3616
  28  -737.804
  29  -263.0001
  30  -458.171
  31  -682.3698
  32  -855.1974
  33  -1261.335
  34  -1008.917
  35  -1079.425
  36  -627.2133
  37  -585.9144
  38  -523.34
  39  -608.7726
  40  -137.2028
  41  -533.2072
  42  -176.3986
  43  235.7463
  44  209.6551
  45  -679.2767
  46  -1545.577
  47  -428.1796
  48  -115.1513
  49  573.4384
  50  518.2297
  51  709.4922
  52  922.9366
  53  189.654
  54  260.4979
  55  224.1167
  56  373.902
  57  441.0186
  58  778.7144
  59  901.3865
  60  573.2937
  61  479.4873
  62  505.251
  63  60.77129
  64  261.7523
  65  399.6635
  66  123.7683
  67  390.3917
  68  116.9688
  69  256.2897
  70  63.91817
  71  -26.36251
  72  265.7427
  73  638.6947
  74  670.129
  75  347.5984
  76  211.6264
  77  289.7013
  78  -421.0612
  79  -569.0115
  80  -393.3392
  81  155.0484
  82  191.3321
  83  587.7333
  84  335.9482
  85  -350.7466
  86  -247.683
  87  -123.2923
  88  -374.9263
  89  250.8429
  90  740.8401
  91  1113.068
  92  815.0137
  93  341.2249
  94  428.8947
  95  -18.57558
  96  99.95929
  97  -122.3582
  98  120.0739
  99  -358.0257
 100  -332.7399
 101  -476.5861
 102  -527.2255
 103  -700.5165
 104  -458.1672
 105  -297.5073
 106  -18.94859
 107  -181.9024
 108  -326.2084
 109  -648.3468
 110  -499.1915
 111  -219.313
 112  70.83996
 113  -181.4182
 114  -227.0274
 115  193.9377
 116  -204.4281
 117  -261.6487
 118  242.2005
 119  465.4561
 120  16.79977
 121  -9.203005
 122  522.9368
 123  421.3306
 124  109.8931
 125  -48.84903
 126  285.6395
 127  509.5394
 128  344.7579
 129  212.3898
 130  223.3285
 131  321.6233
 132  52.44746
 133  189.0748
 134  773.7599
 135  878.6863
 136  234.0053
 137  -157.2317
 138  -374.0868
 139  -134.2669
 140  -125.4899
 141  127.9554
 142  -90.84697
 143  -521.0637
 144  -836.393
 145  -473.2223
 146  -582.6577
 147  -256.9915
 148  -83.30982
 149  110.6456
 150  -101.8143
 151  -230.631
 152  -86.96967
 153  -121.4697
 154  228.509
 155  370.286
 156  369.6288
 157  603.2874
 158  675.9949
 159  392.0407
 160  142.183
 161  362.4377
 162  261.3005
 163  -244.745
 164  -367.6688
 165  -125.6732
 166  -586.8231
 167  -154.7967
 168  16.73699
 169  144.0815
 170  363.2788
 171  254.2047
 172  397.2058
 173  309.911
 174  104.1394
 175  -612.4164
 176  -145.999
 177  -181.3725
 178  523.2373
 179  13.47885
 180  -276.9422
 181  -718.1348
 182  -629.7278
 183  -633.2051
 184  -171.1967
 185  -213.1615
 186  -122.9889
 187  -34.86096
 188  -159.6316
 189  -661.1346
 190  -555.5746
 191  -461.6353
 192  82.30061
 193  -398.5269
 194  -165.308
 195  -81.02799
 196  165.6655
 197  338.044
 198  159.3843
 199  -274.943
 200  -570.679
 201  -356.9568
 202  -332.7123
 203  -465.5383
 204  -231.4213
 205  -139.378
 206  -263.0939
 207  -90.57278
 208  198.4251
 209  232.3305
 210  421.958
 211  567.2972
 212  610.3181
 213  688.7056
 214  211.0878
 215  65.93975
 216  525.7488
 217  513.3813
 218  21.0361
 219  50.25765
 220  769.7742
 221  969.5501
 222  843.8973
 223  1347.768
 224  656.1974
 225  921.0655
 226  453.4943
 227  803.9445
 228  617.1015
 229  1063.247
 230  1262.992
 231  775.2512
 232  455.3749
 233  374.9021
 234  488.5605
 235  -20.33264
 236  -131.8068
 237  -489.4168
 238  -58.38299
 239  622.084
 240  -253.9827
 241  -549.2986
 242  -763.3397
 243  -339.3454
 244  105.9286
 245  134.657
 246  460.5315
 247  724.8748
 248  298.0075
 249  478.3713
 250  693.1076
 251  495.1447
 252  274.6189
 253  223.0532
 254  92.018
 255  -40.35542
 256  491.1977
 257  495.2179
 258  272.6039
 259  333.0874
 260  454.8534
 261  142.2059
 262  291.825
 263  336.631
 264  566.3244
 265  259.9321
 266  231.6425
 267  94.43032
 268  168.783
 269  -376.103
 270  -90.80808
 271  86.76558
 272  56.94669
 273  515.9438
 274  370.2585
 275  1044.832
 276  1195.852
 277  888.3136
 278  659.9808
 279  898.585
 280  901.3341
 281  506.54
 282  294.6922
 283  351.297
 284  268.1412
 285  7.830691
 286  467.7607
 287  558.6017
 288  992.5577
 289  873.169
 290  1102.772
 291  785.507
 292  574.5902
 293  96.90051
 294  232.8387
 295  156.4339
 296  291.0581
 297  515.3765
 298  367.2253
 299  -46.06935
 300  -490.1969
 301  -33.02127
 302  -754.8174
 303  -713.984
 304  -532.6881
 305  -238.128
 306  -83.18313
 307  -363.4672
 308  -487.6063
 309  -440.8187
 310  -607.6852
 311  -895.2819
 312  -256.1707
 313  527.2949
 314  26.84102
 315  95.22261
 316  -92.90336
 317  -260.3836
 318  -936.5181
 319  -839.1667
 320  -76.3027
 321  -139.8075
 322  22.92846
 323  155.8892
 324  -3.095587
 325  -215.4908
 326  -823.0704
 327  -995.803
 328  -1292.955
 329  -1013.038
 330  -666.7952
 331  -392.2547
 332  -557.7227
 333  195.6038
 334  -13.86016
 335  -392.8368
 336  -845.8383
 337  -365.8893
 338  -698.7849
 339  -479.1811
 340  14.25654
 341  168.9645
 342  4.732787
 343  -1158.704
 344  -1004.251
 345  -559.0306
 346  -177.8574
 347  -258.7542
 348  -379.0481
 349  -218.2646
 350  -362.0752
 351  -677.6996
 352  -442.8379
 353  -394.7893
 354  -424.3027
 355  -141.179
 356  9.380117
 357  -190.6351
 358  298.8258
 359  395.9839
 360  -36.4179
 361  -380.0269
 362  282.4215
 363  828.1322
 364  231.0002
 365  357.8795
 366  826.895
 367  168.0963
 368  -213.6744
 369  156.1902
 370  655.3175
 371  199.2185
 372  -257.5789
 373  473.2367
 374  610.4545
 375  449.6176
 376  329.8555
 377  480.1845
 378  628.0938
 379  498.0822
 380  567.4409
 381  -222.4349
 382  -29.13284
 383  441.1425
 384  437.6611
 385  487.7036
 386  249.062
 387  261.5631
 388  24.55321
 389  -233.8033
 390  -611.1086
 391  -500.7671
 392  -455.7381
 393  -409.1966
 394  -742.3737
 395  -217.4827
 396  -182.3475
 397  -237.2735
 398  -42.19171
 399  256.1007
 400  279.9925
 401  -229.4189
 402  -412.225
 403  -133.5031
 404  -288.9456
 405  184.5138
 406  -480.5781
 407  -230.5542
 408  -790.4761
 409  -1223.864
 410  -1142.349
 411  -1223.298
 412  -697.502
 413  -88.96973
 414  -159.2119
 415  173.0878
 416  650.1312
 417  220.4431
 418  -18.2616
 419  466.4683
 420  44.32838
 421  -508.8898
 422  402.0813
 423  853.7355
 424  997.7355
 425  809.0495
 426  1019.867
 427  1080.531
 428  855.8423
 429  367.1077
 430  682.3892
 431  317.8555
 432  244.4904
 433  -187.2297
 434  -116.7956
 435  114.5092
 436  -64.74271
 437  431.6617
 438  940.1241
 439  856.3978
 440  1075.435
 441  887.6627
 442  1098.341
 443  538.6022
 444  153.0373
 445  160.8315
 446  320.8456
 447  647.1218
 448  169.4515
 449  -237.9828
 450  -1113.251
 451  -934.6384
 452  -112.018
 453  412.2565
 454  359.0254
 455  230.9127
 456  551.537
 457  26.11883
 458  -299.6529
 459  -773.0981
 460  -1107.993
 461  -966.866
 462  -67.16056
 463  223.4459
 464  -185.1721
 465  -544.0599
 466  -657.4948
 467  -198.2397
 468  -291.1697
 469  -302.8875
 470  -99.56332
 471  -539.8602
 472  -984.7628
 473  -756.7727
 474  -490.4582
 475  -734.4794
 476  -1230.692
 477  -712.7463
 478  -528.5685
 479  -946.1359
 480  -777.1816
 481  6.135103
 482  -60.49159
 483  161.0221
 484  -339.0801
 485  -639.8962
 486  -643.4337
 487  -413.9296
 488  -462.314
 489  -196.8621
 490  91.69011
 491  -184.7424
 492  -666.8373
 493  -945.5499
 494  -693.6632
 495  -273.5558
 496  -837.1824
 497  -203.1637
 498  -28.13629
 499  267.3454
 500  126.7648
 501  -503.3861
 502  291.2931
 503  134.3561
 504  -37.48204
 505  393.2091
 506  786.8631
 507  1102.682
 508  697.2187
 509  853.1464
 510  1136.979
 511  395.9549
