# Input file       =  1196263036.115612_cleaned.dat
# Candidate        =  PSR_0332+5434
# Telescope        =  AR
# Epoch_topo       =  58089.637211986250
# Epoch_bary       =  N/A
# T_sample         =  0.002
# Data Folded      =  7208960
# Data Avg         =  1.44030455346219 
# Data StdDev      =  12.5491920090658 
# Profile Bins     =  512
# Profile Avg      =  20279.4702863094 
# Profile StdDev   =  1489.07678067051 
# Reduced chi-sqr  =  0.514
# Prob(Noise)      <  1   (~0.0 sigma)
# P_topo (ms)      =  714.527350465436  +/- 2.31e-05
# P'_topo (s/s)    =  -0                +/- 1.24e-11
# P''_topo (s/s^2) =  0                 +/- 5.58e-15
# P_bary (ms)      =  N/A
# P'_bary (s/s)    =  N/A
# P''_bary (s/s^2) =  N/A
# P_orb (s)        =  N/A
# asin(i)/c (s)    =  N/A
# eccentricity     =  N/A
# w (rad)          =  N/A
# T_peri           =  N/A
######################################################
   0  19924.85
   1  20041.34
   2  21071.99
   3  20365.38
   4  20067.01
   5  21515.71
   6  20764.95
   7  20542.4
   8  20013.88
   9  20160.53
  10  19579.12
  11  19669.55
  12  21076.37
  13  20759.03
  14  19885.16
  15  19377.79
  16  20189.66
  17  19960.52
  18  18859.86
  19  19576.08
  20  20898.68
  21  19788.87
  22  19975.78
  23  20254.41
  24  21074.88
  25  19775.88
  26  20095.3
  27  20553.48
  28  19581.44
  29  19518.74
  30  21028.69
  31  20940.16
  32  19338.91
  33  18911.99
  34  20708.13
  35  20262.97
  36  19992.52
  37  19898.83
  38  20825.55
  39  20385.32
  40  19392.68
  41  20145.5
  42  19880.29
  43  19169.05
  44  19576.38
  45  21522.91
  46  21546.18
  47  20034.44
  48  19547.09
  49  19994.65
  50  19516.29
  51  19021.9
  52  20575.59
  53  21085.94
  54  20495.35
  55  20558.83
  56  21086.9
  57  20200.92
  58  19589.77
  59  21586.51
  60  21515.98
  61  20216.79
  62  20253.27
  63  21349.18
  64  20480.44
  65  20131.8
  66  21070.86
  67  22004.97
  68  20810.06
  69  20388.41
  70  20271.76
  71  19664.25
  72  18864.92
  73  20954.91
  74  21520.82
  75  19091.05
  76  19370.62
  77  20342.92
  78  21029.45
  79  20163.62
  80  20041.95
  81  20709.79
  82  20142.27
  83  20179.91
  84  19803.58
  85  20056.86
  86  20003.99
  87  20147.75
  88  20345.17
  89  19756.86
  90  19081.24
  91  20474.41
  92  20344.37
  93  19714.47
  94  20493.97
  95  20184.2
  96  19173.7
  97  18305.17
  98  20343.06
  99  21045.38
 100  19699.37
 101  19705.49
 102  20932.54
 103  20901.64
 104  19011.06
 105  19252.87
 106  20756.6
 107  20196.71
 108  19549.37
 109  19992.59
 110  20157.19
 111  18692.2
 112  19575.72
 113  21094.29
 114  20787.47
 115  19959.8
 116  19615.13
 117  19611.82
 118  18393.49
 119  18900.61
 120  20412.71
 121  21005.4
 122  19945.34
 123  21039.12
 124  21207.67
 125  20925.04
 126  19322.38
 127  20264.38
 128  20837.44
 129  20572.68
 130  21655.6
 131  21304.44
 132  21595.37
 133  20411.72
 134  21941.74
 135  21790.45
 136  20115.16
 137  20689.02
 138  21348.5
 139  19754.45
 140  19408.68
 141  20883.63
 142  21286.59
 143  19942.42
 144  19981.36
 145  21380.85
 146  20255.02
 147  19372.35
 148  19532.83
 149  20364.97
 150  19920.89
 151  20075.28
 152  20214.85
 153  20877.58
 154  19522.63
 155  19623.71
 156  19951.74
 157  20152.38
 158  19183.49
 159  19486.93
 160  20691.65
 161  20200.28
 162  19845.38
 163  20297.03
 164  20372.7
 165  20258.87
 166  20717.65
 167  20163.97
 168  19066.92
 169  18907.45
 170  20451.43
 171  20834.32
 172  20125.77
 173  20383.93
 174  20548.98
 175  20643.09
 176  20227.72
 177  21047.29
 178  20279.13
 179  19530.9
 180  20142.07
 181  21221.11
 182  20038.79
 183  19843.3
 184  20885.29
 185  20353.56
 186  19967.61
 187  20180.5
 188  20894.06
 189  21343.18
 190  21241.59
 191  21286.18
 192  20803.91
 193  19812.1
 194  19773.93
 195  20045.39
 196  20826.73
 197  20201.3
 198  20552.91
 199  22360.8
 200  22426.69
 201  21347.02
 202  21845.55
 203  22332.45
 204  21415.77
 205  20764.25
 206  21050.47
 207  19656.93
 208  19364.13
 209  20859.43
 210  21663.67
 211  21058.56
 212  19337.08
 213  19952.71
 214  18916.17
 215  19266.91
 216  20135.39
 217  20621.51
 218  20655.49
 219  20425.78
 220  21707.75
 221  20451.59
 222  19871.17
 223  19638.47
 224  19977.44
 225  19754.14
 226  20042.16
 227  20406.96
 228  20963.54
 229  19409.92
 230  18633.24
 231  19795.2
 232  20145.26
 233  19297.78
 234  20443.06
 235  21527.45
 236  20319.43
 237  19519.27
 238  20451.12
 239  20864.13
 240  19813.6
 241  19573.88
 242  19342.92
 243  19836.29
 244  20338.54
 245  21032.19
 246  21519.81
 247  20679.7
 248  20298.93
 249  21415.24
 250  20344.4
 251  20014.03
 252  19044.31
 253  18791.09
 254  19496.37
 255  19492.11
 256  20837.53
 257  20825
 258  20343.87
 259  20508.2
 260  20835.28
 261  20254.77
 262  20523.13
 263  21570.37
 264  20512.08
 265  19557.52
 266  19860.85
 267  20338.29
 268  20605.37
 269  20421.63
 270  20715.46
 271  20371.57
 272  19275.88
 273  19696.68
 274  21600.73
 275  21495.87
 276  20863.25
 277  21002.94
 278  22888.22
 279  20704.33
 280  20339.41
 281  20434.84
 282  20886.36
 283  20429.01
 284  19658.34
 285  21173.85
 286  20341.8
 287  19037.3
 288  20133.01
 289  20929.35
 290  20407.2
 291  21055.79
 292  21821.51
 293  20819.36
 294  19504.56
 295  20163.22
 296  20792.26
 297  20163.07
 298  20222.88
 299  21332.02
 300  21724.97
 301  20999.36
 302  20954.56
 303  20726.39
 304  21021.55
 305  21693.24
 306  21917.06
 307  21539.87
 308  19832.21
 309  19868.85
 310  21658.67
 311  21509.9
 312  20640.79
 313  21739.67
 314  21715.68
 315  20038.88
 316  19153.32
 317  20256.56
 318  20687.81
 319  20401.82
 320  20769
 321  21416.97
 322  19560.5
 323  19794.29
 324  20868.6
 325  21578.81
 326  21056.14
 327  21570.96
 328  21223.9
 329  19949.42
 330  19351.09
 331  20845.1
 332  20810.9
 333  19243.98
 334  20049.61
 335  21125.18
 336  20633.38
 337  19577.46
 338  20190.05
 339  19932.08
 340  20443.03
 341  20138.01
 342  20700.19
 343  20386.85
 344  19353.27
 345  20136.23
 346  20730.24
 347  19781.89
 348  19234.88
 349  19241.64
 350  19388.84
 351  18659.3
 352  20384.26
 353  20605.54
 354  19872.12
 355  20112.77
 356  21553.38
 357  21197.62
 358  19663.39
 359  19680.63
 360  20687.46
 361  20721.17
 362  19997.98
 363  20568.26
 364  20585.86
 365  19327.09
 366  19808.81
 367  19273.7
 368  19069.1
 369  18180.88
 370  19645.71
 371  21147.77
 372  21110.37
 373  19777.34
 374  20266.56
 375  20427.86
 376  19095.82
 377  18512.8
 378  20020.15
 379  19909.09
 380  19771.57
 381  19965.31
 382  20382.37
 383  20103.79
 384  20441.78
 385  21569.04
 386  21134.88
 387  20199.79
 388  21260.91
 389  21023.17
 390  19366.12
 391  19200.91
 392  19382.3
 393  19145.29
 394  18526.05
 395  19598.37
 396  20587.21
 397  20320.28
 398  19735.17
 399  20589.09
 400  20642.99
 401  20298.7
 402  20033.55
 403  20910.36
 404  20733.98
 405  20465.45
 406  20711.77
 407  19818.63
 408  18593.45
 409  19961.77
 410  21112
 411  20093.72
 412  18309.8
 413  19811.73
 414  20793.83
 415  20342.92
 416  19982.27
 417  21100.84
 418  20773.07
 419  20428.7
 420  21253.79
 421  20597.05
 422  19176.19
 423  18202.37
 424  19998
 425  21341.95
 426  20477.15
 427  20526.87
 428  21479.62
 429  21780.55
 430  21010.99
 431  21409.88
 432  20597.59
 433  21081.76
 434  20758.96
 435  20707.23
 436  19868.49
 437  19158.07
 438  20772.87
 439  20512.07
 440  19364.41
 441  18112.57
 442  19887.36
 443  20526.72
 444  19093.65
 445  19048.02
 446  20133.8
 447  19171.79
 448  19375.44
 449  20331.62
 450  21110.68
 451  20389.69
 452  20652.2
 453  20889.05
 454  20357.37
 455  19772.07
 456  19843
 457  21143.63
 458  20650.89
 459  19267.88
 460  20628.05
 461  20510.22
 462  20019.28
 463  19581.07
 464  20121.9
 465  19900.36
 466  19840.05
 467  20355.25
 468  21172.22
 469  19946.71
 470  19390.34
 471  20669.14
 472  21054.6
 473  19860.58
 474  20275.73
 475  20549.37
 476  20063.32
 477  19524.69
 478  20722.08
 479  20312.75
 480  19826.53
 481  19794.83
 482  19894.16
 483  20084.37
 484  19837.4
 485  20470.72
 486  19165.39
 487  17470.35
 488  19392.7
 489  20064.64
 490  19586.03
 491  19594.24
 492  20460.04
 493  20651.02
 494  18663.38
 495  18793.52
 496  20124.79
 497  20271.74
 498  20389.22
 499  20484.05
 500  20540.38
 501  19815
 502  19731.47
 503  20545.4
 504  21114.04
 505  20457.44
 506  20553.84
 507  21228.55
 508  20289.68
 509  20010.44
 510  20165.43
 511  20140.61
