# Input file       =  1196450039.108316-PSRB0329-2ms-sampling-dd.dat
# Candidate        =  PSR_0332+5434
# Telescope        =  AR
# Epoch_topo       =  58091.801598475882
# Epoch_bary       =  N/A
# T_sample         =  0.002
# Data Folded      =  7340032
# Data Avg         =  -1.55482958201093e-10
# Data StdDev      =  7.09548555118789 
# Profile Bins     =  512
# Profile Avg      =  -0.321874182204035
# Profile StdDev   =  849.564029611198 
# Reduced chi-sqr  =  0.597
# Prob(Noise)      <  1   (~0.0 sigma)
# P_topo (ms)      =  714.529597291275  +/- 2.87e-05
# P'_topo (s/s)    =  -0                +/- 1.51e-11
# P''_topo (s/s^2) =  0                 +/- 6.68e-15
# P_bary (ms)      =  N/A
# P'_bary (s/s)    =  N/A
# P''_bary (s/s^2) =  N/A
# P_orb (s)        =  N/A
# asin(i)/c (s)    =  N/A
# eccentricity     =  N/A
# w (rad)          =  N/A
# T_peri           =  N/A
######################################################
   0  361.902
   1  335.505
   2  637.5834
   3  838.7902
   4  533.1841
   5  289.787
   6  241.0676
   7  -264.2665
   8  -788.6092
   9  -346.0362
  10  630.7524
  11  721.6754
  12  -28.84496
  13  -392.8779
  14  84.16096
  15  64.20102
  16  -830.2224
  17  -389.982
  18  153.8075
  19  -286.1024
  20  -446.9662
  21  -109.5431
  22  -126.6244
  23  -661.3245
  24  -309.0897
  25  863.7237
  26  709.7701
  27  245.705
  28  502.116
  29  476.2111
  30  80.99191
  31  23.71102
  32  283.311
  33  -0.1268312
  34  -236.1648
  35  173.6509
  36  -101.2148
  37  -291.9982
  38  324.4891
  39  1202.68
  40  331.0221
  41  -233.7341
  42  -51.67242
  43  311.5245
  44  -235.8159
  45  -46.14342
  46  139.6547
  47  62.59105
  48  -354.4938
  49  -161.8818
  50  410.3616
  51  -35.71476
  52  -81.4607
  53  286.9295
  54  752.6942
  55  211.1706
  56  363.0632
  57  457.6798
  58  386.6938
  59  68.53948
  60  239.5932
  61  214.9105
  62  239.0639
  63  477.3846
  64  1058.651
  65  -99.82013
  66  -806.0853
  67  -545.7616
  68  360.9717
  69  126.9638
  70  -399.2884
  71  504.4648
  72  288.8353
  73  -571.8115
  74  -576.3918
  75  -83.00494
  76  257.4008
  77  -60.41776
  78  314.9912
  79  279.722
  80  -303.0954
  81  -215.2044
  82  457.0694
  83  118.5821
  84  -464.9448
  85  -295.8603
  86  125.85
  87  234.4628
  88  221.1818
  89  110.4678
  90  -188.4344
  91  -273.3766
  92  55.69847
  93  479.8656
  94  152.449
  95  -55.88383
  96  397.5307
  97  220.8109
  98  -169.8051
  99  84.82713
 100  739.5587
 101  813.7295
 102  790.6216
 103  1109.822
 104  625.1044
 105  557.6539
 106  630.7554
 107  897.9553
 108  388.9675
 109  214.8549
 110  728.2708
 111  753.5185
 112  389.8853
 113  -118.0544
 114  172.3746
 115  154.5207
 116  -109.138
 117  44.6561
 118  8.80337
 119  -31.44806
 120  -248.6213
 121  179.6171
 122  -422.5695
 123  -292.6042
 124  -84.34925
 125  573.7131
 126  222.8258
 127  -19.84202
 128  270.7442
 129  -11.36191
 130  -113.5779
 131  580.4007
 132  734.4521
 133  154.4365
 134  70.66706
 135  258.1882
 136  404.8326
 137  -251.2968
 138  -148.3287
 139  660.2676
 140  1208.405
 141  392.7626
 142  -163.7335
 143  166.2804
 144  228.4049
 145  307.137
 146  683.1033
 147  447.4872
 148  -332.9987
 149  -468.304
 150  600.1923
 151  174.0777
 152  -398.0576
 153  83.20206
 154  493.1664
 155  248.5079
 156  214.6397
 157  -13.53346
 158  -39.70017
 159  -270.0281
 160  258.3208
 161  114.86
 162  135.2404
 163  -46.35652
 164  224.8124
 165  -396.5625
 166  -874.7895
 167  -587.9194
 168  -182.5532
 169  -353.204
 170  -744.248
 171  -279.1455
 172  41.27816
 173  -184.534
 174  -65.43256
 175  -42.65752
 176  7.113305
 177  -238.7924
 178  -64.23917
 179  -43.62921
 180  -731.3754
 181  -912.7798
 182  208.8946
 183  613.7604
 184  139.049
 185  -136.4098
 186  395.6001
 187  687.666
 188  192.9046
 189  367.9916
 190  265.0452
 191  441.1696
 192  151.6874
 193  679.9109
 194  -199.8488
 195  -808.8376
 196  -308.6153
 197  548.5264
 198  -228.9172
 199  -600.642
 200  -278.8825
 201  -312.3965
 202  -493.204
 203  -685.0773
 204  -339.1207
 205  -308.4236
 206  -4.973765
 207  744.8528
 208  775.4446
 209  -796.523
 210  -1269.747
 211  249.1262
 212  382.0269
 213  -32.32111
 214  134.01
 215  223.9184
 216  -310.2079
 217  -503.1117
 218  133.3544
 219  340.6147
 220  137.9823
 221  110.1059
 222  327.905
 223  -154.3197
 224  -247.5722
 225  584.7999
 226  487.0498
 227  -191.0002
 228  -770.1475
 229  -99.93254
 230  -538.4903
 231  -639.0034
 232  441.153
 233  380.3208
 234  -122.3087
 235  -68.03423
 236  287.4917
 237  -542.3458
 238  -767.5958
 239  -170.2321
 240  679.5797
 241  783.1422
 242  699.3028
 243  879.2049
 244  612.1563
 245  -157.1647
 246  -315.351
 247  -143.0204
 248  386.1084
 249  475.5995
 250  1009.494
 251  413.0606
 252  -232.3942
 253  -526.4938
 254  274.8963
 255  152.4463
 256  39.24312
 257  218.7611
 258  319.9509
 259  -33.5847
 260  -271.1321
 261  -272.2621
 262  -323.7861
 263  -373.0011
 264  289.8698
 265  680.8541
 266  27.17193
 267  -479.1263
 268  -0.7985323
 269  -118.4678
 270  -216.7357
 271  -345.666
 272  -257.6928
 273  -137.2416
 274  -377.351
 275  121.4601
 276  242.8726
 277  97.85999
 278  410.1143
 279  505.0302
 280  -499.7104
 281  -911.4144
 282  -103.151
 283  604.9062
 284  88.82446
 285  13.1253
 286  562.0521
 287  404.0392
 288  8.423889
 289  -179.1899
 290  -238.2244
 291  -35.18801
 292  165.335
 293  372.7375
 294  -5.695285
 295  -255.6639
 296  -965.5626
 297  -397.6035
 298  -69.59514
 299  24.03372
 300  -40.93973
 301  -221.3571
 302  -331.1751
 303  -168.3044
 304  378.5297
 305  -373.2226
 306  -185.6294
 307  442.648
 308  315.5066
 309  -574.5499
 310  -817.142
 311  438.911
 312  241.4242
 313  -254.3547
 314  -349.4487
 315  -299.5698
 316  -555.5919
 317  -454.1485
 318  -327.2781
 319  -956.9424
 320  -946.7073
 321  -408.0326
 322  316.9778
 323  -513.7368
 324  -940.1015
 325  -563.939
 326  -673.7131
 327  -389.9186
 328  -415.3327
 329  -704.1682
 330  -821.6749
 331  -847.1909
 332  -418.2963
 333  -686.4014
 334  -680.4207
 335  -448.9861
 336  579.9991
 337  407.6046
 338  -276.073
 339  -240.5893
 340  391.149
 341  38.92225
 342  86.5948
 343  -40.99202
 344  -69.6554
 345  -293.9493
 346  27.71699
 347  739.9811
 348  219.4208
 349  -549.507
 350  -315.0133
 351  -0.5761111
 352  -671.1465
 353  -976.3925
 354  22.074
 355  568.0046
 356  -15.25779
 357  100.3163
 358  15.65658
 359  -562.2836
 360  -721.7336
 361  -237.6591
 362  -601.3099
 363  -889.4593
 364  -756.7084
 365  -160.3276
 366  -679.9172
 367  -1018.953
 368  -534.9449
 369  -679.7016
 370  -1331.477
 371  -1335.021
 372  -804.7862
 373  -586.4003
 374  -259.2448
 375  360.0747
 376  137.0217
 377  -542.4149
 378  -515.984
 379  318.313
 380  151.2335
 381  -441.3593
 382  -620.6248
 383  365.814
 384  227.523
 385  -230.7992
 386  -145.3296
 387  -223.7502
 388  -803.7408
 389  -1089.161
 390  -439.9066
 391  -914.8013
 392  -579.3038
 393  -122.3776
 394  218.1089
 395  -325.1135
 396  -932.7018
 397  31.56137
 398  -206.7625
 399  -543.5876
 400  116.4862
 401  -81.32474
 402  -230.7484
 403  -510.9151
 404  293.6716
 405  -177.4614
 406  -510.5436
 407  -278.8582
 408  386.0308
 409  -293.9274
 410  -573.5563
 411  -148.5947
 412  -75.39549
 413  -641.1154
 414  -1001.835
 415  -503.3044
 416  -284.2781
 417  -819.7921
 418  -58.9188
 419  208.2122
 420  -32.32967
 421  -120.2405
 422  707.0865
 423  427.5914
 424  -511.7445
 425  -673.2701
 426  -326.8274
 427  -15.36203
 428  -412.1337
 429  -161.5524
 430  333.2965
 431  387.877
 432  285.4665
 433  7.756962
 434  -614.1091
 435  -485.9792
 436  420.5509
 437  959.4116
 438  422.4122
 439  -135.7323
 440  411.0326
 441  247.979
 442  7.091656
 443  546.4838
 444  177.9694
 445  57.24748
 446  -87.06527
 447  243.0611
 448  146.0427
 449  37.69626
 450  288.0051
 451  871.518
 452  134.8752
 453  -480.6753
 454  -262.6129
 455  88.87861
 456  -650.95
 457  -69.04472
 458  359.955
 459  357.5664
 460  -507.0605
 461  -555.8138
 462  -528.9306
 463  -478.3356
 464  419.9695
 465  981.0402
 466  512.8732
 467  346.9036
 468  811.8078
 469  1574.249
 470  1270.466
 471  1129.043
 472  1869.089
 473  1382.588
 474  448.7621
 475  371.512
 476  435.6082
 477  119.9918
 478  -125.5792
 479  1268.247
 480  912.2088
 481  294.4998
 482  -21.60909
 483  556.3958
 484  285.7005
 485  -62.74575
 486  566.9886
 487  625.3778
 488  172.2878
 489  -105.3888
 490  44.16013
 491  -151.999
 492  -761.4553
 493  -304.1753
 494  227.764
 495  -242.8494
 496  -417.7259
 497  1.673875
 498  143.1478
 499  -402.0975
 500  -179.5735
 501  -120.1606
 502  -247.8329
 503  -461.5273
 504  107.6638
 505  335.368
 506  78.76907
 507  145.2556
 508  945.2657
 509  676.8705
 510  -98.08066
 511  -0.7587116
