# Input file       =  1196090719.110027_cleaned.dat
# Candidate        =  PSR_0332+5434
# Telescope        =  AR
# Epoch_topo       =  58087.642802199385
# Epoch_bary       =  N/A
# T_sample         =  0.002
# Data Folded      =  7208960
# Data Avg         =  0.566737556785601
# Data StdDev      =  10.7397189079139 
# Profile Bins     =  1024
# Profile Avg      =  3989.78178333076 
# Profile StdDev   =  901.112977398428 
# Reduced chi-sqr  =  0.572
# Prob(Noise)      <  1   (~0.0 sigma)
# P_topo (ms)      =  714.525295707568  +/- 4.61e-05
# P'_topo (s/s)    =  -0                +/- 2.47e-11
# P''_topo (s/s^2) =  0                 +/- 1.11e-14
# P_bary (ms)      =  N/A
# P'_bary (s/s)    =  N/A
# P''_bary (s/s^2) =  N/A
# P_orb (s)        =  N/A
# asin(i)/c (s)    =  N/A
# eccentricity     =  N/A
# w (rad)          =  N/A
# T_peri           =  N/A
######################################################
   0  3482.802
   1  3582.352
   2  3806.367
   3  3954.382
   4  4395.538
   5  4851.752
   6  4841.08
   7  4789.967
   8  4712.694
   9  4638.292
  10  4607.132
  11  4684.227
  12  4792.517
  13  4565.019
  14  4180.178
  15  4073.666
  16  3963.438
  17  4033.219
  18  4045.934
  19  4247.923
  20  3755.597
  21  3609.88
  22  3571.262
  23  3641.371
  24  3446.105
  25  3463.64
  26  3563.971
  27  3831.76
  28  3498.981
  29  3761.118
  30  3886.745
  31  3881.319
  32  3875.966
  33  3843.377
  34  3757.627
  35  3754.03
  36  3611.719
  37  3738.397
  38  3467.242
  39  3448.407
  40  3821.966
  41  3758.651
  42  3944.952
  43  4053.812
  44  3931.339
  45  4072.709
  46  3839.128
  47  4142.336
  48  4176.927
  49  4020.872
  50  3681.755
  51  3631.61
  52  3890.234
  53  4268.387
  54  4300.266
  55  4395.761
  56  4435.264
  57  4284.539
  58  4285.662
  59  4236.676
  60  4082.242
  61  4300.652
  62  4441.393
  63  4288.627
  64  4046.461
  65  3915.338
  66  4010.086
  67  3960.268
  68  3952.797
  69  3842.943
  70  3742.552
  71  3522.994
  72  3865.002
  73  3954.683
  74  3850.885
  75  3645.078
  76  4049.47
  77  4058.843
  78  3689.948
  79  3398.877
  80  3287.673
  81  3382.106
  82  3452.605
  83  4009.608
  84  3985.408
  85  3719.723
  86  3917.979
  87  4063.978
  88  4057.053
  89  3988.942
  90  4255.618
  91  4367.386
  92  4098.359
  93  3754.169
  94  3839.506
  95  3762.888
  96  3541
  97  3598.29
  98  3519.984
  99  3567.57
 100  3589.012
 101  3942.18
 102  4026.188
 103  3953.683
 104  3836.958
 105  4035.112
 106  3847.615
 107  3802.805
 108  3721.995
 109  3845
 110  3967.238
 111  3876.154
 112  3953.562
 113  4008.792
 114  3841.745
 115  4058.819
 116  3954.137
 117  4001.17
 118  4245.178
 119  4429.791
 120  4337.02
 121  4041.168
 122  3837.981
 123  4003.248
 124  3864.351
 125  4059.672
 126  4282.148
 127  4166.944
 128  3923.06
 129  4064.592
 130  4079.016
 131  4134.404
 132  4122.228
 133  4468.842
 134  4625.485
 135  4379.097
 136  4258.823
 137  4394.55
 138  4132.913
 139  3937.527
 140  3957.22
 141  4032.708
 142  3936.426
 143  3607.166
 144  3552.367
 145  3737.567
 146  3748.412
 147  4100.485
 148  4373.818
 149  3932.654
 150  3958.258
 151  4079.054
 152  4271.529
 153  3925.871
 154  3635.536
 155  3734.678
 156  3801.606
 157  3679.783
 158  3898.917
 159  4004.573
 160  4184.999
 161  4192.163
 162  4189.234
 163  3967.073
 164  3812.672
 165  3589.927
 166  3769.584
 167  4086.794
 168  4350.86
 169  4365.75
 170  3979.262
 171  3836.748
 172  3874.568
 173  4021.847
 174  3854.161
 175  4042.8
 176  4033.968
 177  4076.24
 178  3940.615
 179  4193.122
 180  4517.28
 181  4574.269
 182  4371.379
 183  4357.876
 184  4275.368
 185  4365.825
 186  4268.191
 187  4115.886
 188  3976.851
 189  3616.69
 190  3697.162
 191  3739.819
 192  3376.741
 193  3211.663
 194  3380.329
 195  3545.761
 196  3856.955
 197  4151.42
 198  4145.21
 199  3952.513
 200  3786.873
 201  4155.507
 202  4027.12
 203  3877.248
 204  3986.146
 205  4152.086
 206  4037.225
 207  3612.608
 208  3232.083
 209  3628.922
 210  3809.175
 211  3835.59
 212  3821.274
 213  3424.558
 214  3316.566
 215  3526.395
 216  3828.312
 217  4219.022
 218  4071.402
 219  4444.017
 220  4657.631
 221  4310.967
 222  4008.247
 223  3892.953
 224  3937.001
 225  4069.992
 226  3975.017
 227  4001.194
 228  3995.911
 229  3744.327
 230  3835.606
 231  4048.343
 232  4056.155
 233  4187.487
 234  4326.046
 235  4299.796
 236  4086.443
 237  3674.446
 238  3852.122
 239  3714.894
 240  3821.829
 241  3951.886
 242  4022.998
 243  3829.326
 244  3686.531
 245  3492.659
 246  3554.929
 247  3703.275
 248  4030.947
 249  4020.737
 250  4168.767
 251  4078.926
 252  4141.854
 253  3994.784
 254  4131.943
 255  4216.806
 256  4014.399
 257  3818.385
 258  3852.332
 259  4037.161
 260  4204.878
 261  4330.066
 262  4702.138
 263  4665.786
 264  4315.7
 265  4032.238
 266  4283.484
 267  4234.033
 268  4047.321
 269  3978.868
 270  4048.672
 271  4086.365
 272  4268.207
 273  4432.377
 274  4459.974
 275  4175.504
 276  4455.993
 277  4576.735
 278  4258.431
 279  4183.25
 280  4025.784
 281  3954.939
 282  4112.042
 283  4451.305
 284  4482.106
 285  4255.223
 286  3788.944
 287  3961.879
 288  3990.935
 289  4179.995
 290  4386.218
 291  4260.271
 292  4088.375
 293  4121.165
 294  4055.908
 295  4173.651
 296  4019.936
 297  4169.066
 298  4590.952
 299  4649.502
 300  4332.224
 301  4266.127
 302  4181.052
 303  4548.05
 304  4509.703
 305  4503.902
 306  4532.899
 307  4437.954
 308  4399.209
 309  4458.608
 310  4450.092
 311  4737.194
 312  4854.711
 313  4738.269
 314  4720.285
 315  4461.033
 316  4565.772
 317  4476.444
 318  4356.229
 319  4158.615
 320  4218.234
 321  4244.511
 322  4366.323
 323  4277.97
 324  4582.543
 325  4430.359
 326  4509.826
 327  4511.007
 328  4459.513
 329  4262.038
 330  4339.874
 331  4395.697
 332  4417.653
 333  4499.358
 334  4497.614
 335  4484.843
 336  4274.642
 337  3957.52
 338  3978.676
 339  3913.263
 340  4151.243
 341  4434.169
 342  4591.164
 343  4246.402
 344  3935.139
 345  3672.399
 346  3641.946
 347  3652.436
 348  3828.3
 349  4001.424
 350  3915.033
 351  3798.968
 352  3654.969
 353  3738.539
 354  3941.852
 355  4120.498
 356  3921.012
 357  4075.003
 358  4251.258
 359  4313.271
 360  4323.595
 361  4020.721
 362  4089.903
 363  4000.192
 364  3801.993
 365  3853.098
 366  3863.536
 367  3866.667
 368  3991.635
 369  3932.089
 370  3869.559
 371  3944.353
 372  3672.783
 373  3920.367
 374  3697.977
 375  3755.504
 376  3885.371
 377  3934.95
 378  4154.308
 379  3986.643
 380  3660.479
 381  3534.259
 382  3795.055
 383  3888.474
 384  3648.453
 385  3459.446
 386  3656.199
 387  3846.244
 388  3628.163
 389  3765.839
 390  4094.187
 391  4274.838
 392  4457.179
 393  4254.909
 394  4082.253
 395  3797.97
 396  3866.097
 397  4385.15
 398  4459.702
 399  4140.832
 400  3906.281
 401  3811.754
 402  3896.396
 403  3801.268
 404  4099.843
 405  4334.474
 406  4491.667
 407  4363.965
 408  4476.302
 409  4178.27
 410  4048.715
 411  4094.438
 412  4556.595
 413  4393.315
 414  3977.277
 415  3498.146
 416  3621.79
 417  3684.164
 418  4174.261
 419  4385.481
 420  4245.782
 421  3946.126
 422  3968.436
 423  3922.908
 424  3809.565
 425  3997.405
 426  4414.693
 427  4615.12
 428  4376.781
 429  4186.079
 430  4074.576
 431  4104.221
 432  4175.628
 433  4387.106
 434  4438.074
 435  4258.842
 436  4282.903
 437  4241.699
 438  4270.11
 439  4123.22
 440  4301.343
 441  4498.833
 442  4271.526
 443  4356.968
 444  4467.381
 445  4462.248
 446  4466.984
 447  4578.836
 448  4722.958
 449  4485.24
 450  4016.638
 451  3930.599
 452  3961.628
 453  3971.812
 454  4263.369
 455  4557.354
 456  4652.983
 457  4454.378
 458  4279.333
 459  4516.382
 460  4469.115
 461  4326.625
 462  4280.655
 463  4114.522
 464  3934.027
 465  3907.52
 466  3818.816
 467  4152.192
 468  4210.667
 469  4434.392
 470  4475.351
 471  4076.218
 472  3807.069
 473  3852.815
 474  3671.605
 475  3929.865
 476  4138.087
 477  4436.835
 478  4390.707
 479  3821.729
 480  4035.386
 481  3882.528
 482  3863.14
 483  3896.237
 484  4224.681
 485  4266.252
 486  4303.229
 487  4097.313
 488  4260.488
 489  3969.749
 490  3886.233
 491  3878.828
 492  3966.692
 493  3595.205
 494  3570.957
 495  3172.51
 496  3208.887
 497  3321.885
 498  3689.937
 499  3892.395
 500  4136.474
 501  4221.822
 502  4312.738
 503  4248.877
 504  4257.464
 505  4428.082
 506  4333.425
 507  4101.233
 508  4146.164
 509  4393.861
 510  4522.687
 511  4423.785
 512  4483.414
 513  4728.202
 514  4915.779
 515  4936.009
 516  4918.892
 517  4600.551
 518  4563.555
 519  4485.988
 520  4436.542
 521  4183.162
 522  4170.967
 523  4310.986
 524  4721.357
 525  4763.641
 526  4854.404
 527  5164.67
 528  5119.188
 529  5047.91
 530  4803.988
 531  4434.019
 532  4383.916
 533  4468.301
 534  5019.162
 535  4801.524
 536  4096.314
 537  3779.934
 538  3710.658
 539  3565.695
 540  3779.038
 541  4115.441
 542  4529.406
 543  4639.918
 544  4422.917
 545  4453.019
 546  3995.957
 547  3981.484
 548  4038.157
 549  3899.989
 550  3588.611
 551  3810.356
 552  3852.229
 553  3938.224
 554  3568.109
 555  3850.179
 556  4361.175
 557  4058.552
 558  4042.428
 559  4112.71
 560  4253.529
 561  4386.188
 562  4476.193
 563  4547.163
 564  4518.239
 565  4185.729
 566  4250.284
 567  4123.719
 568  3982.891
 569  4327.933
 570  4457.741
 571  4419.871
 572  4229.896
 573  4227.2
 574  4160.72
 575  3792.979
 576  4028.229
 577  4501.568
 578  4673.202
 579  4249.106
 580  4446.767
 581  4579.861
 582  4720.881
 583  4671.406
 584  4849.976
 585  4778.611
 586  4455.631
 587  4235.675
 588  4158.004
 589  3817.303
 590  3938.17
 591  4141.895
 592  4403.528
 593  4223.143
 594  4108.809
 595  3862.926
 596  3805.549
 597  3919.487
 598  4223.206
 599  4557.118
 600  4416.338
 601  4115.228
 602  3957.604
 603  3671.214
 604  3582.839
 605  3551.069
 606  4048.213
 607  4180.739
 608  3984.462
 609  3737.127
 610  3908.636
 611  4082.476
 612  4377.989
 613  4736.618
 614  4522.33
 615  4159.596
 616  4098.212
 617  4125.63
 618  4000.41
 619  3900.239
 620  4100.457
 621  4317.837
 622  3860.91
 623  3928.695
 624  3774.492
 625  3851.027
 626  4040.524
 627  4474.258
 628  4551.86
 629  4625.437
 630  4287.433
 631  4523.326
 632  4032.537
 633  3588.563
 634  3341.898
 635  3322.275
 636  3130.664
 637  3182.144
 638  3230.821
 639  3512.42
 640  3351.36
 641  3144.799
 642  3456.526
 643  3461.989
 644  3584.754
 645  3583.358
 646  3223.467
 647  3380.24
 648  3465.333
 649  3512.123
 650  3242.421
 651  2823.36
 652  3072.904
 653  3171.73
 654  3332.559
 655  3588.462
 656  3533.223
 657  3261.052
 658  3588.854
 659  3415.118
 660  3539.862
 661  3284.897
 662  3094.907
 663  3119.231
 664  2910.083
 665  2992.7
 666  2967.381
 667  3180.806
 668  3623.037
 669  3739.853
 670  3676.897
 671  3654.903
 672  3657.021
 673  3597.866
 674  3547.541
 675  3581.316
 676  3763.924
 677  3942.458
 678  3887.347
 679  3562.875
 680  3467.393
 681  3402.192
 682  3391.207
 683  3231.983
 684  3358.51
 685  3563.999
 686  3502.971
 687  3306.616
 688  3303.293
 689  3262.612
 690  3134.574
 691  3257.465
 692  3169.342
 693  2972.599
 694  2718.763
 695  2768.003
 696  3265.622
 697  3488.942
 698  3568.004
 699  3657.483
 700  3486.592
 701  3470.043
 702  3471.85
 703  3794.866
 704  3922.489
 705  3755.615
 706  3818.985
 707  3718.345
 708  3394.598
 709  3390.147
 710  3462.36
 711  3613.382
 712  3641.829
 713  3949.782
 714  3813.253
 715  3948.723
 716  3349.202
 717  3573.248
 718  3418.334
 719  3593.003
 720  3623.489
 721  3713.287
 722  3803.682
 723  3824.694
 724  3624.884
 725  3728.273
 726  3533.287
 727  3486.022
 728  3640.715
 729  3523.833
 730  3473.428
 731  3730.636
 732  3931.599
 733  4278.708
 734  4131.892
 735  4362.087
 736  4501.047
 737  4094.199
 738  3796.391
 739  3723.389
 740  3676.817
 741  3769.532
 742  3825.83
 743  3929.842
 744  3990.181
 745  3736.594
 746  4177.252
 747  4365.585
 748  4453.166
 749  4550.543
 750  4769.166
 751  4703.156
 752  4442.174
 753  4185.856
 754  4479.575
 755  4154.24
 756  4206.324
 757  4073.421
 758  3988.533
 759  3757.183
 760  3710.965
 761  3736.166
 762  3911.216
 763  4125.969
 764  4114.301
 765  3831.497
 766  3510.584
 767  3310.296
 768  3384.621
 769  3721.272
 770  3763.433
 771  3889.164
 772  3772.536
 773  3848.484
 774  3883.525
 775  3694.139
 776  3622.915
 777  3733.684
 778  3891.078
 779  4093.324
 780  3823.573
 781  3661.099
 782  3680.884
 783  3959.23
 784  4120.482
 785  4164.546
 786  3690.509
 787  3443.714
 788  3350.677
 789  3626.171
 790  3886.855
 791  4168.928
 792  4248.621
 793  4309.431
 794  3972.552
 795  3999.46
 796  3671.166
 797  3630.207
 798  3749.678
 799  3638.571
 800  3778.827
 801  3698.25
 802  3391.857
 803  3263.557
 804  3394.302
 805  3533.682
 806  3852.088
 807  3788.434
 808  3734.172
 809  3600.268
 810  3271.731
 811  3632.162
 812  3673.294
 813  3903.245
 814  4127.454
 815  4057.445
 816  4034.106
 817  3810.399
 818  3756.835
 819  4183.598
 820  4432.706
 821  4408.077
 822  4119.752
 823  3808.568
 824  3714.411
 825  3752.58
 826  3941.347
 827  4471.835
 828  4429.984
 829  4103.43
 830  3997.411
 831  3962.367
 832  4143.033
 833  4043.626
 834  4290.713
 835  4421.747
 836  4413.832
 837  4220.872
 838  4565.671
 839  4547.202
 840  4643.819
 841  4366.613
 842  4530.832
 843  4526.084
 844  4201.322
 845  3873.936
 846  3917.581
 847  4310.874
 848  4623.188
 849  4796.554
 850  4770.105
 851  4673.356
 852  4538.084
 853  4256.841
 854  4273.208
 855  4230.49
 856  4318.162
 857  4392.418
 858  4034.198
 859  3849.644
 860  3547.883
 861  3892.775
 862  4148.625
 863  4362.564
 864  4257.732
 865  4097.277
 866  3932.736
 867  3842.377
 868  4107.766
 869  4255.867
 870  4679.224
 871  4636.958
 872  4397.901
 873  4446.945
 874  4200.571
 875  4116.535
 876  3900.89
 877  3932.859
 878  4071.812
 879  4082.655
 880  4039.804
 881  4142.781
 882  3983.976
 883  3880.851
 884  4155.409
 885  4201.188
 886  3946.562
 887  3973.967
 888  3916.122
 889  3913.909
 890  3622.898
 891  3673.709
 892  4058.37
 893  4005.707
 894  3978.547
 895  3919.645
 896  3513.194
 897  3605.937
 898  3448.744
 899  3663.983
 900  3830.613
 901  3607.417
 902  3761.881
 903  3855.493
 904  3770.757
 905  4005.839
 906  4156.715
 907  4284.591
 908  4138.108
 909  3841.932
 910  3571.821
 911  3366.274
 912  3389.295
 913  3883.114
 914  3996.954
 915  3849.067
 916  3752.676
 917  3532.03
 918  3750.255
 919  3744.688
 920  3774.011
 921  3921.255
 922  3952.443
 923  4057.256
 924  3964.505
 925  3916.165
 926  3998.717
 927  4397.794
 928  4437.824
 929  4218.4
 930  3998.096
 931  3851.77
 932  3904.612
 933  4186.513
 934  4449.624
 935  4488.353
 936  3741.789
 937  3524.053
 938  3399.009
 939  3458.559
 940  3644.901
 941  3852.273
 942  4010.491
 943  3946.881
 944  3878.624
 945  3701.858
 946  3812.704
 947  3621.717
 948  3491.131
 949  3384.327
 950  3229.759
 951  3260.858
 952  3389.974
 953  3677.218
 954  3842.467
 955  3935.555
 956  4124.022
 957  4182.071
 958  3748.875
 959  3906.099
 960  3840.276
 961  3698.369
 962  3608.146
 963  3628.736
 964  3580.657
 965  3425.745
 966  3048.984
 967  3234.387
 968  3187.432
 969  3426.769
 970  3859.898
 971  4001.235
 972  4023.991
 973  4135.998
 974  4105.063
 975  4077.696
 976  3899.226
 977  4027.833
 978  4179.183
 979  3726.262
 980  3439.545
 981  3817.378
 982  3830.29
 983  3996.891
 984  3689.905
 985  4122.369
 986  4305.778
 987  3780.854
 988  3383.194
 989  3304.88
 990  3420.199
 991  3811.805
 992  3887.799
 993  3772.958
 994  3644.26
 995  3753.028
 996  3935.727
 997  3874.315
 998  3790.437
 999  4047.821
1000  4246.461
1001  3859.073
1002  3771.29
1003  3631.048
1004  3826.136
1005  3785.142
1006  3972.991
1007  3897.734
1008  3817.187
1009  3795.523
1010  4091.091
1011  4005.188
1012  3978.954
1013  4199.252
1014  4426.449
1015  4598.773
1016  4393.251
1017  3954.478
1018  3820.29
1019  3669.175
1020  3811.678
1021  3945.257
1022  3791.866
1023  3500.264
