# Input file       =  1196019175.113502-PSRB0329-2ms-sampling-dd.dat
# Candidate        =  PSR_0332+5434
# Telescope        =  AR
# Epoch_topo       =  58086.814746684053
# Epoch_bary       =  N/A
# T_sample         =  0.002
# Data Folded      =  7340032
# Data Avg         =  -6.031269190722e-10
# Data StdDev      =  5.55080095366659 
# Profile Bins     =  512
# Profile Avg      =  0.0979386267265827
# Profile StdDev   =  664.614252505549 
# Reduced chi-sqr  =  0.366
# Prob(Noise)      <  1   (~0.0 sigma)
# P_topo (ms)      =  714.524464594569  +/- 0.00202
# P'_topo (s/s)    =  -0                +/- 1.07e-09
# P''_topo (s/s^2) =  0                 +/- 4.71e-13
# P_bary (ms)      =  N/A
# P'_bary (s/s)    =  N/A
# P''_bary (s/s^2) =  N/A
# P_orb (s)        =  N/A
# asin(i)/c (s)    =  N/A
# eccentricity     =  N/A
# w (rad)          =  N/A
# T_peri           =  N/A
######################################################
   0  234.6052
   1  -117.592
   2  -70.3514
   3  -9.079074
   4  23.54846
   5  -409.6895
   6  -517.9244
   7  -458.7897
   8  -446.8661
   9  -150.6694
  10  56.5719
  11  195.5876
  12  492.8411
  13  -112.0553
  14  -469.6547
  15  -261.4081
  16  247.4495
  17  148.5929
  18  12.20528
  19  96.64497
  20  101.4966
  21  -44.83106
  22  1.871747
  23  233.9242
  24  304.3675
  25  55.90805
  26  -388.0474
  27  1.862671
  28  296.0525
  29  285.8282
  30  -54.29599
  31  193.926
  32  366.5524
  33  213.3256
  34  5.576455
  35  -201.0444
  36  -383.2835
  37  -841.7748
  38  -514.7335
  39  -506.1774
  40  -426.8352
  41  -115.0624
  42  -3.663532
  43  77.31532
  44  85.79378
  45  -190.8496
  46  62.28944
  47  -97.69796
  48  117.439
  49  -99.78355
  50  187.6527
  51  173.4676
  52  352.9259
  53  586.3269
  54  416.3763
  55  277.8109
  56  299.3639
  57  258.2078
  58  192.0155
  59  64.81968
  60  5.890349
  61  242.6751
  62  325.1065
  63  363.1295
  64  35.08597
  65  212.3297
  66  256.1759
  67  -37.14995
  68  -72.63259
  69  -58.95563
  70  177.5066
  71  61.13381
  72  1.922271
  73  -32.17611
  74  -80.20025
  75  133.304
  76  118.8798
  77  -188.5824
  78  -776.1317
  79  -614.6592
  80  -413.7221
  81  -318.9381
  82  -72.53294
  83  -111.039
  84  -12.82286
  85  186.0217
  86  -280.3341
  87  -489.9779
  88  -488.8325
  89  -378.0661
  90  -410.2676
  91  100.3379
  92  533.635
  93  143.2815
  94  65.37602
  95  212.464
  96  256.1964
  97  323.5364
  98  457.3202
  99  84.30432
 100  -68.25034
 101  -10.51162
 102  -472.911
 103  -156.5215
 104  -124.9169
 105  20.67712
 106  -26.96606
 107  -129.0375
 108  -285.8645
 109  -720.8907
 110  -564.5251
 111  -373.3354
 112  -34.28418
 113  37.03503
 114  -357.173
 115  -243.3477
 116  -50.34496
 117  -388.0934
 118  -204.5632
 119  51.36486
 120  -32.21115
 121  -395.0384
 122  -566.7492
 123  -555.0243
 124  -304.9692
 125  -122.1555
 126  -27.27863
 127  -141.2545
 128  -187.441
 129  -200.0716
 130  -218.553
 131  -400.4264
 132  -112.8452
 133  -32.62592
 134  -57.72696
 135  81.09075
 136  61.72164
 137  -7.313592
 138  -203.867
 139  -333.4743
 140  -569.824
 141  -378.369
 142  -463.3052
 143  6.662018
 144  -29.07766
 145  -152.6192
 146  18.94321
 147  31.72959
 148  36.93336
 149  9.930257
 150  63.93501
 151  153.8561
 152  71.22688
 153  100.3306
 154  118.2573
 155  129.9651
 156  447.3092
 157  88.35226
 158  -205.1047
 159  -115.2321
 160  426.9708
 161  876.4811
 162  487.6587
 163  465.8193
 164  238.359
 165  -236.3252
 166  -127.0264
 167  226.593
 168  202.6716
 169  215.8878
 170  98.22653
 171  -72.71265
 172  -167.3458
 173  69.85239
 174  31.08665
 175  126.2404
 176  117.949
 177  327.42
 178  284.0755
 179  273.553
 180  139.8745
 181  -255.4165
 182  -49.24026
 183  62.76112
 184  71.58331
 185  227.4008
 186  151.8568
 187  133.6684
 188  40.30928
 189  150.5529
 190  41.90208
 191  198.4919
 192  158.1991
 193  15.74175
 194  323.4579
 195  137.9503
 196  -72.41376
 197  -421.6042
 198  -352.1819
 199  -60.15076
 200  -277.024
 201  -571.6185
 202  -135.8853
 203  -220.1322
 204  -42.18583
 205  -314.4083
 206  -107.4919
 207  180.8698
 208  98.63486
 209  236.3083
 210  140.7224
 211  109.2414
 212  115.4619
 213  -49.33045
 214  134.9347
 215  510.012
 216  330.1912
 217  235.613
 218  -209.3849
 219  -146.4644
 220  4.97305
 221  63.92062
 222  327.2567
 223  208.8565
 224  206.7436
 225  -160.0612
 226  -179.9353
 227  571.8311
 228  862.4578
 229  105.9716
 230  -46.85977
 231  99.21138
 232  75.03597
 233  -143.0513
 234  25.38916
 235  291.0015
 236  374.8708
 237  -30.24606
 238  -285.6315
 239  114.2632
 240  111.8905
 241  145.832
 242  145.1494
 243  329.7845
 244  75.97634
 245  -124.7681
 246  -195.3297
 247  167.0898
 248  117.2195
 249  201.135
 250  -306.0988
 251  41.57896
 252  209.2741
 253  -83.67905
 254  -194.433
 255  -160.2337
 256  264.4003
 257  479.8109
 258  279.4679
 259  -63.39823
 260  140.13
 261  457.2032
 262  170.7846
 263  100.2102
 264  -22.85173
 265  -168.7231
 266  -409.4816
 267  -333.0631
 268  269.6964
 269  40.30367
 270  109.4458
 271  246.6167
 272  558.0704
 273  690.5248
 274  870.2626
 275  1128.494
 276  1121.482
 277  836.4272
 278  497.4832
 279  263.519
 280  327.1585
 281  -240.2978
 282  -57.46097
 283  -11.1157
 284  -255.0098
 285  -192.4627
 286  71.68254
 287  335.293
 288  564.3934
 289  520.9229
 290  662.6469
 291  469.1108
 292  175.3289
 293  300.7765
 294  92.20158
 295  232.1566
 296  75.01292
 297  -160.3725
 298  76.07334
 299  37.15351
 300  215.5428
 301  476.0316
 302  415.5125
 303  127.223
 304  74.1099
 305  131.7048
 306  94.52276
 307  -100.0476
 308  30.63962
 309  -36.36823
 310  76.78921
 311  -198.9655
 312  -36.11435
 313  -95.48032
 314  305.8588
 315  -82.43712
 316  -83.63601
 317  -315.6471
 318  -592.754
 319  -403.5478
 320  -203.2448
 321  327.3641
 322  272.3571
 323  428.6462
 324  215.04
 325  -262.496
 326  -492.1432
 327  35.13254
 328  323.3012
 329  208.6212
 330  -57.843
 331  212.087
 332  135.2365
 333  -133.3011
 334  -59.83878
 335  -111.1346
 336  129.6953
 337  -259.8247
 338  -405.3959
 339  -410.5563
 340  -151.561
 341  -296.7838
 342  -567.71
 343  -90.38836
 344  -156.6523
 345  -210.6825
 346  -163.5904
 347  165.0791
 348  238.47
 349  294.9816
 350  453.1701
 351  101.5438
 352  -398.3457
 353  -456.8036
 354  -192.3593
 355  -309.1628
 356  -19.41266
 357  131.7371
 358  -141.8172
 359  -228.2727
 360  -167.5247
 361  -303.4352
 362  -297.3465
 363  -124.3118
 364  -0.8549827
 365  239.446
 366  173.4876
 367  42.4926
 368  136.1384
 369  -137.2839
 370  -543.1823
 371  -449.4304
 372  24.29967
 373  322.1654
 374  -171.7564
 375  -260.7372
 376  167.521
 377  -61.35112
 378  19.48107
 379  40.07785
 380  92.1372
 381  -147.312
 382  -583.2198
 383  -245.8601
 384  366.0058
 385  204.4211
 386  454.3939
 387  157.8034
 388  75.1474
 389  -95.15717
 390  -239.338
 391  -364.0444
 392  -365.1783
 393  -107.1946
 394  -399.3992
 395  -525.3115
 396  -310.2034
 397  101.061
 398  -94.48244
 399  -367.199
 400  -170.1626
 401  -208.1161
 402  -364.7171
 403  -136.681
 404  -81.44534
 405  62.68561
 406  33.54527
 407  -72.55347
 408  -233.2121
 409  -480.5021
 410  -467.0324
 411  -400.6078
 412  -299.3549
 413  -263.6592
 414  -223.0816
 415  -175.8137
 416  -307.1224
 417  -270.6975
 418  -167.4716
 419  -79.12312
 420  -239.1854
 421  -188.114
 422  53.33506
 423  123.1441
 424  -106.422
 425  -61.39527
 426  -256.6973
 427  197.6015
 428  380.4241
 429  369.0179
 430  495.5595
 431  136.7972
 432  -18.87838
 433  -136.3454
 434  -348.6351
 435  -191.1374
 436  141.44
 437  155.0803
 438  -108.5558
 439  -30.3788
 440  148.7983
 441  76.54561
 442  -364.9033
 443  -155.2946
 444  -250.799
 445  -234.0992
 446  -438.0738
 447  -283.5667
 448  -84.047
 449  -545.9943
 450  -435.217
 451  -263.4765
 452  -231.8084
 453  20.85578
 454  451.688
 455  264.4587
 456  -20.32401
 457  -71.96987
 458  98.59902
 459  -58.63998
 460  2.865523
 461  -111.5851
 462  169.5661
 463  149.3888
 464  229.4846
 465  19.87257
 466  71.97166
 467  269.0488
 468  -166.2368
 469  327.0677
 470  426.2442
 471  816.3482
 472  1108.343
 473  629.6556
 474  613.9792
 475  607.0063
 476  253.1328
 477  22.08145
 478  124.4172
 479  397.5082
 480  201.3449
 481  50.76303
 482  -27.95017
 483  -259.6731
 484  -54.18485
 485  -492.0708
 486  -359.7727
 487  -32.87803
 488  187.7913
 489  342.6255
 490  19.32394
 491  -150.0415
 492  -311.0872
 493  -257.1926
 494  -223.4946
 495  43.45911
 496  286.6513
 497  -118.5362
 498  -67.43121
 499  -116.6158
 500  83.39706
 501  -173.8548
 502  -452.119
 503  114.7817
 504  327.5705
 505  -18.55226
 506  10.48701
 507  181.7008
 508  46.24356
 509  -523.2059
 510  -701.7088
 511  -135.9277
