# Input file       =  1196277675.112092-PSRB0329-2ms-sampling-dd.dat
# Candidate        =  PSR_0332+5434
# Telescope        =  AR
# Epoch_topo       =  58089.806644815879
# Epoch_bary       =  N/A
# T_sample         =  0.002
# Data Folded      =  7340032
# Data Avg         =  1.62140767901541e-10
# Data StdDev      =  5.6594026678392  
# Profile Bins     =  512
# Profile Avg      =  0.246414778719425
# Profile StdDev   =  677.617465499159 
# Reduced chi-sqr  =  0.368
# Prob(Noise)      <  1   (~0.0 sigma)
# P_topo (ms)      =  714.527548701641  +/- 0.00109
# P'_topo (s/s)    =  -0                +/- 5.76e-10
# P''_topo (s/s^2) =  0                 +/- 2.54e-13
# P_bary (ms)      =  N/A
# P'_bary (s/s)    =  N/A
# P''_bary (s/s^2) =  N/A
# P_orb (s)        =  N/A
# asin(i)/c (s)    =  N/A
# eccentricity     =  N/A
# w (rad)          =  N/A
# T_peri           =  N/A
######################################################
   0  28.56457
   1  437.483
   2  183.6481
   3  -172.5557
   4  -86.35639
   5  -175.0843
   6  -215.1308
   7  -98.54588
   8  -226.3668
   9  -532.9305
  10  -813.6206
  11  -393.5006
  12  -469.4028
  13  -499.7698
  14  -970.3073
  15  -915.332
  16  -687.8251
  17  -273.2641
  18  -227.7053
  19  -230.1033
  20  -762.2623
  21  -761.1288
  22  -673.7631
  23  -579.8229
  24  -199.0505
  25  -239.2927
  26  -320.7283
  27  -82.98403
  28  -258.6714
  29  -92.80175
  30  -374.1311
  31  -397.4673
  32  -295.1753
  33  -27.16035
  34  -297.9728
  35  -306.0048
  36  44.83617
  37  -79.85693
  38  -345.1469
  39  -287.4891
  40  -47.26988
  41  162.9349
  42  149.8572
  43  69.47527
  44  282.7212
  45  213.5916
  46  239.4891
  47  -109.1538
  48  201.0679
  49  59.77132
  50  160.9338
  51  588.1309
  52  36.3894
  53  -14.44443
  54  -131.4908
  55  -441.9542
  56  -139.6374
  57  -86.42683
  58  395.1098
  59  489.9278
  60  199.1592
  61  261.1772
  62  215.7312
  63  181.2641
  64  261.7318
  65  21.06665
  66  110.1556
  67  363.0982
  68  279.8101
  69  120.0361
  70  -71.07684
  71  -244.6067
  72  -265.0638
  73  -146.5735
  74  -304.8564
  75  -651.0024
  76  -184.7476
  77  -284.0112
  78  -247.3899
  79  -284.1593
  80  -74.45879
  81  86.3932
  82  8.839807
  83  8.475892
  84  -9.78904
  85  -394.1986
  86  -307.179
  87  165.6725
  88  -47.96654
  89  19.70841
  90  224.6606
  91  368.3786
  92  307.2727
  93  -76.35062
  94  -192.1104
  95  -111.2448
  96  -234.4829
  97  109.1517
  98  131.0053
  99  -57.64121
 100  -143.663
 101  -58.09773
 102  88.87136
 103  -167.9843
 104  152.5774
 105  108.3588
 106  187.0749
 107  216.498
 108  96.18972
 109  218.299
 110  564.9312
 111  328.1927
 112  329.3434
 113  -97.12012
 114  252.7148
 115  253.917
 116  393.6022
 117  332.8174
 118  434.4011
 119  232.7692
 120  -42.82672
 121  -114.94
 122  -286.8749
 123  -273.1503
 124  39.10963
 125  116.2499
 126  370.2436
 127  39.09375
 128  -43.34675
 129  94.50006
 130  143.8123
 131  77.02877
 132  551.9064
 133  269.8633
 134  92.00684
 135  87.86039
 136  101.837
 137  -178.9717
 138  -389.7708
 139  -328.8595
 140  -235.1872
 141  -65.74961
 142  195.7969
 143  271.3234
 144  212.8915
 145  -112.0258
 146  -383.8276
 147  -498.0735
 148  -470.8506
 149  18.55265
 150  116.8915
 151  -160.7202
 152  -394.6439
 153  -284.5892
 154  -23.39571
 155  194.6911
 156  264.067
 157  -106.9986
 158  -165.4222
 159  -361.429
 160  -216.6546
 161  51.14553
 162  23.37233
 163  -461.3662
 164  -554.0565
 165  -94.99811
 166  -128.534
 167  -132.7739
 168  302.9443
 169  438.3248
 170  4.0045
 171  96.86835
 172  60.71668
 173  -91.71712
 174  -212.5806
 175  21.72989
 176  183.0997
 177  406.3141
 178  132.7392
 179  108.803
 180  176.7717
 181  -113.33
 182  -29.11037
 183  -194.404
 184  215.8432
 185  -123.4813
 186  123.9659
 187  263.3206
 188  -158.151
 189  -613.5499
 190  -305.9729
 191  200.5888
 192  193.2137
 193  281.2314
 194  -152.9942
 195  -79.3252
 196  85.56383
 197  354.4285
 198  580.4034
 199  697.9626
 200  833.0621
 201  801.451
 202  841.6796
 203  1165.498
 204  875.5399
 205  360.5343
 206  41.77402
 207  -30.94309
 208  24.54059
 209  130.1025
 210  5.512732
 211  -93.33241
 212  37.34903
 213  -11.85608
 214  -72.15588
 215  -276.1628
 216  -182.1959
 217  11.25434
 218  -165.8231
 219  36.29541
 220  157.8305
 221  -93.19603
 222  -473.6823
 223  -137.0692
 224  -89.17085
 225  247.8265
 226  157.4633
 227  -104.2976
 228  -93.14097
 229  -17.43835
 230  195.3111
 231  160.2212
 232  500.436
 233  431.4759
 234  -200.9782
 235  -75.77626
 236  14.48917
 237  361.7856
 238  106.8933
 239  108.2357
 240  367.8773
 241  563.0069
 242  325.8735
 243  291.6369
 244  161.9167
 245  347.2383
 246  207.2596
 247  446.5634
 248  208.4223
 249  36.43658
 250  -396.2155
 251  -515.7982
 252  -202.3764
 253  249.539
 254  431.3728
 255  331.5109
 256  341.4588
 257  -46.41228
 258  -239.0396
 259  -250.3375
 260  -161.1093
 261  55.12022
 262  207.3531
 263  -116.7866
 264  -187.7624
 265  144.729
 266  215.2094
 267  289.8039
 268  296.6205
 269  267.8372
 270  610.9622
 271  204.5597
 272  85.89422
 273  -238.6992
 274  -302.6871
 275  -84.66546
 276  228.565
 277  323.0895
 278  166.536
 279  110.8631
 280  5.494728
 281  123.4807
 282  30.16195
 283  -31.09985
 284  235.5341
 285  218.3739
 286  403.1648
 287  938.6752
 288  947.1514
 289  761.691
 290  253.9683
 291  410.6111
 292  329.1341
 293  407.5045
 294  81.82513
 295  295.4793
 296  313.0018
 297  58.22994
 298  111.1037
 299  396.0592
 300  162.3871
 301  -71.57729
 302  -169.2782
 303  -99.0659
 304  251.3884
 305  174.2624
 306  472.1895
 307  380.0893
 308  -3.876571
 309  -47.21998
 310  -414.3382
 311  86.69175
 312  262.7931
 313  107.4473
 314  176.4713
 315  270.0788
 316  -19.15
 317  128.509
 318  285.3948
 319  -11.92631
 320  545.3997
 321  286.284
 322  173.416
 323  313.4581
 324  326.4302
 325  52.5143
 326  257.4767
 327  499.8846
 328  450.0132
 329  193.599
 330  199.2537
 331  273.6442
 332  136.4588
 333  388.8802
 334  283.5864
 335  -119.3197
 336  209.9973
 337  139.6365
 338  147.1729
 339  147.0834
 340  176.7301
 341  178.8597
 342  -61.54526
 343  -17.73353
 344  207.6113
 345  485.437
 346  855.5482
 347  484.8181
 348  470.1395
 349  174.4087
 350  -133.643
 351  -148.5594
 352  -6.228879
 353  290.6134
 354  439.6288
 355  479.7826
 356  146.371
 357  -184.4599
 358  -403.1625
 359  -214.3504
 360  -204.8233
 361  -107.575
 362  271.8725
 363  248.4898
 364  6.241758
 365  -34.00779
 366  -50.34307
 367  -160.2821
 368  -206.0386
 369  19.76961
 370  284.6712
 371  234.2585
 372  -63.60421
 373  -204.2583
 374  44.1821
 375  6.164381
 376  398.2588
 377  124.1434
 378  -415.8326
 379  -180.1093
 380  -76.14989
 381  -303.9679
 382  -276.238
 383  -409.5487
 384  -297.9433
 385  -225.0724
 386  -58.31718
 387  -230.1376
 388  -334.1102
 389  -242.5415
 390  -43.01573
 391  -316.5564
 392  -719.9568
 393  -383.102
 394  -422.4958
 395  -496.3752
 396  -303.4843
 397  -230.2209
 398  -286.4037
 399  -220.0684
 400  -31.98068
 401  -315.7698
 402  -557.2441
 403  -36.81784
 404  -186.9429
 405  -160.3297
 406  -105.5196
 407  -215.7652
 408  -143.5676
 409  -197.6793
 410  -37.0076
 411  -207.9452
 412  -48.83855
 413  -186.5586
 414  -367.0364
 415  23.7308
 416  251.5694
 417  184.9545
 418  156.1013
 419  -127.0527
 420  77.52869
 421  151.6482
 422  -102.7693
 423  103.5063
 424  221.7639
 425  95.72038
 426  -3.031776
 427  58.52275
 428  256.2891
 429  -8.741175
 430  42.67272
 431  -0.3719833
 432  -337.0107
 433  -189.602
 434  220.5352
 435  -277.6261
 436  -432.5927
 437  -638.6586
 438  -543.7787
 439  -195.4908
 440  -68.75572
 441  -129.9245
 442  -244.7261
 443  -396.637
 444  -536.9016
 445  -637.3718
 446  -394.5634
 447  -247.3396
 448  -113.7236
 449  -341.6989
 450  -548.6779
 451  -691.078
 452  -579.3136
 453  -531.7005
 454  -179.7855
 455  80.59752
 456  -95.84212
 457  -214.4761
 458  -304.4577
 459  -331.1436
 460  -46.70015
 461  -43.73122
 462  -182.3413
 463  54.54195
 464  245.0608
 465  54.90966
 466  -281.9915
 467  -72.63888
 468  169.9381
 469  -256.4731
 470  -328.347
 471  -6.223488
 472  50.07518
 473  8.450429
 474  -10.66026
 475  78.40713
 476  -1.242568
 477  237.1778
 478  151.3436
 479  260.0474
 480  196.5907
 481  93.2306
 482  -23.47519
 483  45.96185
 484  -76.80884
 485  63.95138
 486  68.91222
 487  48.87221
 488  -82.52876
 489  97.6503
 490  87.81685
 491  -41.41934
 492  -136.1381
 493  -294.2483
 494  -311.6168
 495  -43.65078
 496  178.8579
 497  462.9017
 498  -128.318
 499  -217.6113
 500  170.0384
 501  -47.46108
 502  -340.5059
 503  -491.2781
 504  237.4012
 505  69.66739
 506  -283.1927
 507  -344.2228
 508  -395.8092
 509  -368.9261
 510  -386.5867
 511  -237.762
