# Input file       =  1196865738.117129_cleaned.dat
# Candidate        =  PSR_0332+5434
# Telescope        =  AR
# Epoch_topo       =  58096.612929596398
# Epoch_bary       =  N/A
# T_sample         =  0.002
# Data Folded      =  7143424
# Data Avg         =  0.236724334436793
# Data StdDev      =  4.6970901470842  
# Profile Bins     =  256
# Profile Avg      =  6605.7511670564  
# Profile StdDev   =  784.624973368685 
# Reduced chi-sqr  =  0.881
# Prob(Noise)      <  0.914   (~0.0 sigma)
# P_topo (ms)      =  714.534492925131  +/- 4.27e-05
# P'_topo (s/s)    =  -0                +/- 2.31e-11
# P''_topo (s/s^2) =  0                 +/- 1.05e-14
# P_bary (ms)      =  N/A
# P'_bary (s/s)    =  N/A
# P''_bary (s/s^2) =  N/A
# P_orb (s)        =  N/A
# asin(i)/c (s)    =  N/A
# eccentricity     =  N/A
# w (rad)          =  N/A
# T_peri           =  N/A
######################################################
   0  5613.26
   1  5798.423
   2  7086.799
   3  6843.351
   4  5442.498
   5  5687.563
   6  7627.239
   7  6825.191
   8  6520.243
   9  6296.038
  10  7241.194
  11  7500.292
  12  6551.148
  13  5964.104
  14  6672.492
  15  7130.237
  16  6179.581
  17  6006.578
  18  6765.008
  19  8217.933
  20  6522.134
  21  6113.684
  22  6307.417
  23  7247.675
  24  6058.739
  25  6609.739
  26  7275.62
  27  7303.166
  28  6396.541
  29  6810.887
  30  6069.62
  31  6554.47
  32  5719.297
  33  5921.938
  34  6358.61
  35  7411.699
  36  6267.697
  37  5761.504
  38  5355.843
  39  6782.264
  40  6266.741
  41  5987.228
  42  5977.404
  43  6871.806
  44  6938.444
  45  5756.938
  46  5548.227
  47  6332.13
  48  7269.432
  49  5980.675
  50  6709.52
  51  7483.367
  52  7223.509
  53  5562.057
  54  5204.607
  55  6109.696
  56  7288.552
  57  6704.781
  58  6291.315
  59  6566.313
  60  7781.764
  61  7073.21
  62  6358.256
  63  5899.021
  64  6366.172
  65  6687.833
  66  7476.207
  67  7008.161
  68  7601.605
  69  6476.515
  70  5932.453
  71  6010.131
  72  7180.264
  73  6265.06
  74  6020.649
  75  6786.438
  76  7678.292
  77  6409.031
  78  6045.333
  79  6382.33
  80  6857.532
  81  6609.719
  82  6515.705
  83  6512.461
  84  7501.905
  85  7484.263
  86  5992.604
  87  5960.825
  88  6782.51
  89  6987.788
  90  6627.194
  91  6083.598
  92  7062.646
  93  8059.526
  94  6101.001
  95  6017.077
  96  6081.709
  97  7132.76
  98  6827.708
  99  6082.175
 100  7176.026
 101  7511.281
 102  7305.227
 103  6578.841
 104  6278.983
 105  7106.004
 106  7019.874
 107  7178.183
 108  7228.814
 109  6684.162
 110  7553.94
 111  5798.863
 112  5669.552
 113  6829.492
 114  6908.627
 115  6069.405
 116  7060.359
 117  7095.162
 118  6540.325
 119  5813.93
 120  6008.357
 121  5562.876
 122  6687.621
 123  5742.461
 124  6213.018
 125  6579.005
 126  7001.607
 127  5227.146
 128  5431.817
 129  6294.42
 130  7626.647
 131  5932.134
 132  5342.53
 133  6890.63
 134  7641.427
 135  6722.537
 136  6081.927
 137  6057.717
 138  7341.555
 139  6622.186
 140  6972.313
 141  6349.632
 142  6574.249
 143  6460.712
 144  7083.472
 145  6687.084
 146  6511.709
 147  7193.683
 148  7241.184
 149  6437.732
 150  6577.659
 151  7142.779
 152  6330.324
 153  6253.288
 154  7065.291
 155  8855.891
 156  7926.752
 157  7739.527
 158  6680.514
 159  7051.882
 160  6000.443
 161  6111.19
 162  7237.376
 163  7902.333
 164  6212.445
 165  5521.713
 166  6274.464
 167  7010.213
 168  6471.745
 169  5455.361
 170  6067.284
 171  7358.327
 172  6815.804
 173  6320.448
 174  6560.844
 175  7879.161
 176  7208.605
 177  5934.288
 178  6465.508
 179  6647.669
 180  7246.561
 181  6660.1
 182  6195.55
 183  6859.182
 184  6260.235
 185  5960.115
 186  5952.658
 187  6013.465
 188  7616.544
 189  7168.207
 190  6029.252
 191  6534.329
 192  7724.563
 193  6060.676
 194  6286.836
 195  6450.312
 196  7672.044
 197  6414.516
 198  7088.607
 199  7222.345
 200  7559.366
 201  6149.997
 202  5973.771
 203  5505.41
 204  6923.578
 205  6510.187
 206  5780.625
 207  6734.749
 208  6869.208
 209  6813.241
 210  6202.867
 211  6019.897
 212  6698.206
 213  7893.067
 214  6139.931
 215  6360.423
 216  7021.567
 217  7023.529
 218  6830.426
 219  6071.546
 220  5725.054
 221  7006.639
 222  6808.517
 223  6276.042
 224  6351.378
 225  7075.605
 226  6555.921
 227  5982.691
 228  6331.04
 229  6863.619
 230  7057.831
 231  6738.031
 232  6054.359
 233  6664.494
 234  6897.43
 235  5800.67
 236  5995.266
 237  6961.392
 238  6738.498
 239  6195.062
 240  6248.88
 241  7468.942
 242  7386.323
 243  6085.928
 244  6104.195
 245  8152.867
 246  7681.983
 247  5688.828
 248  6205.19
 249  7100.278
 250  7061.119
 251  5711.585
 252  6077.652
 253  7284.523
 254  7312.068
 255  6309.257
