# Input file       =  1196895256.112440-PSRB0329-2ms-sampling-dd.dat
# Candidate        =  PSR_0332+5434
# Telescope        =  AR
# Epoch_topo       =  58096.954573060648
# Epoch_bary       =  N/A
# T_sample         =  0.002
# Data Folded      =  7340032
# Data Avg         =  -2.85750860828484e-10
# Data StdDev      =  6.70711525235607 
# Profile Bins     =  512
# Profile Avg      =  0.636403918596188
# Profile StdDev   =  803.063274493513 
# Reduced chi-sqr  =  0.519
# Prob(Noise)      <  1   (~0.0 sigma)
# P_topo (ms)      =  714.535185599239  +/- 0.000943
# P'_topo (s/s)    =  -0                +/- 4.97e-10
# P''_topo (s/s^2) =  0                 +/- 2.2e-13
# P_bary (ms)      =  N/A
# P'_bary (s/s)    =  N/A
# P''_bary (s/s^2) =  N/A
# P_orb (s)        =  N/A
# asin(i)/c (s)    =  N/A
# eccentricity     =  N/A
# w (rad)          =  N/A
# T_peri           =  N/A
######################################################
   0  -419.5242
   1  -505.5995
   2  -327.3994
   3  131.9092
   4  358.5643
   5  17.88769
   6  361.0782
   7  589.6404
   8  -296.443
   9  69.43546
  10  256.8894
  11  201.9024
  12  455.0464
  13  372.9772
  14  332.042
  15  -100.3968
  16  -100.174
  17  86.31713
  18  92.55956
  19  0.8315986
  20  -247.8313
  21  -258.6664
  22  -635.7329
  23  -323.1471
  24  181.4865
  25  172.1426
  26  -78.51144
  27  -462.1868
  28  -549.4012
  29  -805.8555
  30  -690.0337
  31  -81.2946
  32  25.88618
  33  58.80788
  34  198.0118
  35  -86.91737
  36  82.55227
  37  75.05392
  38  -287.8681
  39  -503.8246
  40  -292.759
  41  -466.9367
  42  -669.6064
  43  -329.0422
  44  -106.6936
  45  -345.3796
  46  -204.5984
  47  -462.8008
  48  -499.7873
  49  -394.1101
  50  -635.433
  51  -399.2077
  52  -465.6898
  53  239.7781
  54  145.6461
  55  663.2706
  56  -260.6748
  57  -388.4389
  58  -81.49165
  59  -227.4512
  60  -92.71991
  61  295.4131
  62  594.5259
  63  63.05941
  64  -28.95011
  65  51.90059
  66  343.4494
  67  242.0329
  68  411.0769
  69  643.0981
  70  877.4106
  71  646.8823
  72  98.20956
  73  160.1056
  74  361.2097
  75  574.1921
  76  377.5172
  77  220.8661
  78  232.0747
  79  -47.61082
  80  112.6554
  81  -172.9073
  82  19.92573
  83  5.579866
  84  189.7397
  85  822.2188
  86  360.1217
  87  206.5374
  88  176.968
  89  -33.09166
  90  94.0053
  91  -113.8046
  92  168.9152
  93  46.88536
  94  120.9958
  95  516.9409
  96  438.6303
  97  93.69174
  98  -465.1371
  99  -263.6625
 100  -64.80769
 101  -45.23216
 102  147.0061
 103  213.979
 104  -68.13638
 105  -1.597153
 106  -71.03867
 107  -254.1208
 108  -581.0886
 109  -344.0386
 110  -29.09449
 111  -222.3158
 112  30.81795
 113  -344.2283
 114  -293.9916
 115  -427.5678
 116  -274.7761
 117  -141.6087
 118  -129.915
 119  -20.61798
 120  -710.9849
 121  -741.2567
 122  42.81786
 123  -138.4951
 124  -29.59707
 125  442.2623
 126  690.7571
 127  189.5399
 128  -0.4524183
 129  0.7782964
 130  -498.0602
 131  -336.7761
 132  273.8641
 133  369.5872
 134  259.7503
 135  -295.339
 136  -169.2171
 137  -247.7514
 138  -340.6469
 139  -26.81074
 140  311.0807
 141  480.762
 142  0.1772956
 143  -472.0016
 144  -694.8456
 145  -583.3188
 146  -478.4771
 147  50.72546
 148  454.0969
 149  152.8768
 150  910.3913
 151  513.7541
 152  369.8532
 153  225.395
 154  9.337491
 155  107.9759
 156  322.0207
 157  303.7927
 158  455.8764
 159  579.5566
 160  324.3174
 161  225.1946
 162  133.1464
 163  -495.5699
 164  -572.6835
 165  -414.685
 166  -286.5364
 167  -490.5784
 168  -125.7458
 169  38.32395
 170  126.1864
 171  -136.2308
 172  -576.8918
 173  -487.7136
 174  -268.6685
 175  -138.8305
 176  -259.1849
 177  -370.3526
 178  -215.4052
 179  -805.8502
 180  -685.9843
 181  -725.7
 182  -851.7488
 183  -253.5701
 184  586.3262
 185  147.5603
 186  -227.8724
 187  -463.4529
 188  -345.7999
 189  39.59173
 190  -19.38164
 191  -212.0337
 192  -6.839774
 193  60.75909
 194  87.9904
 195  -67.2841
 196  -381.8402
 197  -775.8206
 198  -346.5263
 199  -17.77379
 200  471.9014
 201  306.1781
 202  234.6372
 203  247.0417
 204  150.9587
 205  508.3065
 206  116.6878
 207  396.2559
 208  665.6888
 209  699.0943
 210  932.9442
 211  932.1793
 212  601.5043
 213  210.1988
 214  42.34505
 215  59.7682
 216  153.4744
 217  149.1605
 218  182.0005
 219  349.7574
 220  417.7384
 221  138.553
 222  35.92594
 223  401.0021
 224  289.6867
 225  92.37142
 226  -165.034
 227  -20.58178
 228  -159.6502
 229  -50.95435
 230  -202.8004
 231  -76.21611
 232  -82.38995
 233  -183.5048
 234  -34.51089
 235  -186.8879
 236  144.9333
 237  -134.1971
 238  -88.11979
 239  112.2683
 240  -365.3815
 241  -758.3186
 242  -1173.282
 243  -1274.044
 244  -846.2215
 245  -793.574
 246  -570.8301
 247  -639.1672
 248  -1393.866
 249  -721.2712
 250  -420.6556
 251  -708.757
 252  -330.3965
 253  220.7896
 254  396.8511
 255  -147.374
 256  8.128851
 257  274.8197
 258  319.255
 259  174.2622
 260  -23.84459
 261  268.7443
 262  254.2686
 263  288.255
 264  493.2529
 265  356.5879
 266  11.78908
 267  133.3931
 268  -162.209
 269  -525.7159
 270  -68.52268
 271  388.3139
 272  314.7054
 273  63.9572
 274  -266.8815
 275  478.1723
 276  297.7013
 277  224.0677
 278  352.0143
 279  633.5331
 280  585.7841
 281  507.7685
 282  621.5151
 283  678.8369
 284  657.4074
 285  512.0406
 286  796.8624
 287  857.3153
 288  569.9119
 289  192.4317
 290  22.49644
 291  315.825
 292  -75.50634
 293  -74.68217
 294  51.37529
 295  685.6246
 296  486.5645
 297  678.2637
 298  254.3792
 299  -21.06986
 300  -67.53299
 301  -528.4391
 302  150.7534
 303  772.3309
 304  728.4044
 305  497.9277
 306  13.70134
 307  -23.51864
 308  -123.7959
 309  10.98134
 310  237.2238
 311  177.705
 312  568.0835
 313  562.902
 314  -69.11081
 315  -290.3622
 316  -298.8456
 317  -158.1334
 318  337.541
 319  832.3819
 320  582.3403
 321  141.5783
 322  -135.7928
 323  97.62595
 324  -255.7963
 325  -119.5554
 326  -159.4899
 327  9.279764
 328  353.5461
 329  175.2419
 330  -100.8621
 331  -146.3091
 332  -101.9253
 333  -299.489
 334  -454.649
 335  -402.3079
 336  -103.9101
 337  169.0199
 338  406.5136
 339  203.7638
 340  128.8474
 341  271.1316
 342  183.7061
 343  -137.95
 344  198.7194
 345  479.5666
 346  871.4036
 347  832.9816
 348  348.3653
 349  396.3468
 350  430.7051
 351  571.7111
 352  678.4656
 353  966.728
 354  583.8908
 355  650.8673
 356  -13.9792
 357  -129.4218
 358  268.4211
 359  -232.5451
 360  -294.1789
 361  -402.068
 362  -186.8589
 363  240.7268
 364  363.6123
 365  157.0236
 366  60.93714
 367  -125.0247
 368  -335.2506
 369  -244.9956
 370  -37.80508
 371  262.0322
 372  436.5251
 373  437.144
 374  55.20432
 375  -296.2217
 376  -180.7968
 377  -161.4003
 378  35.67469
 379  434.641
 380  -124.893
 381  -608.1641
 382  -239.3543
 383  -78.06263
 384  184.5544
 385  -149.2687
 386  48.21181
 387  -43.41885
 388  -390.7691
 389  -673.882
 390  -701.2396
 391  -93.2729
 392  -74.3521
 393  -68.84024
 394  -634.2245
 395  -302.9839
 396  -739.5359
 397  -531.4241
 398  -583.836
 399  -376.2175
 400  -107.2986
 401  -617.0453
 402  -583.827
 403  -853.8232
 404  -762.6931
 405  -818.7248
 406  -816.5778
 407  -1094.516
 408  -1069.266
 409  -1250.019
 410  -1340.845
 411  -781.4944
 412  -125.9326
 413  240.7208
 414  -177.4712
 415  -560.7508
 416  -355.6682
 417  -186.7585
 418  160.914
 419  -213.1249
 420  300.7916
 421  -80.30871
 422  -423.023
 423  -693.1761
 424  -868.8858
 425  -911.098
 426  -1103.575
 427  -298.8643
 428  147.9049
 429  -159.3481
 430  -650.8211
 431  -868.1741
 432  -575.5903
 433  -544.8742
 434  -466.5203
 435  -204.6865
 436  -143.3147
 437  -16.49782
 438  134.9248
 439  -191.321
 440  -337.4414
 441  -45.73755
 442  -41.02402
 443  172.684
 444  -4.223475
 445  258.3798
 446  284.6995
 447  61.25653
 448  452.0294
 449  618.2764
 450  501.2738
 451  476.2499
 452  601.3055
 453  420.6676
 454  573.5988
 455  816.5369
 456  1203.086
 457  702.5583
 458  89.44825
 459  64.74195
 460  -31.66588
 461  61.03567
 462  27.59109
 463  99.72063
 464  -39.96659
 465  -356.4052
 466  143.2816
 467  591.7006
 468  249.2026
 469  675.9584
 470  276.6113
 471  -119.2621
 472  164.1566
 473  112.78
 474  356.5948
 475  -141.8773
 476  -369.0914
 477  55.2328
 478  321.0163
 479  532.6
 480  414.7978
 481  376.8582
 482  838.5025
 483  897.2482
 484  600.1836
 485  207.0778
 486  127.3046
 487  364.7434
 488  -56.61695
 489  4.545616
 490  -87.53056
 491  -267.3666
 492  -328.6085
 493  -672.1776
 494  257.2921
 495  717.2162
 496  515.2401
 497  485.883
 498  324.3441
 499  106.2098
 500  -269.2672
 501  -296.4677
 502  141.7749
 503  114.8104
 504  -60.17917
 505  -377.2867
 506  75.56375
 507  -198.0796
 508  -143.7443
 509  367.8383
 510  110.8672
 511  88.37807
