# Input file       =  1196722911.118757_cleaned.dat
# Candidate        =  PSR_0332+5434
# Telescope        =  AR
# Epoch_topo       =  58094.959839337469
# Epoch_bary       =  N/A
# T_sample         =  0.002
# Data Folded      =  7340032
# Data Avg         =  0.0311442072781505
# Data StdDev      =  1.00001653869228 
# Profile Bins     =  512
# Profile Avg      =  446.562117756548 
# Profile StdDev   =  119.73501660461  
# Reduced chi-sqr  =  0.940
# Prob(Noise)      <  0.831   (~0.0 sigma)
# P_topo (ms)      =  714.533152097582  +/- 0.000114
# P'_topo (s/s)    =  -0                +/- 6.02e-11
# P''_topo (s/s^2) =  0                 +/- 2.66e-14
# P_bary (ms)      =  N/A
# P'_bary (s/s)    =  N/A
# P''_bary (s/s^2) =  N/A
# P_orb (s)        =  N/A
# asin(i)/c (s)    =  N/A
# eccentricity     =  N/A
# w (rad)          =  N/A
# T_peri           =  N/A
######################################################
   0  809.7921
   1  798.67
   2  657.8893
   3  658.0978
   4  681.5622
   5  524.2342
   6  443.076
   7  467.6879
   8  548.5519
   9  594.9755
  10  421.254
  11  455.8161
  12  529.2856
  13  547.6746
  14  543.5059
  15  480.6436
  16  408.6359
  17  398.839
  18  483.7328
  19  510.8917
  20  390.1129
  21  355.2512
  22  506.6361
  23  328.8596
  24  230.8806
  25  271.8673
  26  427.082
  27  488.6089
  28  567.32
  29  595.2286
  30  498.2926
  31  394.1813
  32  320.8013
  33  477.9425
  34  468.6013
  35  361.8055
  36  325.9456
  37  420.7449
  38  480.6167
  39  430.7027
  40  462.2231
  41  460.1895
  42  456.369
  43  411.8102
  44  407.279
  45  364.1125
  46  467.4098
  47  427.0367
  48  404.0315
  49  480.1236
  50  396.8737
  51  379.6138
  52  410.0278
  53  504.624
  54  459.7851
  55  434.0247
  56  458.0696
  57  428.4857
  58  493.7988
  59  481.5693
  60  404.761
  61  505.6218
  62  564.2012
  63  562.3892
  64  419.9141
  65  412.3689
  66  478.8648
  67  479.5572
  68  545.9598
  69  580.0438
  70  558.5772
  71  473.8857
  72  352.4442
  73  368.6699
  74  439.1434
  75  448.463
  76  504.2319
  77  522.9901
  78  446.0974
  79  385.8284
  80  479.8956
  81  391.4094
  82  354.1818
  83  322.6617
  84  394.243
  85  424.361
  86  385.6925
  87  384.9337
  88  472.4252
  89  490.6286
  90  430.6253
  91  356.7363
  92  383.4517
  93  487.8221
  94  432.8109
  95  438.3607
  96  322.0893
  97  321.8367
  98  461.8704
  99  562.5621
 100  432.6947
 101  340.9299
 102  362.0599
 103  319.7155
 104  473.5978
 105  468.2375
 106  402.7073
 107  387.0307
 108  334.6257
 109  360.0038
 110  338.2639
 111  471.2198
 112  549.5991
 113  533.7949
 114  529.2674
 115  492.9412
 116  395.5159
 117  527.5891
 118  569.8302
 119  509.5221
 120  429.455
 121  360.2921
 122  431.7973
 123  351.4937
 124  413.8724
 125  349.9993
 126  397.3998
 127  369.578
 128  377.1148
 129  346.8022
 130  300.4521
 131  428.6263
 132  487.299
 133  409.9341
 134  425.9427
 135  448.9485
 136  452.4958
 137  503.9888
 138  389.1966
 139  337.1091
 140  377.9081
 141  423.0247
 142  432.5412
 143  428.1675
 144  491.6392
 145  402.9153
 146  340.5607
 147  444.1244
 148  398.1836
 149  462.7321
 150  453.9122
 151  513.3551
 152  514.4058
 153  381.9692
 154  408.6815
 155  390.4924
 156  514.1332
 157  547.3472
 158  556.7424
 159  423.911
 160  406.6064
 161  425.0232
 162  540.704
 163  565.7695
 164  440.271
 165  434.5732
 166  511.2368
 167  445.2668
 168  426.4035
 169  397.5498
 170  415.7879
 171  534.9597
 172  523.5511
 173  526.162
 174  508.1026
 175  621.4465
 176  528.5937
 177  434.233
 178  551.4926
 179  533.3968
 180  478.9629
 181  458.0596
 182  324.2686
 183  311.2902
 184  335.3066
 185  498.4514
 186  606.3579
 187  564.6279
 188  428.8128
 189  621.4073
 190  502.7831
 191  508.4785
 192  424.3779
 193  346.5561
 194  495.5997
 195  534.3407
 196  421.4873
 197  400.436
 198  526.1231
 199  419.151
 200  390.2717
 201  509.3996
 202  493.9072
 203  446.5377
 204  449.856
 205  451.5609
 206  408.7594
 207  532.002
 208  540.49
 209  409.7847
 210  358.365
 211  495.0348
 212  460.3654
 213  440.7835
 214  459.5191
 215  348.6687
 216  361.6841
 217  313.8847
 218  409.062
 219  445.5633
 220  490.1124
 221  454.3917
 222  517.8302
 223  522.0297
 224  564.0717
 225  519.2216
 226  396.4139
 227  376.2704
 228  333.1742
 229  331.7299
 230  496.8685
 231  551.598
 232  456.1367
 233  572.7173
 234  468.5028
 235  421.8374
 236  344.7971
 237  328.7427
 238  276.1858
 239  295.6601
 240  356.4347
 241  431.0192
 242  432.3998
 243  523.073
 244  406.3643
 245  454.2505
 246  424.4638
 247  328.1719
 248  512.0176
 249  438.4507
 250  396.2018
 251  402.9026
 252  498.3132
 253  528.9077
 254  407.742
 255  370.8144
 256  485.4803
 257  524.1047
 258  527.0683
 259  402.6056
 260  417.2978
 261  388.6957
 262  405.8849
 263  467.0593
 264  570.7836
 265  447.6625
 266  257.7464
 267  294.0212
 268  379.2603
 269  439.2872
 270  423.0067
 271  423.1555
 272  398.6023
 273  518.2034
 274  500.3552
 275  441.4094
 276  433.4361
 277  384.7769
 278  297.9752
 279  188.9087
 280  383.5648
 281  620.7609
 282  531.8976
 283  479.9154
 284  363.3587
 285  383.8396
 286  437.9398
 287  516.1118
 288  510.7288
 289  409.191
 290  432.8435
 291  397.5285
 292  465.7156
 293  477.7785
 294  515.1317
 295  556.4142
 296  593.0383
 297  478.4544
 298  511.1469
 299  475.4559
 300  476.0016
 301  316.0368
 302  377.4149
 303  410.3625
 304  427.2117
 305  460.4861
 306  309.0011
 307  415.0972
 308  433.802
 309  434.8746
 310  472.3203
 311  535.7527
 312  465.8162
 313  396.201
 314  418.7899
 315  407.5343
 316  415.4077
 317  453.5872
 318  465.7296
 319  365.6904
 320  449.9836
 321  342.2408
 322  400.8508
 323  461.5863
 324  553.1636
 325  597.1713
 326  474.5164
 327  458.0339
 328  381.8029
 329  508.3067
 330  516.455
 331  438.0455
 332  390.6213
 333  496.1101
 334  505.4262
 335  447.5363
 336  328.8877
 337  336.1086
 338  397.6156
 339  530.6767
 340  421.0714
 341  464.0161
 342  463.6457
 343  471.0008
 344  527.694
 345  569.6913
 346  521.5625
 347  424.696
 348  410.0255
 349  453.7791
 350  495.8946
 351  536.7869
 352  470.3841
 353  373.8541
 354  390.5528
 355  336.7887
 356  382.0581
 357  393.5728
 358  440.7697
 359  465.7395
 360  410.7292
 361  412.8242
 362  538.3238
 363  452.4818
 364  431.6273
 365  496.3892
 366  513.5775
 367  589.8969
 368  460.5604
 369  445.5458
 370  498.6311
 371  504.9893
 372  476.3776
 373  461.5331
 374  457.2792
 375  335.8205
 376  367.5053
 377  472.7231
 378  450.9427
 379  323.7785
 380  521.4752
 381  522.6257
 382  509.2665
 383  395.5133
 384  302.8502
 385  412.3672
 386  431.1244
 387  500.7845
 388  411.037
 389  489.3793
 390  503.6429
 391  471.6608
 392  458.496
 393  378.2459
 394  328.0559
 395  370.6806
 396  454.5093
 397  455.7127
 398  368.378
 399  383.7327
 400  410.169
 401  340.8163
 402  396.9758
 403  427.6765
 404  559.143
 405  495.8592
 406  511.1165
 407  513.0569
 408  375.3641
 409  344.2531
 410  429.3383
 411  435.5015
 412  374.6328
 413  374.1924
 414  363.4286
 415  375.6132
 416  412.4853
 417  494.4335
 418  483.5533
 419  591.0162
 420  556.0972
 421  409.3323
 422  319.4455
 423  493.14
 424  531.2817
 425  522.5172
 426  412.0933
 427  350.8676
 428  361.0844
 429  474.4781
 430  501.4426
 431  504.3645
 432  351.145
 433  434.699
 434  455.3723
 435  411.7122
 436  383.6367
 437  359.1496
 438  364.8875
 439  496.0986
 440  331.6694
 441  411.4287
 442  504.5435
 443  356.3301
 444  356.5539
 445  444.4535
 446  505.8373
 447  584.1545
 448  509.3793
 449  359.7856
 450  478.7047
 451  556.7238
 452  544.9585
 453  507.1257
 454  393.0212
 455  351.0783
 456  354.2099
 457  454.2816
 458  504.8827
 459  497.3215
 460  409.6815
 461  312.6704
 462  294.4171
 463  461.1409
 464  407.6891
 465  309.3611
 466  322.4164
 467  271.3465
 468  429.1917
 469  380.466
 470  421.9049
 471  453.7755
 472  436.9244
 473  304.2477
 474  351.6813
 475  420.2738
 476  482.2223
 477  379.3623
 478  406.5879
 479  308.4784
 480  411.5373
 481  541.1182
 482  371.3041
 483  475.1373
 484  537.8038
 485  460.2046
 486  438.0786
 487  410.7656
 488  491.8728
 489  428.2032
 490  353.4134
 491  348.4854
 492  447.809
 493  446.9956
 494  420.2033
 495  383.6925
 496  479.8093
 497  482.5261
 498  466.9272
 499  549.6481
 500  581.246
 501  434.6955
 502  501.6263
 503  430.3981
 504  371.6885
 505  372.3957
 506  473.4846
 507  652.3085
 508  734.2675
 509  703.1506
 510  828.8687
 511  926.4822
