# Input file       =  1196865738.117129_cleaned.dat
# Candidate        =  PSR_0332+5434
# Telescope        =  AR
# Epoch_topo       =  58096.612929596398
# Epoch_bary       =  N/A
# T_sample         =  0.002
# Data Folded      =  7143424
# Data Avg         =  0.236724334436793
# Data StdDev      =  4.6970901470842  
# Profile Bins     =  512
# Profile Avg      =  3302.87558348125 
# Profile StdDev   =  554.813639357311 
# Reduced chi-sqr  =  0.789
# Prob(Noise)      <  1   (~0.0 sigma)
# P_topo (ms)      =  714.534493004472  +/- 3.93e-05
# P'_topo (s/s)    =  -0                +/- 2.13e-11
# P''_topo (s/s^2) =  0                 +/- 9.66e-15
# P_bary (ms)      =  N/A
# P'_bary (s/s)    =  N/A
# P''_bary (s/s^2) =  N/A
# P_orb (s)        =  N/A
# asin(i)/c (s)    =  N/A
# eccentricity     =  N/A
# w (rad)          =  N/A
# T_peri           =  N/A
######################################################
   0  3241.448
   1  4011.886
   2  3437.795
   3  3593.967
   4  3597.804
   5  3581.298
   6  3888.044
   7  3301.612
   8  3292.349
   9  3514.243
  10  3860.207
  11  3587.015
  12  2811.881
  13  2905.546
  14  2621.301
  15  3030.478
  16  3196.737
  17  3779.421
  18  3456.358
  19  3300.362
  20  2978.511
  21  3111.622
  22  3692.792
  23  3453.838
  24  3677.293
  25  3385.499
  26  3284.535
  27  3265.887
  28  3175.343
  29  2531.833
  30  3120.486
  31  2843.514
  32  2451.891
  33  3300.42
  34  3528.312
  35  3043.026
  36  2842.499
  37  2898.064
  38  3157.614
  39  3087.823
  40  3209.042
  41  3433.851
  42  3746.244
  43  3158.6
  44  2820.772
  45  2306.293
  46  2629.666
  47  2923.787
  48  2995.836
  49  3450.342
  50  3910.208
  51  3652.669
  52  3131.12
  53  2592.811
  54  2534.679
  55  2928.754
  56  3396.144
  57  3552.367
  58  3955.805
  59  3779.468
  60  3643.038
  61  2880.188
  62  2961.553
  63  3221.006
  64  3107.812
  65  2938.076
  66  3550.998
  67  3912.4
  68  3392.281
  69  3051.679
  70  3458.355
  71  3584.803
  72  3176.282
  73  3128.598
  74  3289.633
  75  3291.514
  76  3229.597
  77  3234.127
  78  3580.438
  79  3539.377
  80  3455.474
  81  3250.737
  82  3205.34
  83  3325.177
  84  3626.77
  85  3566.652
  86  3562.406
  87  3705.531
  88  3173.8
  89  3106.886
  90  3158.125
  91  3582.308
  92  3590.173
  93  3481.341
  94  3273.633
  95  3023.107
  96  3172.887
  97  3132.141
  98  3363.851
  99  3873.238
 100  4480.438
 101  4335.564
 102  3993.008
 103  3917.115
 104  3999.54
 105  3550.223
 106  3300.155
 107  3461.156
 108  3533.921
 109  3468.952
 110  3039.878
 111  2867.574
 112  3036.753
 113  3154.857
 114  3687.361
 115  3673.734
 116  4081.592
 117  3811.442
 118  3305.86
 119  2725.05
 120  2747.938
 121  2801.053
 122  3047.708
 123  3314.751
 124  3434.5
 125  3563.377
 126  3329.912
 127  3023.896
 128  2681.416
 129  2813.273
 130  3020.954
 131  3063.907
 132  3558.931
 133  3923.518
 134  3576.736
 135  3076.175
 136  3015.085
 137  3381.881
 138  3195.011
 139  3454.774
 140  3871.161
 141  4029.147
 142  3621.656
 143  3468.599
 144  2893.538
 145  3050.967
 146  3247.789
 147  3182.544
 148  3268.991
 149  3453.352
 150  3577.076
 151  3645.095
 152  3380.815
 153  3217.651
 154  3049.774
 155  3212.803
 156  3557.354
 157  3208.16
 158  2974.984
 159  3385.167
 160  2967.638
 161  2867.568
 162  2880.97
 163  3085.309
 164  2832.721
 165  3327.087
 166  3678.66
 167  3975.945
 168  3783.551
 169  3239.369
 170  3021.261
 171  3058.889
 172  3232.125
 173  3427.036
 174  3956.14
 175  3720.667
 176  3137.448
 177  2776.748
 178  3217.465
 179  3049.651
 180  2940.297
 181  3718.469
 182  3763.085
 183  3870.209
 184  3213.262
 185  3121.195
 186  3499.927
 187  3592.389
 188  3578.175
 189  3738.284
 190  4016.723
 191  3492.767
 192  3187.657
 193  2879.87
 194  3190.644
 195  2711.983
 196  2584.625
 197  2996.956
 198  3425.996
 199  3550.237
 200  3255.076
 201  3222.448
 202  2975.718
 203  2712.254
 204  3261.297
 205  3623.072
 206  3598.433
 207  3243.599
 208  3528.156
 209  3262.681
 210  3235.799
 211  2917.961
 212  2920.684
 213  3101.673
 214  3066.485
 215  3860.731
 216  4153.464
 217  3587.015
 218  3088.644
 219  2923.829
 220  3119.861
 221  3322.97
 222  3464.083
 223  3616.041
 224  3508.109
 225  3530.674
 226  3612.505
 227  3148.636
 228  3154.375
 229  2813.595
 230  2728.756
 231  3111.083
 232  3436.697
 233  3655.945
 234  3339.375
 235  3379.842
 236  3103.17
 237  3118.297
 238  3177.923
 239  3172.207
 240  3398.589
 241  3786.573
 242  3627.562
 243  2771.929
 244  3058.757
 245  2965.969
 246  3132.439
 247  3301.662
 248  3462.131
 249  3448.72
 250  3467.471
 251  3561.939
 252  3474.495
 253  3149.298
 254  2987.724
 255  3040.34
 256  3178.361
 257  3607.878
 258  3700.284
 259  3069.649
 260  2795.327
 261  3063.193
 262  3163.387
 263  2865.098
 264  3417.642
 265  3671.04
 266  3464.124
 267  3125.821
 268  3061.968
 269  3131.91
 270  2917.083
 271  3350.369
 272  3461.215
 273  4211.616
 274  3912.169
 275  3211.975
 276  3037.993
 277  3007.997
 278  2997.878
 279  3214.454
 280  4031.834
 281  4298.629
 282  4024.512
 283  3445.222
 284  2825.672
 285  2855.831
 286  3048.833
 287  3196.239
 288  3429.648
 289  3732.542
 290  3643.223
 291  3257.74
 292  2726.09
 293  2982.027
 294  3016.222
 295  3156.868
 296  3455.887
 297  3985.275
 298  3807.893
 299  3363.372
 300  3350.305
 301  2864.016
 302  2835.366
 303  2746.018
 304  2720.922
 305  3207.519
 306  3401.302
 307  3732.694
 308  3386.384
 309  3310.181
 310  2819.131
 311  2526.737
 312  2759.634
 313  3072.402
 314  3924.513
 315  3765.053
 316  3543.242
 317  3289.919
 318  3423.187
 319  3021.26
 320  3101.984
 321  3306.368
 322  3478.968
 323  3838.204
 324  3739.959
 325  3626.195
 326  3116.493
 327  3397.78
 328  3038.751
 329  2800.863
 330  3085.025
 331  3803.646
 332  3675.68
 333  3333.988
 334  3326.309
 335  2729.353
 336  3032.489
 337  3158.279
 338  3242.472
 339  3625.909
 340  4139.244
 341  4044.502
 342  3299.765
 343  3094.201
 344  2995.597
 345  3065.342
 346  2980.718
 347  3515.923
 348  3777.665
 349  3310.116
 350  2985.233
 351  3154.654
 352  3375.938
 353  3239.906
 354  3542.284
 355  3799.613
 356  3613.676
 357  3660.171
 358  3034.393
 359  3361.423
 360  3516.185
 361  3169.055
 362  2978.758
 363  3151.08
 364  3368.819
 365  3108.839
 366  2699.972
 367  3089.924
 368  2948.813
 369  2902.85
 370  3059.41
 371  3472.624
 372  3797.241
 373  3644.42
 374  3283.848
 375  2787.705
 376  2770.146
 377  3005.048
 378  2656.878
 379  2715.819
 380  3199.025
 381  3710.674
 382  3175.86
 383  2971.887
 384  2966.498
 385  3019.991
 386  3030.685
 387  2930.536
 388  3479.082
 389  3520.09
 390  3635.804
 391  3183.364
 392  2922.15
 393  2808.817
 394  2853.557
 395  2686.152
 396  2935.388
 397  3575.748
 398  3904.05
 399  3226.54
 400  2851.56
 401  3194.538
 402  3278.605
 403  3447.631
 404  3690.821
 405  3847.474
 406  3816.354
 407  3264.028
 408  2762.215
 409  2770.943
 410  2632.284
 411  2578.645
 412  2896.594
 413  3331.111
 414  3856.66
 415  3371.762
 416  3359.35
 417  3360.171
 418  3143.786
 419  3085.446
 420  3033.209
 421  3714.626
 422  3923.678
 423  3813.067
 424  3630.551
 425  3384.423
 426  3211.981
 427  3156.01
 428  3097.988
 429  2710.752
 430  3104.661
 431  3396.449
 432  3390.902
 433  3256.072
 434  3797.032
 435  3714.922
 436  3561.396
 437  3479.898
 438  3891.456
 439  3571.161
 440  3173.814
 441  3341.135
 442  2923.357
 443  2985.162
 444  2977.07
 445  3090.394
 446  3591.697
 447  3640.482
 448  3176.584
 449  2910.562
 450  2884.837
 451  3268.218
 452  3167.637
 453  3715.451
 454  3772.576
 455  3829.009
 456  3330.038
 457  2912.511
 458  2883.423
 459  3276.923
 460  3311.794
 461  3017.752
 462  3490.953
 463  3442.205
 464  3491.653
 465  3026.031
 466  3250.88
 467  3313.593
 468  3041.785
 469  3559.196
 470  3635.136
 471  3960.065
 472  3914.697
 473  3407.031
 474  2746.875
 475  3197.12
 476  3022.071
 477  2922.392
 478  3406.725
 479  3470.523
 480  3583.015
 481  3377.516
 482  3388.425
 483  3196.578
 484  3000.882
 485  3162.48
 486  3339.626
 487  3861.615
 488  4092.632
 489  3889.759
 490  3082.601
 491  2789.92
 492  2942.515
 493  3138.524
 494  2913.332
 495  3223.657
 496  3577.101
 497  3541.977
 498  3558.628
 499  3225.005
 500  2950.791
 501  3187.53
 502  3462.255
 503  3821.563
 504  3633.49
 505  3974.054
 506  3793.553
 507  3291.155
 508  3209.881
 509  3418.789
 510  3063.701
 511  3092.311
