# Input file       =  1196865738.117129-PSRB0329-2ms-sampling-dd.dat
# Candidate        =  PSR_0332+5434
# Telescope        =  AR
# Epoch_topo       =  58096.612929596398
# Epoch_bary       =  N/A
# T_sample         =  0.002
# Data Folded      =  7208960
# Data Avg         =  -3.89778427684112e-10
# Data StdDev      =  6.30895692593652 
# Profile Bins     =  512
# Profile Avg      =  0.00865991627820958
# Profile StdDev   =  748.615628948514 
# Reduced chi-sqr  =  0.574
# Prob(Noise)      <  1   (~0.0 sigma)
# P_topo (ms)      =  714.53449285668   +/- 5.4e-05
# P'_topo (s/s)    =  -0                +/- 2.9e-11
# P''_topo (s/s^2) =  0                 +/- 1.3e-14
# P_bary (ms)      =  N/A
# P'_bary (s/s)    =  N/A
# P''_bary (s/s^2) =  N/A
# P_orb (s)        =  N/A
# asin(i)/c (s)    =  N/A
# eccentricity     =  N/A
# w (rad)          =  N/A
# T_peri           =  N/A
######################################################
   0  186.6951
   1  929.4664
   2  433.2419
   3  429.8636
   4  156.1649
   5  70.79951
   6  198.3105
   7  -258.7556
   8  -219.0753
   9  -13.48376
  10  225.2501
  11  118.6879
  12  -748.7106
  13  -692.6162
  14  -803.7863
  15  -533.7411
  16  -262.965
  17  196.1882
  18  -184.1768
  19  -308.0901
  20  -697.1212
  21  -603.7167
  22  13.93107
  23  -212.7851
  24  31.60049
  25  -289.9517
  26  -146.7162
  27  -155.1791
  28  27.69047
  29  -621.545
  30  -142.4584
  31  -459.6812
  32  -1104.252
  33  -403.3443
  34  -144.837
  35  -460.4523
  36  -532.5084
  37  -430.7711
  38  -304.9057
  39  -393.9125
  40  -421.9218
  41  -214.9392
  42  390.6157
  43  -265.5866
  44  -393.148
  45  -570.3251
  46  -294.3778
  47  -70.79195
  48  -196.6502
  49  256.1571
  50  910.7921
  51  840.7999
  52  349.8131
  53  7.753385
  54  -358.8587
  55  -14.17501
  56  314.3919
  57  543.2158
  58  992.3481
  59  736.0106
  60  734.7212
  61  -21.10556
  62  -69.38042
  63  390.2489
  64  254.246
  65  -65.19727
  66  522.0724
  67  913.2381
  68  267.8701
  69  10.21798
  70  303.1898
  71  467.1086
  72  -20.55492
  73  -97.02947
  74  -44.43635
  75  -73.18142
  76  -67.74693
  77  62.0157
  78  466.2409
  79  646.5921
  80  377.8663
  81  131.0336
  82  -114.6262
  83  -59.69874
  84  108.0392
  85  229.1142
  86  432.8752
  87  633.5353
  88  -35.28511
  89  -48.43064
  90  83.93671
  91  180.6927
  92  490.1583
  93  478.8765
  94  227.9876
  95  47.97594
  96  331.487
  97  217.9767
  98  158.6576
  99  706.9996
 100  1261.1
 101  1021.131
 102  812.0571
 103  674.2284
 104  444.8051
 105  -105.883
 106  -575.991
 107  -580.3387
 108  -197.1604
 109  -127.7078
 110  -280.0714
 111  -400.6631
 112  -498.292
 113  -630.8592
 114  -186.387
 115  -184.3441
 116  531.1082
 117  629.7186
 118  363.5238
 119  -62.70731
 120  -348.4925
 121  -495.6159
 122  -569.1819
 123  -288.0842
 124  -15.96444
 125  478.035
 126  399.4704
 127  -40.18559
 128  -435.8533
 129  -369.0909
 130  -170.6304
 131  -112.0022
 132  460.9386
 133  720.221
 134  519.7985
 135  132.8423
 136  268.249
 137  304.9947
 138  96.29603
 139  155.8311
 140  327.8204
 141  512.2737
 142  297.3766
 143  434.9815
 144  -11.22798
 145  259.5262
 146  315.6276
 147  383.0178
 148  285.3709
 149  548.3464
 150  701.9442
 151  914.6041
 152  515.5408
 153  415.8826
 154  284.3166
 155  324.9203
 156  212.3439
 157  -214.1941
 158  -447.6289
 159  173.9108
 160  -156.7449
 161  -230.3229
 162  -112.0727
 163  266.3803
 164  -184.7839
 165  159.7507
 166  495.5154
 167  594.3907
 168  459.2849
 169  -98.36449
 170  -195.4389
 171  -276.437
 172  -27.26242
 173  395.0984
 174  791.8007
 175  528.1235
 176  -64.07256
 177  -258.3995
 178  -65.23426
 179  -339.6874
 180  -476.138
 181  244.4732
 182  76.05497
 183  470.7412
 184  236.2201
 185  227.6378
 186  453.824
 187  490.3035
 188  336.381
 189  396.8809
 190  816.1991
 191  530.4377
 192  519.046
 193  194.8701
 194  495.2463
 195  -12.52797
 196  -476.3348
 197  -0.7434825
 198  363.3754
 199  425.7903
 200  443.647
 201  320.1274
 202  2.899388
 203  -441.9745
 204  -291.2259
 205  -111.0111
 206  167.022
 207  -105.9348
 208  330.7344
 209  171.2231
 210  122.1672
 211  -406.2491
 212  -393.9348
 213  -359.5334
 214  -278.2252
 215  741.409
 216  1089.624
 217  584.3544
 218  11.78283
 219  -264.2675
 220  8.564837
 221  406.7435
 222  450.6739
 223  289.4751
 224  82.18542
 225  -128.6547
 226  -12.22488
 227  -403.8725
 228  -211.993
 229  -531.3443
 230  -655.3696
 231  -374.2221
 232  -17.62642
 233  287.8364
 234  136.2127
 235  104.9385
 236  -95.0899
 237  -7.081528
 238  -86.19572
 239  -187.1623
 240  35.09704
 241  504.5722
 242  537.206
 243  -308.2914
 244  -35.88721
 245  -335.077
 246  -235.7639
 247  -149.7169
 248  222.5649
 249  376.1809
 250  254.3374
 251  423.0806
 252  133.3267
 253  -350.299
 254  -549.7
 255  -336.4005
 256  -209.5367
 257  55.68665
 258  93.51712
 259  -278.6515
 260  -694.2278
 261  -596.4832
 262  -235.5762
 263  -581.2234
 264  -35.80202
 265  240.8538
 266  27.21667
 267  -166.7099
 268  -246.8041
 269  -109.9099
 270  -345.1229
 271  -26.58956
 272  106.1568
 273  879.8228
 274  574.7179
 275  2.033706
 276  -245.7587
 277  -394.009
 278  -389.9558
 279  -253.3688
 280  441.2122
 281  703.3427
 282  705.9484
 283  210.6654
 284  -426.252
 285  -661.0189
 286  -325.3476
 287  -265.6618
 288  7.912092
 289  284.3303
 290  488.8657
 291  186.7835
 292  -430.4361
 293  -303.4309
 294  -670.3231
 295  -309.8241
 296  67.59792
 297  809.7585
 298  504.1219
 299  -41.956
 300  -245.4625
 301  -533.4883
 302  -666.0554
 303  -501.4198
 304  -433.8521
 305  -255.2124
 306  -210.3593
 307  -82.06982
 308  -356.75
 309  -182.1218
 310  -556.5345
 311  -598.4449
 312  -507.4345
 313  -373.4491
 314  398.3377
 315  493.133
 316  247.6775
 317  25.50918
 318  143.0951
 319  -501.7689
 320  -226.7516
 321  -103.24
 322  253.8184
 323  709.5186
 324  531.4902
 325  139.8111
 326  -466.5929
 327  -342.2551
 328  -588.437
 329  -801.304
 330  -489.0067
 331  429.3548
 332  218.7076
 333  101.1438
 334  -38.53906
 335  -585.0771
 336  -370.3629
 337  -152.7864
 338  42.4861
 339  412.9357
 340  866.7445
 341  774.913
 342  160.5212
 343  26.69564
 344  -23.65593
 345  -1.645445
 346  -215.3255
 347  239.5797
 348  611.0607
 349  465.2317
 350  145.5042
 351  70.78452
 352  -9.524049
 353  -222.0873
 354  140.8314
 355  638.1386
 356  673.5052
 357  732.4227
 358  195.7501
 359  179.2846
 360  -144.7731
 361  -645.6363
 362  -466.8794
 363  -182.2592
 364  20.38652
 365  -119.4386
 366  -376.26
 367  -225.2442
 368  -574.156
 369  -606.8431
 370  -479.1215
 371  -124.6967
 372  179.5966
 373  293.5981
 374  -93.17291
 375  -473.8966
 376  -589.3314
 377  -347.8725
 378  -650.2861
 379  -506.9497
 380  -79.97775
 381  115.2405
 382  -483.1968
 383  -568.9034
 384  -271.1864
 385  -238.9896
 386  -200.7077
 387  -293.2559
 388  86.14487
 389  46.12671
 390  100.9478
 391  -144.8854
 392  -155.4516
 393  -455.5737
 394  -550.7919
 395  -772.3824
 396  -671.6692
 397  -340.7655
 398  107.7788
 399  -459.6347
 400  -850.7516
 401  -524.9464
 402  -522.929
 403  -308.5735
 404  171.8629
 405  501.2238
 406  587.9824
 407  102.2608
 408  -435.1669
 409  -457.8615
 410  -780.8849
 411  -817.3196
 412  -576.9865
 413  5.501751
 414  606.8866
 415  165.3781
 416  57.12192
 417  -61.3115
 418  -262.7214
 419  -90.62176
 420  107.763
 421  674.1856
 422  785.4528
 423  592.2904
 424  584.4949
 425  357.0201
 426  222.2969
 427  26.16142
 428  -141.5056
 429  -648.943
 430  -123.8176
 431  259.22
 432  470.606
 433  337.6694
 434  639.4875
 435  395.9391
 436  236.8952
 437  129.6314
 438  493.4764
 439  368.088
 440  149.6019
 441  135.5807
 442  -413.5391
 443  -687.7257
 444  -761.0533
 445  -630.8291
 446  76.07526
 447  119.5934
 448  -384.5267
 449  -566.317
 450  -617.3932
 451  -410.6365
 452  -494.663
 453  32.01068
 454  7.990151
 455  147.6335
 456  -185.0077
 457  -532.7039
 458  -900.8116
 459  -469.653
 460  -287.1723
 461  -631.8068
 462  -201.9321
 463  -439.5566
 464  -370.0872
 465  -644.5085
 466  -202.4234
 467  -358.916
 468  -568.7042
 469  -144.405
 470  -281.0914
 471  192.0625
 472  343.5063
 473  -20.52565
 474  -656.1241
 475  -129.6687
 476  -278.5479
 477  -456.3803
 478  -111.2866
 479  312.2158
 480  404.1442
 481  49.37461
 482  136.1227
 483  -1.45291
 484  -193.2993
 485  -48.75679
 486  34.81038
 487  435.1819
 488  495.1728
 489  360.6966
 490  -545.7311
 491  -691.9733
 492  -417.5035
 493  -348.4149
 494  -576.5818
 495  -493.3919
 496  -104.1923
 497  -86.2774
 498  321.6169
 499  164.1965
 500  129.094
 501  207.6357
 502  250.7514
 503  491.5715
 504  421.583
 505  966.7623
 506  751.0654
 507  229.9975
 508  201.4374
 509  361.4738
 510  -149.2251
 511  78.2594
