# Input file       =  1196349189.112123_cleaned.dat
# Candidate        =  PSR_0332+5434
# Telescope        =  AR
# Epoch_topo       =  58090.634353149573
# Epoch_bary       =  N/A
# T_sample         =  0.002
# Data Folded      =  7208960
# Data Avg         =  0.169549195689615
# Data StdDev      =  6.23368567257702 
# Profile Bins     =  512
# Profile Avg      =  2387.27232490217 
# Profile StdDev   =  739.684004063929 
# Reduced chi-sqr  =  0.602
# Prob(Noise)      <  1   (~0.0 sigma)
# P_topo (ms)      =  714.528375518866  +/- 8.16e-05
# P'_topo (s/s)    =  -0                +/- 4.39e-11
# P''_topo (s/s^2) =  0                 +/- 1.97e-14
# P_bary (ms)      =  N/A
# P'_bary (s/s)    =  N/A
# P''_bary (s/s^2) =  N/A
# P_orb (s)        =  N/A
# asin(i)/c (s)    =  N/A
# eccentricity     =  N/A
# w (rad)          =  N/A
# T_peri           =  N/A
######################################################
   0  3028.458
   1  2461.167
   2  2051.91
   3  2462.328
   4  2860.272
   5  3116.065
   6  3084.253
   7  2936.429
   8  3066.75
   9  2777.958
  10  2578.263
  11  2352.972
  12  2936.003
  13  2881.994
  14  3009.035
  15  3035.854
  16  2890.529
  17  3108.889
  18  2812.337
  19  2707.471
  20  2058.676
  21  2645.132
  22  2698.914
  23  2508.137
  24  2492.066
  25  2355.619
  26  2183.444
  27  2329.659
  28  2376.896
  29  2516.331
  30  2079.155
  31  1937.599
  32  1916.255
  33  2013.38
  34  2332.553
  35  2655.875
  36  2550.094
  37  2335.052
  38  1848.486
  39  2233.229
  40  2169.654
  41  2346.861
  42  2577.529
  43  2303.328
  44  2193.729
  45  2032.689
  46  2359.747
  47  2717.404
  48  3133.079
  49  2982.984
  50  2630.052
  51  1966.535
  52  1575.882
  53  2032.911
  54  2393.132
  55  2678.539
  56  3102.777
  57  3273.332
  58  3306.168
  59  2209.737
  60  2212.957
  61  2345.848
  62  2477.94
  63  2880.435
  64  3532.232
  65  3340.684
  66  2770.932
  67  2404.461
  68  1938.457
  69  2223.21
  70  2546.249
  71  2958.956
  72  3116.107
  73  2935.421
  74  2303.13
  75  1990.723
  76  2201.724
  77  2164.13
  78  2358.308
  79  2185.896
  80  2220.21
  81  2516.486
  82  2810.149
  83  2798.82
  84  2604.875
  85  2900.095
  86  3330.656
  87  3003.492
  88  2994.983
  89  3128.675
  90  3249.331
  91  3108.795
  92  2074.302
  93  1678.801
  94  1728.086
  95  2189.914
  96  3506.482
  97  2981.623
  98  2405.581
  99  1910.221
 100  1737.204
 101  1772.866
 102  1533.662
 103  2621.845
 104  2962.795
 105  3151.277
 106  2788.587
 107  2488.547
 108  2250.969
 109  1748.148
 110  2106.55
 111  2409.591
 112  2457.263
 113  2366.076
 114  2451.813
 115  2331.289
 116  1851.616
 117  1984.165
 118  2303.437
 119  2217.68
 120  2556.669
 121  2279.305
 122  2127.05
 123  2379.308
 124  2289.881
 125  3024.427
 126  2633.368
 127  2817.725
 128  2415.638
 129  2547.876
 130  2843.969
 131  2707.31
 132  3164.838
 133  2280.045
 134  2259.256
 135  2150.588
 136  2406.966
 137  2160.534
 138  2272.891
 139  2810.98
 140  2385.61
 141  2032.955
 142  1753.895
 143  2348.226
 144  1990.435
 145  2313.036
 146  3112.031
 147  2962.897
 148  2720.038
 149  2503.47
 150  2067.787
 151  1776.612
 152  1843.936
 153  2528.946
 154  2960.31
 155  2199.407
 156  1869.156
 157  1944.508
 158  1669.001
 159  1986.436
 160  1727.378
 161  1877.081
 162  2076.821
 163  2073.935
 164  2364.551
 165  1992.221
 166  1656.41
 167  1684.56
 168  1955.633
 169  1639.862
 170  2258.105
 171  2403.285
 172  2651.023
 173  2473.409
 174  2012.798
 175  2418.716
 176  1997.158
 177  2234.002
 178  2437.662
 179  2557.323
 180  2758.11
 181  2612.212
 182  2801.389
 183  1883.281
 184  1678.753
 185  1852.229
 186  2241.8
 187  2180.243
 188  2244.922
 189  2659.035
 190  2534.604
 191  2674.766
 192  2304.65
 193  2632.872
 194  2696.606
 195  2166.07
 196  2887.726
 197  2760.747
 198  2196.759
 199  2330.631
 200  2471.079
 201  2032.589
 202  1742.774
 203  2554.539
 204  2963.285
 205  2268.21
 206  1991.567
 207  1552.461
 208  1310.425
 209  2249.055
 210  2606.517
 211  2129.909
 212  1757.278
 213  2349.938
 214  2305.411
 215  2030.262
 216  1892.675
 217  1783.227
 218  1457.518
 219  2011.803
 220  2405.219
 221  2337.696
 222  2160.94
 223  1894.402
 224  2283.174
 225  2311.643
 226  2438.309
 227  2494.218
 228  2623.162
 229  2911.485
 230  2828.449
 231  2331.881
 232  1785.103
 233  1629.629
 234  1557.221
 235  2122.795
 236  2641.489
 237  2696.15
 238  2521.975
 239  2489.97
 240  2402.828
 241  2471.221
 242  2277.445
 243  1907.554
 244  2278.509
 245  2432.076
 246  2252.739
 247  2119.306
 248  2245.674
 249  2096.575
 250  2099.156
 251  1889.955
 252  1834.075
 253  2025.899
 254  1935.402
 255  1990.333
 256  1844.643
 257  1366.149
 258  1786.472
 259  1440.485
 260  1886.758
 261  2111.998
 262  1967.977
 263  2330.998
 264  1885.852
 265  1884.164
 266  1785.293
 267  1659.388
 268  2118.745
 269  2040.529
 270  2317.763
 271  2697.654
 272  2510.738
 273  2526.66
 274  2226.202
 275  2164.066
 276  1999.058
 277  2311.956
 278  2414.433
 279  2403.241
 280  2457.699
 281  2062.701
 282  2635.058
 283  2376.683
 284  2039.376
 285  2288.092
 286  2142.879
 287  2489.931
 288  2329.912
 289  2323.056
 290  2251.645
 291  2119.83
 292  2087.533
 293  1851.008
 294  1484.096
 295  1883.925
 296  1792.512
 297  1894.364
 298  2341.456
 299  2435.127
 300  2433.16
 301  1964.791
 302  2017.927
 303  1860.897
 304  2550.799
 305  2580.584
 306  1728.993
 307  2038.51
 308  1985.655
 309  2379.678
 310  2371.189
 311  2437.028
 312  2119.69
 313  1950.733
 314  2275.475
 315  2247.76
 316  2958.31
 317  3009.569
 318  2973.695
 319  2626.791
 320  2232.241
 321  2513.441
 322  2373.187
 323  2334.497
 324  2030.265
 325  2514.419
 326  2616.168
 327  2398.466
 328  2172.208
 329  2200.538
 330  2578.276
 331  2542.229
 332  2483.422
 333  2116.281
 334  2306.018
 335  1968.584
 336  2601.289
 337  2429.311
 338  1881.299
 339  2347.657
 340  1989.478
 341  2017.978
 342  2005.021
 343  2559.602
 344  2638.304
 345  2892.843
 346  2686.635
 347  3053.06
 348  2600.179
 349  2398.502
 350  2217.062
 351  2198.682
 352  2168.322
 353  2151.196
 354  2538.047
 355  2327.088
 356  2594.27
 357  2485.922
 358  2223.442
 359  2548.235
 360  2558.963
 361  3078.898
 362  2878.008
 363  2559.584
 364  2490.388
 365  2536.11
 366  2575.767
 367  2314.335
 368  2708.854
 369  2576.352
 370  2271.013
 371  2383.962
 372  2459.83
 373  2760.032
 374  2785.351
 375  2509.326
 376  2300.199
 377  2367.727
 378  2417.946
 379  2855.741
 380  2713.718
 381  2749.356
 382  2448.69
 383  2352.592
 384  2476.135
 385  2334.474
 386  2705.945
 387  2455.09
 388  2610.854
 389  2334.663
 390  2248.207
 391  2012.789
 392  2110.434
 393  2687.484
 394  2688.351
 395  3486.379
 396  3016.311
 397  2914.713
 398  2102.672
 399  2392.955
 400  2605.346
 401  2489.445
 402  3051.182
 403  3238.545
 404  3416.976
 405  3467.27
 406  3630.623
 407  3331.002
 408  2870.779
 409  2502.282
 410  2134.071
 411  2386.891
 412  2606.579
 413  2796.058
 414  2754.494
 415  2944.729
 416  2942.107
 417  3084.631
 418  2859.064
 419  2794.375
 420  3178.718
 421  2593.905
 422  2561.332
 423  2383.213
 424  2153.964
 425  2340.632
 426  2381.221
 427  2206.163
 428  2619.781
 429  2569.059
 430  2021.813
 431  2136.465
 432  1766.299
 433  2383.818
 434  2464.974
 435  2760.533
 436  2838.428
 437  2639.482
 438  2483.405
 439  1594.568
 440  2008.095
 441  1947.984
 442  1924.182
 443  2179.03
 444  2676.736
 445  2400.037
 446  2145.882
 447  2979.748
 448  2383.072
 449  1911.009
 450  1619.023
 451  2047.918
 452  1786.355
 453  1860.88
 454  1916.137
 455  1662.892
 456  2226.087
 457  2316.197
 458  2442.225
 459  2496.666
 460  2624.449
 461  2247.54
 462  2525.966
 463  2232.434
 464  2204.908
 465  2414.681
 466  2349.781
 467  2753.404
 468  2502.681
 469  2774.734
 470  2501.811
 471  2245.692
 472  2106.698
 473  2330.149
 474  2807.749
 475  2857.802
 476  2884.613
 477  2279.156
 478  1935.302
 479  1909.834
 480  1558.849
 481  1562.598
 482  1954.237
 483  1899.871
 484  2160.667
 485  2264.553
 486  2488.094
 487  2104.355
 488  1688.383
 489  1958.997
 490  2178.769
 491  2252.063
 492  2132.676
 493  2159.69
 494  2369.591
 495  2771.535
 496  3008.428
 497  2817.77
 498  2919.995
 499  2511.58
 500  2260.66
 501  2732.117
 502  3106.048
 503  3363.438
 504  2940.078
 505  2861.49
 506  2391.941
 507  1785.628
 508  2379.218
 509  3313.71
 510  3338.352
 511  3353.946
