# Input file       =  1196621800.117551_cleaned.dat
# Candidate        =  PSR_0332+5434
# Telescope        =  AR
# Epoch_topo       =  58093.789573119808
# Epoch_bary       =  N/A
# T_sample         =  0.002
# Data Folded      =  7340032
# Data Avg         =  0.158899631090338
# Data StdDev      =  3.91370618080456 
# Profile Bins     =  512
# Profile Avg      =  2277.94163674861 
# Profile StdDev   =  468.599924514246 
# Reduced chi-sqr  =  0.490
# Prob(Noise)      <  1   (~0.0 sigma)
# P_topo (ms)      =  714.531624104782  +/- 0.000713
# P'_topo (s/s)    =  -0                +/- 3.76e-10
# P''_topo (s/s^2) =  0                 +/- 1.66e-13
# P_bary (ms)      =  N/A
# P'_bary (s/s)    =  N/A
# P''_bary (s/s^2) =  N/A
# P_orb (s)        =  N/A
# asin(i)/c (s)    =  N/A
# eccentricity     =  N/A
# w (rad)          =  N/A
# T_peri           =  N/A
######################################################
   0  1946.284
   1  1987.602
   2  2433.241
   3  2587.362
   4  2267.709
   5  2413.105
   6  2442.237
   7  2382.232
   8  2270.762
   9  2480.366
  10  2813.032
  11  2801.768
  12  2798.486
  13  3022.077
  14  2772.472
  15  2352.149
  16  2005.933
  17  1870.495
  18  2057.609
  19  2268.608
  20  2414.332
  21  2080.354
  22  2399.205
  23  2682.461
  24  2483.696
  25  2502.225
  26  2494.131
  27  2458.489
  28  2510.386
  29  2236.454
  30  2449.998
  31  2396.876
  32  2357.421
  33  2472.131
  34  2190.729
  35  2094.761
  36  1830.302
  37  1653.982
  38  2172.195
  39  2351.573
  40  2332.801
  41  2416.277
  42  2456.682
  43  2328.151
  44  2321.951
  45  2502.455
  46  2556.157
  47  2368.839
  48  2098.501
  49  2034.298
  50  2059.25
  51  2274.057
  52  2336.106
  53  2596.478
  54  2403.822
  55  2354.533
  56  2218.391
  57  2287.993
  58  2189.291
  59  2376.767
  60  2588.15
  61  2247.753
  62  1992.963
  63  1994.462
  64  2573.649
  65  2424.052
  66  2443.504
  67  2304.651
  68  2410.388
  69  2186.758
  70  2184.665
  71  2565.341
  72  2245.058
  73  2361.554
  74  2334.359
  75  2542.74
  76  2423.8
  77  2283.019
  78  2596.271
  79  2505.747
  80  2530.215
  81  2283.364
  82  1852.184
  83  2190.923
  84  2156.15
  85  2167.221
  86  2112.302
  87  2070.902
  88  2418.856
  89  2097.402
  90  1767.512
  91  1957.148
  92  2326.911
  93  2388.723
  94  2321.652
  95  1946.537
  96  2214.098
  97  2066.97
  98  1997.547
  99  2239.009
 100  2116.137
 101  1963.369
 102  2090.908
 103  2081.235
 104  2210.665
 105  2042.695
 106  2047.986
 107  2126.319
 108  1833.489
 109  2062.213
 110  1791.264
 111  1838.13
 112  2134.45
 113  1903.363
 114  1782.98
 115  1775.561
 116  1678.583
 117  1767.261
 118  1741.24
 119  1783.513
 120  2155.324
 121  2403.364
 122  2439.282
 123  2202.8
 124  1931.333
 125  2007.023
 126  2022.986
 127  2130.74
 128  2044.949
 129  1860.15
 130  1842.945
 131  2300.895
 132  2158.394
 133  1839.408
 134  2111.616
 135  2256.981
 136  2230.607
 137  2226.022
 138  2272.631
 139  2436.919
 140  2528.319
 141  2487.89
 142  2433.361
 143  2524.556
 144  2346.288
 145  2214.446
 146  2040.39
 147  2159.791
 148  2357.593
 149  2429.765
 150  2191.484
 151  2204.352
 152  2489.891
 153  2571.454
 154  2313.19
 155  2376.087
 156  2274.556
 157  2375.686
 158  2440.611
 159  2294.027
 160  2286.408
 161  2003.878
 162  2219.96
 163  2164.132
 164  2225
 165  2134.191
 166  2206.558
 167  2216.005
 168  2078.726
 169  2250.211
 170  2451.823
 171  2247.999
 172  2251.966
 173  2226.458
 174  1895.936
 175  2094.887
 176  2116.289
 177  2126.599
 178  2351.628
 179  2342.909
 180  2267.573
 181  2309.504
 182  2189.365
 183  2459.539
 184  2379.52
 185  2067.297
 186  2291.581
 187  2237.207
 188  2571.31
 189  2247.199
 190  1919.306
 191  1879.969
 192  1929.818
 193  2179.042
 194  2367.801
 195  2255.397
 196  2132.412
 197  1984.603
 198  2140.8
 199  2124.672
 200  1987.696
 201  1763.371
 202  1739.284
 203  2071.98
 204  2024.362
 205  2010.566
 206  2062.805
 207  2103.555
 208  2240.102
 209  2203.494
 210  2097.758
 211  1847.767
 212  1996.959
 213  2242.376
 214  2292.554
 215  2035.44
 216  1925.73
 217  2311.796
 218  2213.201
 219  1976.996
 220  2231.272
 221  2264.118
 222  2404.686
 223  2497.389
 224  2325.604
 225  2318.758
 226  2577.667
 227  2529.308
 228  2702.595
 229  2456.762
 230  2364.551
 231  2489.137
 232  2481.382
 233  2624.86
 234  2540.348
 235  2465.653
 236  2389.805
 237  2481.894
 238  2257.567
 239  2221.13
 240  2084.354
 241  2216.175
 242  2345.166
 243  2534.925
 244  2240.11
 245  2295.674
 246  2407.31
 247  2739.146
 248  2659.808
 249  2458.34
 250  2476.223
 251  2408.059
 252  2379.678
 253  2465.52
 254  2494.628
 255  2472.45
 256  2356.712
 257  2279.74
 258  2355.285
 259  2532.331
 260  2413.243
 261  2111.562
 262  2188.352
 263  2165.661
 264  2352.638
 265  2236.836
 266  1924.672
 267  2134.468
 268  2343.285
 269  2551.362
 270  2473.529
 271  2401.436
 272  2264.133
 273  2247.077
 274  2154.752
 275  2435.024
 276  2700.598
 277  2603.197
 278  2467.929
 279  2588.627
 280  2707.427
 281  2520.355
 282  2368.336
 283  2503.619
 284  2648.983
 285  2714.691
 286  2640.965
 287  2685.433
 288  2763.238
 289  2520.662
 290  2692.545
 291  2782.074
 292  2563.192
 293  2409.338
 294  2237.837
 295  2438.372
 296  2352.08
 297  2311.491
 298  2230.8
 299  2378.912
 300  2274.734
 301  2417.276
 302  2075.531
 303  2300.697
 304  2159.333
 305  2184.712
 306  2152.71
 307  2364.619
 308  2416.538
 309  2154.422
 310  2239.814
 311  2443.04
 312  2399.936
 313  2308.167
 314  2292.6
 315  1858.91
 316  2002.677
 317  2149.726
 318  2236.09
 319  2297.107
 320  2323.875
 321  2430.957
 322  2389.657
 323  2365.176
 324  2296.773
 325  2409.464
 326  2321.539
 327  2636.448
 328  2864.15
 329  2499.666
 330  2154.629
 331  2171.19
 332  2261.825
 333  2213.619
 334  2043.607
 335  2014.708
 336  2030.137
 337  2051.781
 338  2118.603
 339  2077.443
 340  1989.838
 341  2181.882
 342  1948.149
 343  2016.482
 344  2056.78
 345  2369.385
 346  2225.616
 347  2043.967
 348  2073.659
 349  2339.8
 350  2298.855
 351  1973.681
 352  2066.244
 353  2457.686
 354  2131.797
 355  2028.274
 356  2472.511
 357  2567.331
 358  2362.609
 359  2295.228
 360  2260.074
 361  2381.815
 362  2566.275
 363  2541.353
 364  2716.374
 365  2301.887
 366  2293.53
 367  2501.634
 368  2685.108
 369  2348.807
 370  2073.285
 371  2063.675
 372  2170.911
 373  2225.001
 374  2292.001
 375  2586.657
 376  2572.856
 377  2777.015
 378  2614.454
 379  2363.646
 380  2342.094
 381  2484.661
 382  2634.662
 383  2285.464
 384  2206.754
 385  2405.84
 386  2359.544
 387  2411.291
 388  2129.937
 389  2204.095
 390  2253.763
 391  2145.253
 392  2034.534
 393  1956.085
 394  1893.4
 395  2124.766
 396  2224.875
 397  2274.708
 398  1989.646
 399  2201.365
 400  2481.304
 401  2443.9
 402  2218.602
 403  2271.76
 404  2032.981
 405  1929.374
 406  2141.136
 407  2118.003
 408  2136.541
 409  2552.385
 410  2153.069
 411  2241.265
 412  2078.461
 413  1497.168
 414  1577.824
 415  1895.373
 416  2042.114
 417  1869.104
 418  2072.107
 419  2253.082
 420  2260.023
 421  1983.942
 422  1965.447
 423  2322.216
 424  2629.728
 425  2575.536
 426  2392.431
 427  2198.348
 428  2265.401
 429  2496.45
 430  2492.758
 431  2580.705
 432  2692.437
 433  2514.01
 434  2535.483
 435  2723.975
 436  2564.951
 437  2836.326
 438  2852.882
 439  2665.847
 440  2397.97
 441  2179.127
 442  2458.364
 443  2603.898
 444  2880.576
 445  2677.039
 446  2484.713
 447  2378.094
 448  2603.064
 449  2757.775
 450  2490.923
 451  2484.105
 452  2368.562
 453  2316.78
 454  2194.906
 455  2327.774
 456  2456.349
 457  2154.585
 458  2055.365
 459  1832.53
 460  2182.753
 461  2181.546
 462  2284.909
 463  2465.954
 464  2568.381
 465  2213.813
 466  1928.216
 467  1888.629
 468  2027.907
 469  2356.548
 470  2602.691
 471  2461.965
 472  2374.653
 473  2304.753
 474  2377.456
 475  2473.862
 476  2071.424
 477  2058.386
 478  2199.448
 479  2207.365
 480  1896.666
 481  1624.11
 482  1728.098
 483  1948.339
 484  2015.274
 485  2167.361
 486  1962.979
 487  2150.855
 488  1978.741
 489  2270.106
 490  2270.432
 491  2645.626
 492  2447.064
 493  2373.654
 494  2546.707
 495  2542.097
 496  2478.097
 497  2331.973
 498  2375.978
 499  2369.894
 500  2283.24
 501  2210.888
 502  2373.122
 503  2569.358
 504  2316.726
 505  2169.247
 506  2067.469
 507  2353.699
 508  2367.356
 509  2319.565
 510  2181.683
 511  2119.215
