# Input file       =  1196363886.122779_cleaned.dat
# Candidate        =  PSR_0332+5434
# Telescope        =  AR
# Epoch_topo       =  58090.804457439568
# Epoch_bary       =  N/A
# T_sample         =  0.002
# Data Folded      =  7340032
# Data Avg         =  0.157171387144315
# Data StdDev      =  4.33509736883639 
# Profile Bins     =  256
# Profile Avg      =  4506.17645751633 
# Profile StdDev   =  734.053731020258 
# Reduced chi-sqr  =  0.920
# Prob(Noise)      <  0.815   (~0.0 sigma)
# P_topo (ms)      =  714.528574489998  +/- 0.000169
# P'_topo (s/s)    =  -0                +/- 8.93e-11
# P''_topo (s/s^2) =  0                 +/- 3.94e-14
# P_bary (ms)      =  N/A
# P'_bary (s/s)    =  N/A
# P''_bary (s/s^2) =  N/A
# P_orb (s)        =  N/A
# asin(i)/c (s)    =  N/A
# eccentricity     =  N/A
# w (rad)          =  N/A
# T_peri           =  N/A
######################################################
   0  4426.441
   1  4123.391
   2  4373.387
   3  4029.965
   4  4063.815
   5  4046.175
   6  4746.745
   7  4154.636
   8  4525.192
   9  3667.964
  10  3905.763
  11  3432.878
  12  3038.664
  13  4343.587
  14  4853.177
  15  4797.448
  16  5519.446
  17  5866.687
  18  5207.191
  19  4546.84
  20  5314.36
  21  5071.176
  22  4989.639
  23  4857.276
  24  6149.882
  25  6168.299
  26  4749.98
  27  4552.947
  28  4390.815
  29  4248.426
  30  4509.192
  31  4315.049
  32  4275.606
  33  5144.294
  34  5094.486
  35  4749.26
  36  4822.077
  37  5287.167
  38  4817.651
  39  4298.731
  40  4354.072
  41  3756.541
  42  4848.712
  43  4520.338
  44  4562.426
  45  4483.669
  46  4255.889
  47  3918.34
  48  3308.669
  49  3543.393
  50  4280.663
  51  4483.968
  52  5347.104
  53  5258.322
  54  5050.738
  55  4791.939
  56  4449.231
  57  4414.354
  58  4307.853
  59  4173.774
  60  4387.792
  61  5029.922
  62  5450.254
  63  5187.271
  64  5416.488
  65  4574.199
  66  4542.909
  67  4021.459
  68  5018.466
  69  4517.373
  70  4123.488
  71  4704.747
  72  5119.19
  73  4855.407
  74  4578.836
  75  4503.532
  76  4804.64
  77  4555.23
  78  4802.287
  79  4825.495
  80  4932.344
  81  4871.154
  82  5126.175
  83  4753.569
  84  4588.203
  85  4277.119
  86  4471.445
  87  4485.122
  88  4426.15
  89  4320.085
  90  4940.082
  91  5786.657
  92  5397.653
  93  4652.571
  94  4250.002
  95  5166.007
  96  5627.044
  97  4904.161
  98  4603.511
  99  4905.875
 100  5706.69
 101  5541.163
 102  5411.394
 103  4571.284
 104  4874.889
 105  4527.154
 106  4365.109
 107  4029.704
 108  4946.914
 109  4955.835
 110  4465.765
 111  4318.059
 112  4381.574
 113  3737.057
 114  2760.369
 115  3477.305
 116  3160.004
 117  3873.943
 118  3669.681
 119  3794.018
 120  3991.511
 121  3994.085
 122  4554.541
 123  3898.083
 124  3154.588
 125  3609.344
 126  3829.114
 127  4312.152
 128  5475.604
 129  4788.085
 130  5026.018
 131  4611.786
 132  4400.044
 133  4122.428
 134  4141.825
 135  4564.069
 136  4927.843
 137  5818.039
 138  5738.594
 139  5148.199
 140  4763.144
 141  4576.985
 142  4579.536
 143  4601.054
 144  4901.917
 145  4441.722
 146  4809.974
 147  4598.098
 148  4591.5
 149  4008.796
 150  4778.438
 151  4404.566
 152  3759.764
 153  4414.276
 154  4722.093
 155  5181.934
 156  5873.983
 157  6387.136
 158  5781.908
 159  4510.651
 160  3517.512
 161  4503.318
 162  3789.894
 163  3988.133
 164  3341.179
 165  3873.455
 166  4510.404
 167  3795.398
 168  3619.328
 169  3662.105
 170  3620.928
 171  3880.771
 172  3809.414
 173  4385.287
 174  3988.206
 175  4334.099
 176  4191.794
 177  4020.956
 178  3676.156
 179  3596.724
 180  4084.479
 181  3624.344
 182  3566.23
 183  4112.147
 184  4781.176
 185  4303.16
 186  4460.782
 187  4153.059
 188  4077.102
 189  2962.545
 190  4269.336
 191  4336.304
 192  3973.654
 193  3936.245
 194  4740.754
 195  4008.49
 196  3457.793
 197  4040.837
 198  4507.401
 199  4368.652
 200  3314.117
 201  3608.135
 202  3886.379
 203  4162.535
 204  3932.183
 205  4152.48
 206  4534.375
 207  4035.617
 208  4728.472
 209  4618.998
 210  4846.112
 211  5032.937
 212  4564.771
 213  4896.098
 214  4561.058
 215  5431.539
 216  5395.266
 217  4114.712
 218  4505.959
 219  4611.879
 220  3784.071
 221  4607.826
 222  4253.217
 223  4225.184
 224  4624.783
 225  4280.194
 226  4008.7
 227  4485.846
 228  4580.812
 229  4372.769
 230  4592.646
 231  4661.963
 232  4936.589
 233  4700.08
 234  5410.247
 235  4417.401
 236  4149.612
 237  3771.038
 238  4732.373
 239  4480.395
 240  4593.592
 241  5218.244
 242  5269.273
 243  5952.578
 244  5383.599
 245  5401.544
 246  5344.183
 247  4675.046
 248  4301.131
 249  4792.837
 250  3953.396
 251  3917.91
 252  5316.736
 253  4796.731
 254  4468.854
 255  4865.652
