# Input file       =  1196636713.121882-PSRB0329-2ms-sampling-dd.dat
# Candidate        =  PSR_0332+5434
# Telescope        =  AR
# Epoch_topo       =  58093.962177336594
# Epoch_bary       =  N/A
# T_sample         =  0.002
# Data Folded      =  7340032
# Data Avg         =  1.03488520442868e-09
# Data StdDev      =  6.98132470941154 
# Profile Bins     =  512
# Profile Avg      =  -0.65288037661443
# Profile StdDev   =  835.895205389988 
# Reduced chi-sqr  =  0.425
# Prob(Noise)      <  1   (~0.0 sigma)
# P_topo (ms)      =  714.532133539633  +/- 0.000107
# P'_topo (s/s)    =  -0                +/- 5.65e-11
# P''_topo (s/s^2) =  0                 +/- 2.49e-14
# P_bary (ms)      =  N/A
# P'_bary (s/s)    =  N/A
# P''_bary (s/s^2) =  N/A
# P_orb (s)        =  N/A
# asin(i)/c (s)    =  N/A
# eccentricity     =  N/A
# w (rad)          =  N/A
# T_peri           =  N/A
######################################################
   0  -2.619573
   1  110.0717
   2  356.2492
   3  349.6682
   4  346.3201
   5  163.3909
   6  183.0887
   7  428.7491
   8  178.1155
   9  -8.977718
  10  -227.283
  11  -325.6759
  12  -392.7134
  13  -657.404
  14  -237.013
  15  -127.776
  16  371.1039
  17  904.3346
  18  384.5834
  19  305.2902
  20  31.97071
  21  104.1128
  22  -283.4773
  23  -371.7681
  24  -210.6675
  25  -83.1899
  26  -230.9059
  27  -466.6723
  28  -154.2865
  29  -218
  30  -107.6144
  31  -358.5731
  32  -428.1363
  33  92.08244
  34  26.72268
  35  -345.2119
  36  -499.569
  37  -207.235
  38  -113.1013
  39  -152.8937
  40  -375.2913
  41  -247.1339
  42  -400.7207
  43  -21.00763
  44  -93.88372
  45  -68.7952
  46  85.02814
  47  -446.6839
  48  151.13
  49  605.4777
  50  618.875
  51  158.9306
  52  73.73035
  53  65.77036
  54  393.8736
  55  382.3937
  56  325.9861
  57  256.0079
  58  465.9968
  59  537.1683
  60  93.03184
  61  234.0644
  62  156.7487
  63  47.63354
  64  218.4447
  65  117.524
  66  -0.5956969
  67  225.9355
  68  -135.675
  69  -414.0782
  70  -456.5876
  71  -621.9475
  72  -467.9749
  73  -659.23
  74  -608.7776
  75  -456.2044
  76  -638.7164
  77  -985.027
  78  -1241.3
  79  -750.3505
  80  -583.1376
  81  -222.9507
  82  283.2226
  83  401.2656
  84  162.6758
  85  217.9286
  86  -169.6904
  87  -31.84698
  88  34.17349
  89  -3.674881
  90  807.139
  91  497.0267
  92  750.0264
  93  -257.1764
  94  -332.2366
  95  -506.7766
  96  -573.9719
  97  426.429
  98  475.364
  99  651.0586
 100  751.1879
 101  725.8032
 102  192.2897
 103  -415.1914
 104  -344.1587
 105  -717.4575
 106  -546.6977
 107  -385.1558
 108  163.709
 109  36.23777
 110  -471.389
 111  1151.703
 112  913.417
 113  234.9217
 114  -529.386
 115  41.68948
 116  506.0859
 117  138.4968
 118  118.5068
 119  -373.1831
 120  -204.4194
 121  -81.77476
 122  128.5569
 123  104.4768
 124  58.80725
 125  -273.2703
 126  -0.7397179
 127  154.5664
 128  39.11839
 129  373.151
 130  456.2134
 131  516.9296
 132  457.3951
 133  663.5648
 134  88.85354
 135  118.9844
 136  381.3969
 137  187.417
 138  -339.5943
 139  -378.2304
 140  230.8636
 141  -223.4718
 142  -237.5945
 143  -395.6766
 144  -428.8881
 145  -466.1421
 146  -261.9725
 147  105.9462
 148  609.2562
 149  -114.8148
 150  -307.8027
 151  -331.3117
 152  -361.6497
 153  -389.7846
 154  -168.6628
 155  226.4076
 156  -99.16221
 157  164.4698
 158  -228.1826
 159  -194.237
 160  -606.2294
 161  -293.5507
 162  65.82108
 163  423.6931
 164  481.3071
 165  740.1315
 166  642.2427
 167  87.38063
 168  -40.08918
 169  -707.8185
 170  -534.3231
 171  -439.905
 172  -100.4001
 173  -76.41484
 174  39.80317
 175  22.15132
 176  84.37926
 177  -704.4606
 178  -825.4695
 179  -475.7555
 180  -700.6844
 181  -65.85889
 182  244.0323
 183  312.151
 184  -153.0455
 185  -835.5417
 186  -561.7695
 187  -197.3709
 188  -277.7362
 189  -218.4306
 190  -136.8589
 191  -240.1539
 192  -656.2125
 193  -357.616
 194  92.03944
 195  -262.585
 196  -731.6944
 197  -442.2982
 198  118.2817
 199  -130.1942
 200  -461.4017
 201  -406.9184
 202  -290.2274
 203  -160.9005
 204  162.9581
 205  -462.1369
 206  -690.4485
 207  -310.2605
 208  -480.1544
 209  -673.2837
 210  -860.005
 211  -750.041
 212  -122.4549
 213  -16.26377
 214  163.8595
 215  -110.296
 216  -84.94686
 217  -367.2688
 218  -250.8363
 219  161.251
 220  304.3582
 221  76.84188
 222  -123.9094
 223  48.46037
 224  -348.3365
 225  -789.4127
 226  -494.3222
 227  -608.3053
 228  -761.766
 229  -236.1697
 230  305.802
 231  686.1168
 232  271.7029
 233  -65.62341
 234  101.8755
 235  -486.9356
 236  -296.4151
 237  -390.6769
 238  -104.7385
 239  -273.9628
 240  -122.9793
 241  -246.1322
 242  -716.7166
 243  -809.9183
 244  -231.4508
 245  218.7682
 246  203.4719
 247  58.70539
 248  57.37113
 249  -128.5206
 250  -180.7009
 251  -264.7519
 252  -262.7148
 253  -115.0038
 254  -164.0067
 255  -142.7367
 256  -6.413553
 257  -46.30352
 258  -174.0936
 259  -525.4835
 260  148.4277
 261  330.2186
 262  161.0557
 263  286.9605
 264  774.9484
 265  744.0594
 266  27.74085
 267  63.06176
 268  289.1267
 269  607.0312
 270  405.5657
 271  776.0613
 272  796.9547
 273  524.481
 274  419.1562
 275  34.39066
 276  -97.17123
 277  157.5496
 278  363.8163
 279  790.6185
 280  820.435
 281  413.5602
 282  67.77323
 283  -108.1752
 284  148.6133
 285  80.05245
 286  282.0088
 287  321.5445
 288  611.6326
 289  272.4763
 290  132.7607
 291  -118.0656
 292  -216.6457
 293  -216.1165
 294  -117.6508
 295  -154.5856
 296  334.1412
 297  314.0044
 298  420.0916
 299  268.2809
 300  -217.0608
 301  -29.23006
 302  -6.355067
 303  287.0435
 304  203.7745
 305  459.0248
 306  138.4067
 307  -159.5286
 308  -530.3992
 309  -575.5558
 310  -590.4575
 311  -31.3121
 312  245.419
 313  640.423
 314  48.59549
 315  159.5956
 316  83.14205
 317  -10.64923
 318  599.7517
 319  725.5762
 320  678.553
 321  178.6984
 322  -379.3659
 323  -178.2351
 324  43.99436
 325  874.721
 326  572.774
 327  1102.269
 328  623.2922
 329  483.3988
 330  253.9024
 331  616.08
 332  484.3523
 333  597.7449
 334  326.2301
 335  574.0095
 336  590.3186
 337  160.9668
 338  -131.4517
 339  -373.3798
 340  0.2830062
 341  566.0839
 342  514.5559
 343  7.368299
 344  -50.50745
 345  205.0016
 346  446.0055
 347  477.3758
 348  720.1337
 349  177.8083
 350  -133.2739
 351  305.2441
 352  359.7377
 353  116.0297
 354  360.1174
 355  561.1706
 356  -23.2691
 357  -156.0824
 358  -211.2441
 359  -364.2222
 360  -308.6866
 361  242.0431
 362  358.2953
 363  505.5466
 364  243.949
 365  -232.5962
 366  -28.01879
 367  591.2958
 368  866.4152
 369  678.6729
 370  471.7785
 371  110.7812
 372  -216.5681
 373  -228.0205
 374  98.6666
 375  -122.5014
 376  604.2623
 377  621.7308
 378  51.91656
 379  -270.7043
 380  -694.9423
 381  -287.4653
 382  -409.5104
 383  -87.04778
 384  -178.3537
 385  -377.7311
 386  -432.0222
 387  -340.5103
 388  -658.0998
 389  -637.9304
 390  -455.3078
 391  -525.0033
 392  -743.9237
 393  -275.7527
 394  -265.8605
 395  -0.4799235
 396  -59.02231
 397  -220.2255
 398  -152.2617
 399  -665.9756
 400  -172.7846
 401  562.3305
 402  370.6607
 403  -30.22845
 404  -44.79714
 405  -376.463
 406  -159.0615
 407  -421.7287
 408  136.4067
 409  80.55287
 410  133.8625
 411  188.2305
 412  -61.1514
 413  -329.9547
 414  -488.9211
 415  -409.3828
 416  -101.2072
 417  473.7624
 418  274.9492
 419  61.41332
 420  415.8238
 421  -158.374
 422  -659.4358
 423  -562.8779
 424  -227.0797
 425  320.2005
 426  390.8165
 427  -318.061
 428  -161.7111
 429  -9.662401
 430  -506.1782
 431  -399.8767
 432  -642.8848
 433  -241.2689
 434  287.8779
 435  363.0416
 436  941.2478
 437  1086.3
 438  553.5483
 439  507.4872
 440  283.2416
 441  82.54218
 442  400.9186
 443  479.6545
 444  661.7656
 445  262.6255
 446  390.0085
 447  307.2332
 448  -64.28016
 449  -119.5646
 450  -80.36233
 451  -270.7211
 452  -357.024
 453  -266.4971
 454  -364.7732
 455  -47.48456
 456  178.5108
 457  472.4242
 458  546.7166
 459  572.8764
 460  -201.9205
 461  -665.2369
 462  -821.1354
 463  -331.0591
 464  -78.01891
 465  382.0047
 466  96.28632
 467  96.87334
 468  43.92073
 469  21.12771
 470  -14.97251
 471  -331.1165
 472  38.00352
 473  -26.96949
 474  -324.8994
 475  -37.2085
 476  -5.958247
 477  574.3839
 478  115.959
 479  458.1491
 480  65.11794
 481  -81.23531
 482  79.74487
 483  144.0365
 484  613.97
 485  231.2293
 486  59.44336
 487  -24.51531
 488  -104.2455
 489  49.845
 490  49.54225
 491  315.5234
 492  481.4098
 493  239.5973
 494  -220.8557
 495  -623.5148
 496  -344.916
 497  62.96375
 498  8.580333
 499  478.998
 500  172.3397
 501  -8.999249
 502  21.85463
 503  120.9093
 504  -215.8603
 505  -271.0815
 506  -491.0994
 507  -461.9368
 508  108.2488
 509  155.2168
 510  -406.6173
 511  -238.0997
