# Input file       =  1196435398.113372-PSRB0329-2ms-sampling-dd.dat
# Candidate        =  PSR_0332+5434
# Telescope        =  AR
# Epoch_topo       =  58091.632142515882
# Epoch_bary       =  N/A
# T_sample         =  0.002
# Data Folded      =  7208960
# Data Avg         =  -1.20137015732904e-10
# Data StdDev      =  9.85271270836865 
# Profile Bins     =  512
# Profile Avg      =  -0.303687122069869
# Profile StdDev   =  1169.11476930547 
# Reduced chi-sqr  =  0.683
# Prob(Noise)      <  1   (~0.0 sigma)
# P_topo (ms)      =  714.529398707629  +/- 0.000101
# P'_topo (s/s)    =  -0                +/- 5.44e-11
# P''_topo (s/s^2) =  0                 +/- 2.45e-14
# P_bary (ms)      =  N/A
# P'_bary (s/s)    =  N/A
# P''_bary (s/s^2) =  N/A
# P_orb (s)        =  N/A
# asin(i)/c (s)    =  N/A
# eccentricity     =  N/A
# w (rad)          =  N/A
# T_peri           =  N/A
######################################################
   0  -1087.705
   1  -1179.198
   2  -303.8643
   3  32.78996
   4  682.0231
   5  264.7239
   6  -242.0151
   7  -660.8244
   8  -599.3183
   9  188.563
  10  195.1598
  11  29.87796
  12  -92.28111
  13  -154.0201
  14  25.73189
  15  -171.0523
  16  194.909
  17  422.9873
  18  242.0398
  19  19.09077
  20  108.7941
  21  479.6786
  22  725.8176
  23  496.9085
  24  522.02
  25  743.7722
  26  1417.308
  27  1043.697
  28  898.7447
  29  775.2835
  30  -484.4334
  31  -271.992
  32  -317.6436
  33  1236.942
  34  1598.929
  35  2271.217
  36  1738.297
  37  618.5399
  38  -109.3299
  39  1186.225
  40  2370.802
  41  2684.551
  42  2565.94
  43  1103.476
  44  299.5525
  45  -111.9582
  46  1079.436
  47  1081.677
  48  2123.808
  49  1893.321
  50  1553.32
  51  1234.628
  52  323.5126
  53  909.4285
  54  338.4236
  55  1074.655
  56  1625.796
  57  1463.49
  58  368.3613
  59  -461.0479
  60  398.3379
  61  1229.092
  62  1854.656
  63  1541.169
  64  754.3327
  65  -694.8126
  66  -764.2644
  67  -68.94099
  68  634.5372
  69  1518.935
  70  671.3555
  71  -52.27771
  72  -378.1803
  73  -73.72694
  74  -100.587
  75  -450.2464
  76  473.0587
  77  347.1344
  78  340.0493
  79  -515.401
  80  -293.6245
  81  87.54828
  82  137.4736
  83  707.4169
  84  651.412
  85  420.348
  86  -637.7008
  87  -652.6851
  88  -474.6447
  89  415.2057
  90  758.8972
  91  337.1612
  92  160.6896
  93  -860.7525
  94  -987.2528
  95  -1417.536
  96  -809.5887
  97  -654.4234
  98  -488.8745
  99  -848.5748
 100  -1162.902
 101  -994.4776
 102  -1097.756
 103  -458.3828
 104  144.4053
 105  -346.8771
 106  -590.8748
 107  -1020.999
 108  -400.4689
 109  -420.767
 110  77.08346
 111  5.646657
 112  208.764
 113  -135.0955
 114  -264.9851
 115  -438.741
 116  -401.97
 117  206.5788
 118  68.08874
 119  629.0842
 120  359.1103
 121  276.4175
 122  -221.6048
 123  -302.1179
 124  102.8242
 125  -251.9041
 126  104.6775
 127  5.665613
 128  162.374
 129  425.4716
 130  572.0309
 131  454.176
 132  -254.3375
 133  149.8111
 134  404.838
 135  31.28022
 136  -101.2345
 137  -548.8903
 138  -155.5273
 139  -790.3437
 140  -1066.466
 141  -231.1419
 142  -408.9487
 143  -815.8908
 144  -671.1743
 145  -598.3738
 146  -967.0062
 147  -1231.442
 148  -1294.434
 149  -988.2548
 150  -638.9418
 151  -586.1497
 152  -458.8239
 153  -1304.706
 154  -1061.863
 155  -930.3362
 156  -1021.083
 157  -857.8508
 158  -499.4727
 159  -365.2181
 160  -135.2283
 161  207.0263
 162  755.1777
 163  764.1337
 164  -16.68794
 165  -378.9966
 166  6.135596
 167  -62.11943
 168  -226.8711
 169  -103.5306
 170  -268.9816
 171  -297.0823
 172  -359.7969
 173  -357.7048
 174  -452.47
 175  -375.1612
 176  -451.8308
 177  100.8749
 178  364.8189
 179  -207.8287
 180  -759.6284
 181  -970.7124
 182  -659.3036
 183  -621.8434
 184  -78.18787
 185  -169.2186
 186  -69.87719
 187  663.2272
 188  379.8055
 189  1254.863
 190  868.6929
 191  652.5093
 192  576.0042
 193  -203.4823
 194  -170.0856
 195  -653.3147
 196  -253.8081
 197  -4.693936
 198  585.2267
 199  115.0646
 200  -600.6411
 201  -754.0826
 202  -787.5322
 203  184.7657
 204  -335.7244
 205  379.9132
 206  -130.4004
 207  -215.8498
 208  -643.0995
 209  -51.02296
 210  -122.7173
 211  -515.0132
 212  -593.0305
 213  -958.0219
 214  -380.902
 215  -546.9956
 216  -132.9324
 217  187.8449
 218  340.5276
 219  774.8145
 220  545.0029
 221  820.3621
 222  881.7175
 223  1554.655
 224  1405.991
 225  870.8633
 226  468.7118
 227  22.26191
 228  545.03
 229  166.3815
 230  591.2717
 231  206.5909
 232  196.391
 233  221.6378
 234  11.08028
 235  49.05313
 236  -34.56546
 237  503.0635
 238  730.8249
 239  276.0045
 240  566.205
 241  922.3913
 242  861.0593
 243  237.6812
 244  1003.7
 245  961.0563
 246  1145.917
 247  589.3554
 248  400.8166
 249  -408.6266
 250  159.7149
 251  743.2326
 252  794.814
 253  918.3322
 254  -181.8351
 255  -1178.46
 256  -1253.579
 257  -738.8057
 258  -578.0078
 259  -379.0527
 260  108.5562
 261  -134.6951
 262  -60.99923
 263  -255.831
 264  -660.1281
 265  -428.6258
 266  -82.15001
 267  229.2248
 268  -223.497
 269  -981.1897
 270  -782.2469
 271  -443.1942
 272  312.7405
 273  208.3369
 274  -157.6206
 275  -597.0747
 276  -643.3726
 277  -1034.041
 278  -720.4713
 279  -16.82608
 280  217.9257
 281  169.7596
 282  -736.2068
 283  -968.4415
 284  -1120.68
 285  -201.5071
 286  293.7057
 287  -179.3917
 288  -572.372
 289  361.469
 290  -502.747
 291  -773.5774
 292  -1122.86
 293  -979.9132
 294  -534.6158
 295  76.18476
 296  480.8425
 297  -300.869
 298  -746.7034
 299  -837.5662
 300  -897.1682
 301  -947.8019
 302  -298.2797
 303  -321.9413
 304  -439.8185
 305  -1001.854
 306  -910.7336
 307  -1069.135
 308  -1093.22
 309  -374.8773
 310  -701.4404
 311  -742.3192
 312  -927.3835
 313  -697.49
 314  65.04185
 315  201.0589
 316  445.9826
 317  420.94
 318  457.2179
 319  -516.1293
 320  -579.0112
 321  -776.8266
 322  242.3818
 323  886.2573
 324  633.2773
 325  663.3829
 326  -39.08076
 327  -280.0431
 328  -102.9838
 329  -379.579
 330  477.3462
 331  1002.784
 332  1502.789
 333  1037.002
 334  721.0603
 335  361.2341
 336  311.9437
 337  349.7505
 338  407.4622
 339  11.57987
 340  -255.897
 341  87.53152
 342  -362.4803
 343  -273.8154
 344  699.2147
 345  573.7433
 346  242.4702
 347  -246.8485
 348  -134.2334
 349  -194.4619
 350  7.387915
 351  161.1395
 352  722.9301
 353  946.1033
 354  72.83188
 355  65.44786
 356  -447.6973
 357  -25.23782
 358  -230.1804
 359  293.3763
 360  678.4594
 361  147.0798
 362  -13.66741
 363  -226.6946
 364  371.2611
 365  208.8982
 366  119.9738
 367  272.8181
 368  -352.3323
 369  -637.1002
 370  -379.1275
 371  1327.359
 372  1215.801
 373  1276.949
 374  86.12379
 375  -786.5448
 376  -1458.382
 377  -950.4174
 378  196.3913
 379  1065.505
 380  1771.22
 381  1367.805
 382  403.9465
 383  -373.9908
 384  -810.6277
 385  -412.2914
 386  -366.7363
 387  805.1001
 388  699.1132
 389  2138.97
 390  1786.144
 391  1205.679
 392  834.0586
 393  -79.52538
 394  -220.476
 395  -133.841
 396  581.1703
 397  1012.492
 398  975.9967
 399  540.1095
 400  141.9445
 401  -532.3239
 402  -399.4478
 403  -416.3423
 404  -611.1121
 405  -330.224
 406  -316.0579
 407  -478.0268
 408  5.197731
 409  389.7334
 410  556.4515
 411  685.1513
 412  -52.53956
 413  -115.7552
 414  -88.13428
 415  181.7106
 416  756.7032
 417  671.041
 418  175.8635
 419  -663.114
 420  -224.3664
 421  -68.58301
 422  -72.33255
 423  -429.8444
 424  -321.7789
 425  -499.5723
 426  -570.2336
 427  -669.6782
 428  -623.6225
 429  -228.7352
 430  154.2648
 431  158.2645
 432  -87.11415
 433  -70.65299
 434  -86.09826
 435  -676.5811
 436  -518.021
 437  237.4904
 438  1189.603
 439  610.748
 440  226.308
 441  -261.8033
 442  -507.7929
 443  -630.2221
 444  -160.6014
 445  335.7121
 446  407.6983
 447  190.5754
 448  -361.3568
 449  -1300.056
 450  -681.4487
 451  -345.8602
 452  565.8878
 453  953.5986
 454  1169.206
 455  370.8597
 456  -141.3358
 457  -320.7234
 458  -375.0263
 459  152.6202
 460  -488.0296
 461  -226.5727
 462  87.22302
 463  93.05746
 464  -430.472
 465  379.9837
 466  624.0591
 467  -112.4965
 468  -738.9326
 469  -1637.165
 470  -1001.461
 471  -519.3895
 472  568.7788
 473  603.066
 474  273.0622
 475  -529.3011
 476  -687.7495
 477  -655.743
 478  -827.0795
 479  -132.8987
 480  475.2942
 481  586.8043
 482  468.7121
 483  -889.0201
 484  -803.7036
 485  -902.7799
 486  -219.6054
 487  -39.5786
 488  9.938973
 489  -55.34841
 490  -554.7781
 491  -559.3445
 492  -682.3191
 493  -422.6893
 494  -426.7817
 495  -79.79449
 496  -302.3561
 497  -16.91294
 498  -214.2314
 499  -407.1039
 500  477.7654
 501  -146.0054
 502  -538.3721
 503  -1254.572
 504  -692.4971
 505  -1036.728
 506  -1086.465
 507  -366.3703
 508  -883.8011
 509  -1075.12
 510  -1391.786
 511  -1122.72
