# Input file       =  1197727347.096942-PSRB0329-2ms-sampling-dd.dat
# Candidate        =  PSR_0332+5434
# Telescope        =  AR
# Epoch_topo       =  58106.585255751641
# Epoch_bary       =  N/A
# T_sample         =  0.002
# Data Folded      =  7208960
# Data Avg         =  5.42548745024861e-10
# Data StdDev      =  7.12807933349058 
# Profile Bins     =  512
# Profile Avg      =  0.684663296523636
# Profile StdDev   =  845.812018702891 
# Reduced chi-sqr  =  0.583
# Prob(Noise)      <  1   (~0.0 sigma)
# P_topo (ms)      =  714.544433379039  +/- 8.19e-05
# P'_topo (s/s)    =  -0                +/- 4.4e-11
# P''_topo (s/s^2) =  0                 +/- 1.98e-14
# P_bary (ms)      =  N/A
# P'_bary (s/s)    =  N/A
# P''_bary (s/s^2) =  N/A
# P_orb (s)        =  N/A
# asin(i)/c (s)    =  N/A
# eccentricity     =  N/A
# w (rad)          =  N/A
# T_peri           =  N/A
######################################################
   0  184.1839
   1  477.4069
   2  139.9463
   3  594.8494
   4  595.7455
   5  369.6076
   6  -20.91718
   7  500.7913
   8  672.9485
   9  -82.30037
  10  236.6611
  11  51.19351
  12  -248.1675
  13  17.15685
  14  253.3016
  15  420.0614
  16  -57.61072
  17  -425.3429
  18  -707.2754
  19  -194.0304
  20  -844.8823
  21  35.93943
  22  5.873466
  23  53.4759
  24  109.4004
  25  -24.12889
  26  -123.5958
  27  -667.5093
  28  -529.5275
  29  -166.1922
  30  -49.26035
  31  97.1998
  32  338.4536
  33  268.3743
  34  -636.5075
  35  -856.3815
  36  -902.1026
  37  -527.0821
  38  -1262.281
  39  -601.6854
  40  481.9236
  41  659.346
  42  672.6545
  43  22.89801
  44  -410.1645
  45  -509.8745
  46  -337.1416
  47  -389.0742
  48  22.96115
  49  816.466
  50  318.7919
  51  30.95594
  52  -14.68394
  53  -166.7143
  54  -124.5009
  55  -48.99768
  56  281.9076
  57  283.786
  58  896.4727
  59  405.4701
  60  -103.632
  61  -320.9792
  62  -582.8629
  63  -934.9246
  64  -868.4678
  65  -174.4583
  66  -81.6649
  67  231.7682
  68  220.3384
  69  -43.25384
  70  -294.6613
  71  -415.386
  72  -168.5661
  73  -113.9577
  74  -28.60679
  75  172.5542
  76  77.19913
  77  119.8965
  78  -216.9422
  79  -457.1369
  80  -749.1754
  81  -199.9381
  82  -146.5176
  83  -400.5596
  84  -408.7859
  85  -542.7535
  86  30.08674
  87  -198.8243
  88  -58.94944
  89  227.699
  90  -78.39844
  91  -620.9255
  92  -998.4646
  93  -675.0776
  94  -103.6502
  95  157.3682
  96  -288.1379
  97  -273.558
  98  -23.35647
  99  323.1721
 100  -223.3099
 101  -601.3454
 102  -152.7745
 103  346.3233
 104  189.9276
 105  230.4369
 106  257.2772
 107  540.3872
 108  66.4892
 109  -842.5906
 110  -784.8767
 111  -275.1757
 112  -86.45382
 113  -698.1583
 114  -429.1823
 115  182.7852
 116  -264.5378
 117  -842.8643
 118  -528.9646
 119  -399.0814
 120  -350.7914
 121  -780.3864
 122  -376.0371
 123  27.61515
 124  316.8715
 125  5.771173
 126  -544.9119
 127  -671.2851
 128  -824.8797
 129  -495.023
 130  -295.3683
 131  208.5269
 132  415.9217
 133  79.90253
 134  -436.4598
 135  -641.5744
 136  -445.1542
 137  -416.348
 138  -294.3887
 139  255.2645
 140  -1.364169
 141  -594.1787
 142  -1130.29
 143  -846.1443
 144  -803.7061
 145  -821.5876
 146  -417.6027
 147  -21.74459
 148  -70.02447
 149  -718.4425
 150  -887.3533
 151  -695.3682
 152  -740.7817
 153  -337.0045
 154  -107.4431
 155  -80.16066
 156  309.4806
 157  22.99058
 158  256.4887
 159  646.2469
 160  1110.791
 161  1126.259
 162  234.9394
 163  -95.68855
 164  281.4514
 165  395.4481
 166  6.211092
 167  86.7933
 168  319.6866
 169  -1.761891
 170  -25.53841
 171  -70.62171
 172  351.5904
 173  486.778
 174  34.0974
 175  -524.1505
 176  -451.6646
 177  -241.3127
 178  -453.4834
 179  -175.9677
 180  145.8626
 181  519.2514
 182  420.055
 183  -46.17357
 184  -270.4692
 185  -132.8032
 186  -61.21964
 187  217.5168
 188  480.974
 189  1068.723
 190  819.9881
 191  -354.7126
 192  -353.8536
 193  -68.07596
 194  203.103
 195  -42.1497
 196  -258.8901
 197  -26.67777
 198  -235.3738
 199  -455.2003
 200  -241.0067
 201  -45.39865
 202  58.85297
 203  -58.13458
 204  -294.186
 205  -150.1929
 206  64.33529
 207  -2.197386
 208  -151.5239
 209  -543.0115
 210  -387.3817
 211  -339.8906
 212  -219.3196
 213  346.2969
 214  331.6725
 215  624.1992
 216  -541.3857
 217  -368.4507
 218  -212.7478
 219  332.168
 220  330.008
 221  325.0115
 222  138.6275
 223  -203.8479
 224  -294.9205
 225  -459.6226
 226  -350.2912
 227  -469.2667
 228  -551.5225
 229  -442.9067
 230  74.07726
 231  6.098487
 232  -175.8286
 233  -208.6019
 234  -85.91478
 235  -69.54186
 236  -12.88406
 237  -169.5394
 238  -4.224514
 239  60.61737
 240  -70.79252
 241  -934.1693
 242  -531.3664
 243  -318.5849
 244  465.757
 245  191.6433
 246  -172.1545
 247  -347.2525
 248  -724.6317
 249  -586.7614
 250  -268.6266
 251  169.0792
 252  -49.9975
 253  -262.3476
 254  120.7034
 255  -176.174
 256  110.6094
 257  -265.6114
 258  26.52664
 259  54.63446
 260  56.18679
 261  179.9223
 262  93.80117
 263  -143.6788
 264  -225.3631
 265  243.4403
 266  -110.3222
 267  451.9924
 268  454.4486
 269  319.7825
 270  115.2323
 271  252.1425
 272  697.743
 273  427.3494
 274  107.9002
 275  45.19718
 276  72.54126
 277  -515.1691
 278  -737.0643
 279  -143.831
 280  233.278
 281  503.4384
 282  -27.2913
 283  74.19037
 284  -335.6161
 285  -247.6759
 286  -49.93377
 287  569.63
 288  558.7733
 289  361.8536
 290  266.5258
 291  151.4815
 292  23.49269
 293  -105.4323
 294  500.7561
 295  349.8527
 296  273.2752
 297  501.9883
 298  55.26759
 299  -48.77097
 300  509.9724
 301  492.2899
 302  581.4772
 303  1064.415
 304  1899.22
 305  2380.165
 306  2165.347
 307  1508.659
 308  559.3612
 309  -161.7779
 310  -159.5491
 311  146.9844
 312  425.393
 313  427.0418
 314  172.7103
 315  67.31185
 316  310.7981
 317  -8.782693
 318  186.99
 319  -112.7811
 320  187.6999
 321  636.2957
 322  250.0423
 323  3.541873
 324  -503.3629
 325  -329.1268
 326  -68.51286
 327  -308.3447
 328  -159.0697
 329  -180.9279
 330  368.6422
 331  -58.63651
 332  -507.9638
 333  183.6359
 334  337.1195
 335  -140.2383
 336  84.34706
 337  1264.263
 338  1516.614
 339  421.4207
 340  252.7608
 341  103.1856
 342  -14.96061
 343  -196.3619
 344  91.80659
 345  -24.80502
 346  330.8369
 347  474.5956
 348  87.39932
 349  -117.5744
 350  133.978
 351  428.2799
 352  -494.3184
 353  -250.9007
 354  93.66786
 355  135.9767
 356  113.5509
 357  -787.8372
 358  -37.5467
 359  282.3891
 360  -321.4043
 361  -231.9214
 362  556.3126
 363  207.4522
 364  -234.3376
 365  -311.9103
 366  -44.90986
 367  -123.3982
 368  19.61655
 369  980.5835
 370  613.7138
 371  458.2639
 372  93.5815
 373  -72.06714
 374  194.0487
 375  541.6134
 376  878.1837
 377  476.2199
 378  -139.5339
 379  -192.4835
 380  56.91647
 381  258.9226
 382  71.49961
 383  329.5231
 384  149.5257
 385  -32.80676
 386  88.46449
 387  506.2576
 388  477.0672
 389  452.4378
 390  386.9263
 391  -2.297718
 392  -118.3629
 393  -550.2986
 394  -232.0277
 395  405.2993
 396  269.8102
 397  8.779423
 398  -311.3655
 399  -766.5773
 400  -335.7975
 401  -465.149
 402  -4.750686
 403  661.0668
 404  737.6249
 405  530.8549
 406  -343.5958
 407  -822.3821
 408  -203.2178
 409  123.1616
 410  47.48372
 411  350.9169
 412  -46.63079
 413  -560.3538
 414  -906.6482
 415  -965.8825
 416  -417.294
 417  -466.5747
 418  -215.8376
 419  20.44951
 420  152.4674
 421  402.4465
 422  58.42438
 423  194.9537
 424  450.3543
 425  639.1034
 426  302.1628
 427  -131.5378
 428  112.3411
 429  260.7087
 430  716.9839
 431  150.0367
 432  111.0052
 433  325.7576
 434  -42.44866
 435  -342.3728
 436  148.851
 437  584.9014
 438  30.24648
 439  -74.85782
 440  -385.027
 441  -29.58416
 442  -305.407
 443  -498.4558
 444  -683.6948
 445  -289.9086
 446  67.99996
 447  -419.0073
 448  -415.8561
 449  -448.9988
 450  613.3083
 451  682.5465
 452  639.7507
 453  149.2467
 454  33.29546
 455  329.7568
 456  162.354
 457  582.264
 458  1130.499
 459  1328.39
 460  -192.2874
 461  -110.6223
 462  963.6189
 463  336.1372
 464  -158.8421
 465  102.2398
 466  719.6539
 467  331.924
 468  642.1658
 469  893.3012
 470  742.397
 471  417.6141
 472  -655.1988
 473  -675.8722
 474  -1327.378
 475  -1161.343
 476  -570.2128
 477  -395.3278
 478  -76.61593
 479  -246.2664
 480  -99.95409
 481  -610.7755
 482  -919.9594
 483  -887.5938
 484  -782.6816
 485  -441.399
 486  436.0611
 487  846.0021
 488  565.5341
 489  169.1335
 490  454.0157
 491  -131.7568
 492  -534.6696
 493  -467.6731
 494  220.3609
 495  400.7633
 496  451.1947
 497  279.5297
 498  66.91412
 499  -3.738468
 500  -4.169234
 501  321.8458
 502  576.9142
 503  335.4223
 504  353.3719
 505  153.5629
 506  130.2734
 507  313.6851
 508  564.4014
 509  200.6946
 510  21.03508
 511  -110.589
