# Input file       =  1197052844.123184_cleaned.dat
# Candidate        =  PSR_0332+5434
# Telescope        =  AR
# Epoch_topo       =  58098.778508370182
# Epoch_bary       =  N/A
# T_sample         =  0.002
# Data Folded      =  7340032
# Data Avg         =  0.281345873927681
# Data StdDev      =  4.97963710452262 
# Profile Bins     =  512
# Profile Avg      =  4029.04014056804 
# Profile StdDev   =  596.227070578901 
# Reduced chi-sqr  =  0.616
# Prob(Noise)      <  1   (~0.0 sigma)
# P_topo (ms)      =  714.536703005238  +/- 9.76e-05
# P'_topo (s/s)    =  -0                +/- 5.15e-11
# P''_topo (s/s^2) =  0                 +/- 2.27e-14
# P_bary (ms)      =  N/A
# P'_bary (s/s)    =  N/A
# P''_bary (s/s^2) =  N/A
# P_orb (s)        =  N/A
# asin(i)/c (s)    =  N/A
# eccentricity     =  N/A
# w (rad)          =  N/A
# T_peri           =  N/A
######################################################
   0  4317.578
   1  4211.502
   2  3902.746
   3  4111.183
   4  4421.214
   5  4095.206
   6  4452.261
   7  4102.904
   8  3878.954
   9  3564.899
  10  4124.429
  11  4059.453
  12  3976.47
  13  3931.003
  14  4132.541
  15  4320.949
  16  4202.323
  17  4112.614
  18  3942.708
  19  3992.566
  20  3977.83
  21  3883.02
  22  4242.956
  23  4444.197
  24  4090.551
  25  4174.289
  26  4116.094
  27  3911.438
  28  3889.562
  29  4174.918
  30  3896.839
  31  3577.815
  32  3440.016
  33  3426.879
  34  3709.876
  35  4051.55
  36  4377.668
  37  4088.233
  38  3982.587
  39  4035.272
  40  4077.201
  41  4122.719
  42  4060.87
  43  3995.158
  44  4474.492
  45  4521.033
  46  4058.915
  47  4119.136
  48  3972.531
  49  3914.868
  50  3995.921
  51  3808.038
  52  3631.745
  53  3528.649
  54  3841.586
  55  3830.085
  56  3891.618
  57  3968.136
  58  4066.258
  59  3722.717
  60  3739.87
  61  3876.886
  62  3731.783
  63  4165.098
  64  4097.036
  65  4240.071
  66  3742.879
  67  3445.995
  68  3722.839
  69  3668.583
  70  3938.017
  71  3943.323
  72  4153.893
  73  4024.363
  74  3769.432
  75  4003.677
  76  4354.202
  77  4024.183
  78  3881.435
  79  4018.401
  80  3840.043
  81  3727.099
  82  3532.195
  83  3491.64
  84  3883.087
  85  3928.874
  86  4099.011
  87  3713.312
  88  3876.466
  89  3965.493
  90  3636.562
  91  3421.2
  92  3942.695
  93  4166.693
  94  3902.507
  95  3573.204
  96  3630.741
  97  3961.616
  98  4284.212
  99  3883.25
 100  3466.559
 101  3698.03
 102  3662.734
 103  3685.507
 104  3845.625
 105  3827.474
 106  3591.773
 107  4104.535
 108  3690.826
 109  3042.61
 110  3046.314
 111  3420.592
 112  3693.884
 113  3582.454
 114  3985.954
 115  3756.692
 116  3598.848
 117  3492.961
 118  3407.493
 119  3689.69
 120  3712.06
 121  3950.234
 122  3820.223
 123  3330.892
 124  2983.203
 125  3361.759
 126  3752.074
 127  3530.73
 128  3617.223
 129  3783.689
 130  3811.643
 131  3879.118
 132  3705.459
 133  3750.198
 134  4014.782
 135  4028.677
 136  4083.073
 137  3963.26
 138  3814.086
 139  3653.485
 140  3778.752
 141  3685.564
 142  3696.354
 143  4087.301
 144  3956.104
 145  3823.202
 146  3507.49
 147  3366.471
 148  3329.951
 149  3541.042
 150  3934.617
 151  4022.713
 152  4103.466
 153  3957.671
 154  4068.588
 155  3973.405
 156  4073.562
 157  4137.203
 158  4288.861
 159  3921.317
 160  3756.156
 161  4025.582
 162  3957.375
 163  4079.874
 164  4119.623
 165  4099.519
 166  3793.967
 167  3787.871
 168  3869.592
 169  4002.484
 170  4111.968
 171  4008.982
 172  4267.038
 173  3886.093
 174  3374.649
 175  3292.196
 176  3470.337
 177  3689.212
 178  3591.979
 179  3699.242
 180  3680.707
 181  3423.773
 182  3364.589
 183  3635.648
 184  3549.401
 185  3563.494
 186  3643.507
 187  3849.482
 188  3995.16
 189  4029.059
 190  3704.838
 191  3424.243
 192  3874.53
 193  3872.608
 194  4048.489
 195  4014.27
 196  3383.534
 197  3164.138
 198  3334.597
 199  3626.233
 200  3540.42
 201  3416.198
 202  3587.368
 203  3516.549
 204  3635.669
 205  3335.895
 206  3113.123
 207  3506.877
 208  3867.16
 209  3875.916
 210  3515.464
 211  3582.461
 212  3571.041
 213  3298.046
 214  3731.272
 215  3941.099
 216  3943.405
 217  3921.248
 218  3617.664
 219  4010.836
 220  3985.991
 221  4214.106
 222  4297.857
 223  4540.803
 224  4477.14
 225  4368.178
 226  4767.863
 227  4740.661
 228  4215.437
 229  4186.655
 230  4304.07
 231  4205.191
 232  3922.937
 233  4145.038
 234  4162.896
 235  4472.596
 236  4286.063
 237  4261.117
 238  4275.449
 239  4470.835
 240  4530.543
 241  4420.939
 242  4182.49
 243  4297.991
 244  4576.799
 245  4354.811
 246  4218.839
 247  4115.445
 248  4155.75
 249  4055.83
 250  4204.953
 251  4497.977
 252  4272.038
 253  4503.407
 254  4511.495
 255  4652.459
 256  4878.015
 257  4789.682
 258  5219.542
 259  4956.516
 260  4398.236
 261  4138.662
 262  3744.112
 263  3346.656
 264  3786.677
 265  4378.975
 266  4333.695
 267  3721.478
 268  3630.041
 269  4035.336
 270  3996.625
 271  4115.321
 272  4226.493
 273  4287.607
 274  4432.398
 275  4172.288
 276  4094.329
 277  3972.938
 278  4016.795
 279  4021.128
 280  4092.802
 281  3886.948
 282  3705.962
 283  3784.912
 284  3744.804
 285  3924.807
 286  4102.739
 287  4247.079
 288  4112.718
 289  4042.055
 290  3919.438
 291  3866.471
 292  3900.172
 293  4237.555
 294  4198
 295  3877.021
 296  3752.696
 297  3838.323
 298  3972.594
 299  4028.555
 300  4301.188
 301  4305.865
 302  3946.32
 303  3602.115
 304  3710.13
 305  4143.31
 306  3837.885
 307  4089.969
 308  4663.234
 309  4663.264
 310  4384.884
 311  3836.28
 312  3762.854
 313  3595.497
 314  4512.899
 315  4408.523
 316  4367.066
 317  4140.528
 318  4354.577
 319  4348.511
 320  4063.983
 321  4043.654
 322  3860.395
 323  4049.357
 324  3943.781
 325  3971.099
 326  3961.989
 327  4139.559
 328  3877.019
 329  4130.307
 330  4335.499
 331  4244.378
 332  3875.39
 333  3842.475
 334  3561.153
 335  3615.521
 336  3508.738
 337  3537.66
 338  3764.546
 339  4008.298
 340  3735.725
 341  4068.388
 342  4208.109
 343  4451.212
 344  4068.071
 345  4106.442
 346  4535.622
 347  4490.77
 348  4613.966
 349  4233.888
 350  4548.963
 351  4516.505
 352  4132.277
 353  4132.84
 354  4272.281
 355  4420.817
 356  3999.593
 357  4112.091
 358  3935.688
 359  3856.472
 360  3881.879
 361  3979.952
 362  4019.27
 363  3827.725
 364  3926.569
 365  4026.83
 366  4111.248
 367  3851.969
 368  3984.454
 369  4108.153
 370  4108.241
 371  4102.357
 372  4302.842
 373  4263.799
 374  4358.787
 375  4626.38
 376  4535.855
 377  4187.62
 378  4412.42
 379  4597.732
 380  4792.084
 381  4561.299
 382  4372.957
 383  4310.439
 384  4217.439
 385  4333.356
 386  4545.419
 387  4523.711
 388  4298.705
 389  4164.563
 390  3979.03
 391  4173.814
 392  4384.351
 393  4225.852
 394  4484.209
 395  4504.89
 396  4579.464
 397  4129.755
 398  3928.671
 399  4281.861
 400  4199.193
 401  4628.368
 402  4696.231
 403  3945.288
 404  3782.911
 405  3795.305
 406  3728.148
 407  4127.402
 408  4228.715
 409  4240.2
 410  4168.788
 411  3944.216
 412  3775.299
 413  3821.069
 414  3873.477
 415  4004.11
 416  3818.069
 417  3950.202
 418  4268.341
 419  4668.851
 420  4404.666
 421  4091.748
 422  4145.409
 423  4445.148
 424  4454.263
 425  4264.284
 426  4387.793
 427  3905.768
 428  3999.023
 429  3970.24
 430  4535.228
 431  4548.458
 432  4717.927
 433  4751.822
 434  4767.52
 435  4404.225
 436  4221.906
 437  4338.947
 438  4252.137
 439  4097.592
 440  4024.406
 441  4153.874
 442  3645.458
 443  3691.808
 444  3676.304
 445  3842.435
 446  3978.02
 447  3792.895
 448  3987.287
 449  3778.989
 450  3729.835
 451  4038.758
 452  4326.091
 453  4513.692
 454  4149.752
 455  4050.952
 456  4189.002
 457  4553.221
 458  4638.99
 459  4497.352
 460  4490.794
 461  4134.793
 462  3825.086
 463  3848.135
 464  4089.109
 465  4060.246
 466  4315.155
 467  4614.136
 468  4671.718
 469  3921.922
 470  3992.906
 471  4263.946
 472  4469.359
 473  4591.435
 474  4487.69
 475  4693.539
 476  4441.731
 477  4182.976
 478  3945.666
 479  3898.207
 480  4116.627
 481  4342.558
 482  4190.179
 483  4587.866
 484  4376.407
 485  3977.46
 486  4078.918
 487  4125.855
 488  4400.135
 489  4404.534
 490  4382.566
 491  4228.798
 492  3545.277
 493  3725.358
 494  4116.875
 495  4651.657
 496  4660.29
 497  4189
 498  3999.252
 499  3627.38
 500  3752.217
 501  4149.722
 502  4349.245
 503  4123.09
 504  4121.707
 505  4336.465
 506  4340.364
 507  4275.163
 508  4260.238
 509  4414.695
 510  4198.381
 511  4084.668
