# Input file       =  1197555195.115929_cleaned.dat
# Candidate        =  PSR_0332+5434
# Telescope        =  AR
# Epoch_topo       =  58104.592755971396
# Epoch_bary       =  N/A
# T_sample         =  0.002
# Data Folded      =  7405568
# Data Avg         =  0.265503965853919
# Data StdDev      =  4.08994524575852 
# Profile Bins     =  512
# Profile Avg      =  3840.25747503817 
# Profile StdDev   =  491.88287240644  
# Reduced chi-sqr  =  0.857
# Prob(Noise)      <  0.991   (~0.0 sigma)
# P_topo (ms)      =  714.542488812201  +/- 7.62e-05
# P'_topo (s/s)    =  -0                +/- 3.98e-11
# P''_topo (s/s^2) =  0                 +/- 1.74e-14
# P_bary (ms)      =  N/A
# P'_bary (s/s)    =  N/A
# P''_bary (s/s^2) =  N/A
# P_orb (s)        =  N/A
# asin(i)/c (s)    =  N/A
# eccentricity     =  N/A
# w (rad)          =  N/A
# T_peri           =  N/A
######################################################
   0  3760.105
   1  3812.564
   2  3829.741
   3  3813.508
   4  3919.663
   5  4124.977
   6  3824.747
   7  3409.379
   8  3889.147
   9  4004.845
  10  4017.599
  11  3472.798
  12  3635.64
  13  3877.099
  14  3627.628
  15  3902.236
  16  3723.859
  17  3559.456
  18  3520.09
  19  3764.788
  20  4091.395
  21  4155.325
  22  3918.921
  23  3635.72
  24  3890.43
  25  3745.719
  26  3870.041
  27  4262.486
  28  4331.016
  29  4074.513
  30  3522.776
  31  3903.105
  32  4078.292
  33  3761.992
  34  3604.516
  35  3846.851
  36  3957.791
  37  4091.195
  38  4068.054
  39  4005.653
  40  4251.559
  41  3664.456
  42  3857.807
  43  3891.559
  44  3792.314
  45  4063.589
  46  4385.745
  47  4208.6
  48  3544.11
  49  3215.982
  50  3031.799
  51  3547.729
  52  3951.317
  53  4185.9
  54  3763.443
  55  3115.928
  56  2997.241
  57  3048.585
  58  3563.561
  59  3925.417
  60  3849.79
  61  3578.286
  62  4209.824
  63  3519.876
  64  3246.578
  65  3563.928
  66  3765.189
  67  4005.177
  68  3577.297
  69  3717.768
  70  3708.14
  71  3662.677
  72  3548.613
  73  3491.174
  74  3220.843
  75  3497.182
  76  3908.875
  77  4300.567
  78  4204.852
  79  4318.594
  80  4356.025
  81  3762.304
  82  3596.653
  83  3607.121
  84  3803.313
  85  3889.45
  86  3809.219
  87  3955.99
  88  3788.594
  89  3382.184
  90  3580.013
  91  4071.35
  92  3660.754
  93  3930.939
  94  4340.617
  95  4040.866
  96  3528.989
  97  3230.693
  98  3257.632
  99  3433.108
 100  3758.339
 101  3943.809
 102  3702.79
 103  3539.45
 104  3503.289
 105  3736.602
 106  3600.023
 107  3657.673
 108  3469.038
 109  3898.631
 110  3685.533
 111  3553.261
 112  3640.535
 113  3842.74
 114  3613.372
 115  3582.072
 116  3674.96
 117  3386.439
 118  3784.497
 119  4065.136
 120  4062.198
 121  3817.19
 122  3413.768
 123  3668.354
 124  3402.367
 125  3307.519
 126  3070.104
 127  2879.263
 128  3326.983
 129  3469.31
 130  3529.402
 131  3275.095
 132  3514.3
 133  3779.098
 134  3414.771
 135  3762.747
 136  3816.72
 137  3499.94
 138  3445.476
 139  3773.568
 140  3822.106
 141  3889.372
 142  4153.436
 143  4287.389
 144  3983.365
 145  3865.328
 146  3746.83
 147  3719.111
 148  4051.173
 149  3774.575
 150  3843.579
 151  3523.675
 152  3857.134
 153  3817.069
 154  3694.02
 155  3452.721
 156  3643.68
 157  3583.417
 158  4081.52
 159  4081.473
 160  4075.751
 161  3766.61
 162  4057.428
 163  3414.308
 164  3280.512
 165  3228.131
 166  3506.831
 167  3712.512
 168  3988.256
 169  3774.93
 170  3144.756
 171  2995.62
 172  3626.675
 173  3422.334
 174  3982.975
 175  4258.597
 176  4480.231
 177  4340.651
 178  4129.301
 179  4233.665
 180  4390.783
 181  3984.403
 182  3644.324
 183  3459.205
 184  3351.658
 185  3443.275
 186  3919.268
 187  4291.549
 188  3940.706
 189  3416.511
 190  3621.688
 191  3487.357
 192  4120.366
 193  4041.872
 194  3853.222
 195  4280.975
 196  3657.184
 197  3916.915
 198  3609.903
 199  3740.342
 200  3950.254
 201  4271.161
 202  4517.544
 203  4176.06
 204  3590.174
 205  3387.508
 206  3612.173
 207  3730.561
 208  4025.698
 209  4173.5
 210  3971.705
 211  3697.527
 212  3245.874
 213  3550.609
 214  3978.566
 215  3814.789
 216  3553.852
 217  3720.458
 218  3473.201
 219  3411.093
 220  3504.215
 221  3369.501
 222  3589.369
 223  4013.624
 224  3934.951
 225  4137.077
 226  4002.884
 227  3981.291
 228  3605.03
 229  3724.215
 230  3982.996
 231  3487.953
 232  2842.427
 233  3237.902
 234  4003.924
 235  3616.911
 236  3281.383
 237  3354.719
 238  3481.649
 239  3663.997
 240  3682.228
 241  3695.796
 242  3826.83
 243  3720.416
 244  4002.544
 245  3968.65
 246  3890.431
 247  3522.708
 248  3820.067
 249  3891.819
 250  3723.7
 251  4314.099
 252  4297.625
 253  4176.965
 254  3954.76
 255  3919.673
 256  3783.71
 257  3808.106
 258  4525.886
 259  4622.877
 260  4862.737
 261  4447.637
 262  4476.43
 263  4311.258
 264  4103.001
 265  3647.016
 266  4053.57
 267  4183.073
 268  3815.043
 269  3409.621
 270  3478.401
 271  3631.533
 272  3391.646
 273  3998.933
 274  3872.383
 275  3770.865
 276  4007.469
 277  4475.201
 278  4533.678
 279  3925.961
 280  3685.525
 281  3868.066
 282  3915.063
 283  3907.124
 284  3636.991
 285  3906.823
 286  3706.334
 287  3452.09
 288  3610.291
 289  3798.318
 290  3504.05
 291  3793.766
 292  4007.131
 293  4300.423
 294  4067.88
 295  3736.006
 296  3443.732
 297  3384.821
 298  3293.302
 299  3411.303
 300  3610.428
 301  4015.275
 302  4178.566
 303  3999.942
 304  3981.416
 305  3839.515
 306  3835.354
 307  4509.031
 308  4553.728
 309  4486.098
 310  4962.08
 311  4998.879
 312  4720.379
 313  4644.624
 314  4476.382
 315  4264.045
 316  3976.826
 317  3780.342
 318  3699.454
 319  3449.7
 320  3569.047
 321  3890.418
 322  3934.857
 323  4074.991
 324  4301.869
 325  4198.867
 326  4103.056
 327  4058.989
 328  3901.735
 329  3504.156
 330  3551.468
 331  3804.689
 332  4004.108
 333  3559.27
 334  3743.38
 335  3807.807
 336  3894.011
 337  4204.21
 338  4012.682
 339  3562.042
 340  3738.954
 341  3958.146
 342  4226.58
 343  4382.188
 344  4347.2
 345  4082.623
 346  3928.08
 347  3886.085
 348  4137.208
 349  4450.825
 350  4257.339
 351  4202.005
 352  3984.17
 353  3583.336
 354  3757.668
 355  4015.344
 356  4244.495
 357  4003.154
 358  4246.886
 359  4876.414
 360  4696.427
 361  4486.207
 362  3933.776
 363  3986.767
 364  3781.771
 365  3712.192
 366  3788.024
 367  4082.581
 368  4094.028
 369  4461.324
 370  4406.154
 371  3687.479
 372  3903.815
 373  3977.264
 374  3962.285
 375  3767.548
 376  3771.157
 377  4124.399
 378  4002.863
 379  3678.112
 380  3332.577
 381  3582.465
 382  3457.879
 383  3943.636
 384  4055.389
 385  4005.256
 386  3631.205
 387  3582.591
 388  3859.281
 389  3925.999
 390  4084.069
 391  4195.481
 392  4505.716
 393  4270.844
 394  3634.57
 395  3936.93
 396  3522.386
 397  3203.691
 398  3950.06
 399  3924.747
 400  4015.161
 401  3816.697
 402  3440.662
 403  3608.979
 404  3490.309
 405  3241.503
 406  3700.011
 407  3916.551
 408  4223.628
 409  3855.625
 410  3655.156
 411  3631.928
 412  3688.525
 413  3448.609
 414  3493.871
 415  3504.881
 416  3966.639
 417  3800.151
 418  3577.234
 419  3697.14
 420  3876.344
 421  4572.533
 422  3839.952
 423  3547.391
 424  3745.602
 425  3970.002
 426  3819.314
 427  3938.458
 428  4184.218
 429  4053.413
 430  3948.543
 431  4245.062
 432  3969.572
 433  3754.916
 434  3950.717
 435  3559.527
 436  3638.965
 437  3629.485
 438  3524.78
 439  4229.54
 440  4589.157
 441  4457.209
 442  3919.012
 443  3733.376
 444  3549.923
 445  3563.353
 446  3536.389
 447  3689.716
 448  3439.764
 449  4183.399
 450  3885.549
 451  3784.93
 452  3750.411
 453  3931.727
 454  3708.751
 455  3955.636
 456  4034.277
 457  4025.577
 458  4053.356
 459  3924.946
 460  4144.576
 461  3839.076
 462  3722.204
 463  4183.356
 464  4206.656
 465  3941.509
 466  3916.782
 467  3819.212
 468  4075.69
 469  4005.969
 470  3768.519
 471  3637.793
 472  3563.265
 473  4165.371
 474  4553.866
 475  4346.014
 476  4010.912
 477  4057.443
 478  3949.03
 479  3765.976
 480  4035.891
 481  3911.925
 482  3563.428
 483  3486.744
 484  3678.389
 485  3737.615
 486  3828.501
 487  3452.152
 488  3884.515
 489  4199.403
 490  4007.825
 491  3914.913
 492  3882.27
 493  3706.122
 494  3651.099
 495  3574.323
 496  3897.949
 497  3474.213
 498  3839.873
 499  4100.87
 500  4001.095
 501  3743.753
 502  3648.345
 503  3932.598
 504  3803.199
 505  3775.332
 506  4130.187
 507  4377.167
 508  4134.835
 509  4075.934
 510  3918.857
 511  3595.911
