# Input file       =  1197038256.128744_cleaned.dat
# Candidate        =  PSR_0332+5434
# Telescope        =  AR
# Epoch_topo       =  58098.609665841941
# Epoch_bary       =  N/A
# T_sample         =  0.002
# Data Folded      =  7143424
# Data Avg         =  0.829681763231087
# Data StdDev      =  7.61716768139351 
# Profile Bins     =  512
# Profile Avg      =  11575.3864933571 
# Profile StdDev   =  899.729064287228 
# Reduced chi-sqr  =  0.660
# Prob(Noise)      <  1   (~0.0 sigma)
# P_topo (ms)      =  714.536516392208  +/- 8.31e-05
# P'_topo (s/s)    =  -0                +/- 4.51e-11
# P''_topo (s/s^2) =  0                 +/- 2.04e-14
# P_bary (ms)      =  N/A
# P'_bary (s/s)    =  N/A
# P''_bary (s/s^2) =  N/A
# P_orb (s)        =  N/A
# asin(i)/c (s)    =  N/A
# eccentricity     =  N/A
# w (rad)          =  N/A
# T_peri           =  N/A
######################################################
   0  11240.59
   1  11418.92
   2  11242.25
   3  11492.1
   4  11709.12
   5  11425.55
   6  11996.62
   7  11592.43
   8  11361.2
   9  11532.75
  10  12370.11
  11  11956.28
  12  12446.36
  13  12653.43
  14  12445.04
  15  12960.26
  16  12194.7
  17  11154.85
  18  11482.97
  19  11398.08
  20  12003.81
  21  11606.81
  22  12060.12
  23  12214.24
  24  11529.64
  25  11385.26
  26  10974.28
  27  11940.33
  28  12229.57
  29  12555.59
  30  12595.45
  31  12030.5
  32  12006.92
  33  11427.21
  34  11360.99
  35  10778.56
  36  11552.4
  37  11975.49
  38  12961.51
  39  13035.24
  40  11887.61
  41  11117.39
  42  11341.97
  43  12130.97
  44  12000.06
  45  11942.81
  46  12247.68
  47  12378.08
  48  11310.08
  49  11124.12
  50  11186.63
  51  12290.49
  52  12284.8
  53  12243.19
  54  12640.41
  55  12392.33
  56  11928.27
  57  11725.75
  58  11372.26
  59  11130.01
  60  11344.95
  61  12132.62
  62  12302.38
  63  12360.12
  64  12347.86
  65  11964.17
  66  11437.89
  67  11806.86
  68  11452.8
  69  11437.92
  70  11339.17
  71  12237.62
  72  11926.81
  73  11713.01
  74  11246.16
  75  11350.12
  76  11841.96
  77  12037.1
  78  12020.23
  79  11493.86
  80  11900.67
  81  12050.63
  82  11491.21
  83  11337
  84  12099.25
  85  11984.99
  86  11546.69
  87  12063.49
  88  11854.91
  89  11254.84
  90  11888.71
  91  12427.02
  92  12296.56
  93  12145.91
  94  11762.39
  95  11719.99
  96  11923.44
  97  11687.75
  98  12257.97
  99  12346.98
 100  12478.55
 101  12160.19
 102  11680.46
 103  11360.87
 104  11694.23
 105  11382.08
 106  11636.9
 107  11658.55
 108  11423.1
 109  11531.28
 110  11306.07
 111  10905.81
 112  10525.67
 113  10141.14
 114  10775.63
 115  10825.69
 116  10645.15
 117  10157.59
 118  10378.42
 119  10880.47
 120  10949.97
 121  11765.37
 122  11890.13
 123  11550.58
 124  11095.85
 125  11256.25
 126  11001.73
 127  11067.53
 128  11693.86
 129  11373.5
 130  11298.96
 131  11054.94
 132  10451.51
 133  10823.53
 134  10932.14
 135  11103.22
 136  11713.87
 137  11988.14
 138  12182.84
 139  11660.5
 140  11261.06
 141  11111.73
 142  11440.91
 143  11644.41
 144  12030.47
 145  12069.11
 146  12096.59
 147  11606.73
 148  11469.27
 149  11198.07
 150  10768.88
 151  10468.41
 152  11009.25
 153  11221.48
 154  11205.24
 155  11246.24
 156  11756.24
 157  11295.85
 158  10762.98
 159  11713.87
 160  12020.62
 161  12241.18
 162  11548.32
 163  11093.31
 164  11289.69
 165  11080.24
 166  11357.83
 167  11392.38
 168  11792.78
 169  11583.47
 170  11020.56
 171  10673.71
 172  10387.13
 173  10734.7
 174  11022.72
 175  11090.59
 176  11948.99
 177  11781.24
 178  11994.09
 179  11447.47
 180  11030.34
 181  11569.52
 182  11976.28
 183  11274.18
 184  11210.12
 185  11251.34
 186  12421.96
 187  11955.31
 188  11754.26
 189  10872.23
 190  10457.71
 191  9846.166
 192  10496.79
 193  11995.58
 194  11838.94
 195  12185.58
 196  12204.89
 197  11760.78
 198  11266
 199  10507.24
 200  10786.78
 201  11309.09
 202  11547.32
 203  11419.96
 204  11298.54
 205  11609.08
 206  11827.64
 207  11381.88
 208  11179.02
 209  12026.54
 210  11877.79
 211  12703.5
 212  12405.66
 213  11372.12
 214  11301.69
 215  10926.7
 216  11044.33
 217  11744.52
 218  12135.86
 219  12047
 220  12483.21
 221  12546.83
 222  12033.82
 223  11378.21
 224  11204.27
 225  11710.05
 226  12120.67
 227  12115.82
 228  11639.64
 229  10726.52
 230  11057.54
 231  10855.44
 232  10687.12
 233  11295.39
 234  11867.57
 235  11915.55
 236  11854.9
 237  11539.07
 238  11822.69
 239  12038.32
 240  12113.83
 241  11526.24
 242  11130.7
 243  11612.77
 244  11492.1
 245  11522.64
 246  11659.46
 247  11584.92
 248  11394.68
 249  11337.39
 250  11224.74
 251  11162.22
 252  11128.83
 253  12088.04
 254  12282.95
 255  12310.03
 256  11769.18
 257  11409.54
 258  10869.36
 259  11110.83
 260  11637
 261  11449.78
 262  12061.65
 263  11498.68
 264  11488.11
 265  11553.02
 266  11364.08
 267  11242.96
 268  11056.4
 269  11516.53
 270  11769.12
 271  11736.52
 272  12076.87
 273  12413.11
 274  12599.79
 275  11702.04
 276  12004.24
 277  11914.12
 278  11904.78
 279  11480.78
 280  10958.29
 281  11379.04
 282  11202.08
 283  11708.84
 284  11040.32
 285  11121.15
 286  11539.42
 287  11786.74
 288  11679.43
 289  10879.48
 290  10883.18
 291  10610.5
 292  10754.76
 293  11615.52
 294  11450.63
 295  11646.81
 296  12021.69
 297  11554.81
 298  11097.16
 299  11599.89
 300  11557.03
 301  11892.5
 302  12165.2
 303  12280.11
 304  11851.27
 305  11884.14
 306  11425.11
 307  11624.3
 308  12244.81
 309  12223.19
 310  11797.1
 311  12195.99
 312  12239.58
 313  12897.3
 314  12117.39
 315  11786.79
 316  11357.65
 317  11494.92
 318  11449.14
 319  11728.1
 320  12114.89
 321  11678.28
 322  11507.59
 323  11308.63
 324  11045.57
 325  10631.38
 326  11005.26
 327  11322.26
 328  11503.57
 329  11304.49
 330  11066.42
 331  11311.96
 332  11476.42
 333  12140.96
 334  12400.19
 335  11486.18
 336  12016.42
 337  12411.6
 338  11966.07
 339  11720.25
 340  11979.18
 341  12764.6
 342  12442.25
 343  11530.42
 344  11697.53
 345  11460.12
 346  11410.29
 347  11174.19
 348  11772.05
 349  11785.33
 350  12779.6
 351  12530.65
 352  12030.23
 353  11971.29
 354  11657.53
 355  11457.69
 356  11723.01
 357  12161.53
 358  12405.59
 359  12804.22
 360  11746.09
 361  11604.59
 362  12062.55
 363  11692.58
 364  11375.62
 365  11068.33
 366  11205.52
 367  11517.44
 368  11548.81
 369  11290.58
 370  11432
 371  11213.39
 372  11080.22
 373  11122.91
 374  11276.29
 375  11315.62
 376  11279.91
 377  11540.49
 378  10745.02
 379  10354.87
 380  10808.85
 381  11236.66
 382  10962.31
 383  11373.24
 384  12118.33
 385  12055.91
 386  11480.5
 387  11522.96
 388  11322.39
 389  11660.39
 390  11681.03
 391  11758.48
 392  11988.3
 393  12491.23
 394  12033.25
 395  11218.16
 396  10520.73
 397  10711.31
 398  10973.53
 399  11826.6
 400  12275.44
 401  12395.52
 402  12059.71
 403  11837.32
 404  10976.23
 405  11449.83
 406  11912.72
 407  12271.86
 408  12712.98
 409  12162.15
 410  11958.96
 411  11750.95
 412  11900.24
 413  11611.61
 414  11252.33
 415  11581.18
 416  11847.53
 417  12239.99
 418  11747.4
 419  11890.41
 420  11281.88
 421  10967.28
 422  11798.07
 423  11664.76
 424  11643.06
 425  11949.63
 426  11712.04
 427  11604.66
 428  11772.85
 429  11282.2
 430  11087.25
 431  11426.15
 432  11450.07
 433  11987.55
 434  12414.17
 435  11891.47
 436  11744.7
 437  11597.81
 438  11353.93
 439  11307.88
 440  10936.01
 441  11343.52
 442  11386.13
 443  11199.87
 444  10835.55
 445  11404.63
 446  11649.5
 447  11086.44
 448  10646.33
 449  11186.42
 450  11514.46
 451  11803.88
 452  11374.36
 453  11969.88
 454  11562.79
 455  11416.4
 456  11778.81
 457  11486.43
 458  12054.29
 459  11399.49
 460  11086.37
 461  11011.55
 462  11031.61
 463  10781.92
 464  10364.79
 465  10810.7
 466  11181.3
 467  10595
 468  10291.5
 469  11413.83
 470  11775.96
 471  11200.75
 472  10517.38
 473  10400.39
 474  10443.97
 475  10666.28
 476  11279.12
 477  11835.71
 478  11898.21
 479  11185.49
 480  11034.38
 481  11339.54
 482  12167.66
 483  12325.66
 484  12853.38
 485  12682.08
 486  11885.9
 487  11120.8
 488  11318.21
 489  11706.56
 490  11667.36
 491  11811.69
 492  11422.03
 493  11024.21
 494  11200.22
 495  11274.56
 496  10470.38
 497  10743.45
 498  10995.84
 499  11254.51
 500  10783.39
 501  10999.59
 502  11172.43
 503  10947.05
 504  11917.69
 505  12256.1
 506  12072.87
 507  11990.71
 508  11830.09
 509  11731.64
 510  11290.39
 511  11815.32
