# Input file       =  1197986379.106846_cleaned.dat
# Candidate        =  PSR_0332+5434
# Telescope        =  AR
# Epoch_topo       =  58109.583311421833
# Epoch_bary       =  N/A
# T_sample         =  0.002
# Data Folded      =  7143424
# Data Avg         =  0.182903424235395
# Data StdDev      =  4.9738604505729  
# Profile Bins     =  512
# Profile Avg      =  2551.8677220909  
# Profile StdDev   =  587.505355832013 
# Reduced chi-sqr  =  0.456
# Prob(Noise)      <  1   (~0.0 sigma)
# P_topo (ms)      =  714.547292758884  +/- 0.00105
# P'_topo (s/s)    =  -0                +/- 5.69e-10
# P''_topo (s/s^2) =  0                 +/- 2.58e-13
# P_bary (ms)      =  N/A
# P'_bary (s/s)    =  N/A
# P''_bary (s/s^2) =  N/A
# P_orb (s)        =  N/A
# asin(i)/c (s)    =  N/A
# eccentricity     =  N/A
# w (rad)          =  N/A
# T_peri           =  N/A
######################################################
   0  2717.046
   1  2266.478
   2  2470.303
   3  2609.365
   4  2576.688
   5  2437.081
   6  2469.062
   7  2614.971
   8  2552.18
   9  2900.186
  10  2366.759
  11  2233.399
  12  2342.9
  13  2256.648
  14  1980.959
  15  2192.484
  16  2572.711
  17  1831.064
  18  2203.526
  19  2010.498
  20  2259.954
  21  2446.217
  22  2622.568
  23  2590.145
  24  2156.264
  25  2671.67
  26  2086.278
  27  2216.322
  28  1944.043
  29  2433.408
  30  2397.5
  31  2168.79
  32  2304.371
  33  2264.286
  34  2117.548
  35  1930.607
  36  2396.972
  37  2457.566
  38  2214.4
  39  2367.655
  40  2318.204
  41  2566.382
  42  1826.506
  43  1891.432
  44  2136.562
  45  3024.666
  46  2877.845
  47  2846.224
  48  2880.067
  49  2410.799
  50  2505.045
  51  2628.936
  52  2676.813
  53  2977.756
  54  3254.016
  55  3199.085
  56  2505.909
  57  2817.706
  58  2592.768
  59  2654.686
  60  2608.57
  61  2536.458
  62  2022.775
  63  2171.5
  64  2476.945
  65  2612.607
  66  3128.112
  67  2877.129
  68  2867.081
  69  2798.867
  70  2711.269
  71  2700.101
  72  2544.546
  73  2782.264
  74  2601.752
  75  2387.198
  76  2464.611
  77  2770.303
  78  2701.21
  79  2843.816
  80  2660.455
  81  2606.838
  82  2651.734
  83  2816.498
  84  2846.302
  85  2895.139
  86  2670.253
  87  2671
  88  2648.337
  89  2900.277
  90  2554.579
  91  2537.033
  92  2787.584
  93  2894.917
  94  2972.886
  95  2761.363
  96  2513.316
  97  2566.802
  98  2563.529
  99  2748.705
 100  2881.649
 101  2692.794
 102  2521.571
 103  2435.931
 104  2384.579
 105  2279.489
 106  2481.416
 107  2320.03
 108  2028.715
 109  2206.535
 110  2493.095
 111  2573.307
 112  2158.748
 113  1881.594
 114  2218.913
 115  2253.305
 116  2160.459
 117  2300.081
 118  2594.296
 119  2819.83
 120  2887.451
 121  2199.031
 122  2033.043
 123  2527.684
 124  2689.598
 125  2571.686
 126  2454.852
 127  2689.34
 128  2718.913
 129  2880.169
 130  2786.438
 131  2668.028
 132  2510.954
 133  2609.474
 134  2693.202
 135  2810.065
 136  2499.512
 137  2305.107
 138  2870.305
 139  2859.991
 140  2738.977
 141  2489.018
 142  2876.095
 143  2911.05
 144  2582.581
 145  2589.797
 146  2515.062
 147  2750.222
 148  2707.231
 149  2744.656
 150  2699.729
 151  2522.544
 152  2634.251
 153  2416.569
 154  2637.296
 155  2451.564
 156  2375.526
 157  2401.197
 158  2640.051
 159  2567.944
 160  2486.447
 161  2529.093
 162  2574.852
 163  2651.082
 164  2335.226
 165  2557.861
 166  2693.227
 167  2500.985
 168  2851.065
 169  2915.12
 170  2942.598
 171  2414.12
 172  2556.139
 173  2998.335
 174  2891.513
 175  2633.455
 176  2778.24
 177  2838.433
 178  2547.794
 179  2738.643
 180  2605.017
 181  3312.453
 182  3253.84
 183  2766.976
 184  2752.928
 185  2461.679
 186  2600.745
 187  2348.325
 188  2982.123
 189  2650.042
 190  2597.509
 191  3073.488
 192  2505.712
 193  2710.038
 194  2781.255
 195  2439.199
 196  2191.831
 197  2197.004
 198  2528.444
 199  2169.549
 200  2185.417
 201  2471.749
 202  2378.14
 203  2103.004
 204  1931.912
 205  1769.703
 206  2058.267
 207  2264.477
 208  1844.43
 209  2066.339
 210  2333.855
 211  2476.899
 212  2432.039
 213  2294.275
 214  2134.87
 215  2284.42
 216  2078.068
 217  2357.765
 218  2777.997
 219  2578.358
 220  2395.804
 221  2444.92
 222  2513.885
 223  2992.997
 224  2696.166
 225  2372.715
 226  2607.983
 227  2302.082
 228  2485.206
 229  2484.864
 230  2453.496
 231  2550.111
 232  2367.655
 233  2386.772
 234  2210.666
 235  2185.924
 236  2135.486
 237  2146.198
 238  2674.949
 239  2847.73
 240  2716.577
 241  2600.886
 242  2414.634
 243  2452.384
 244  2451.854
 245  2509.607
 246  2327.186
 247  2357.709
 248  2618.78
 249  2282.883
 250  2400.797
 251  2384.761
 252  2476.462
 253  2540.335
 254  2517.939
 255  2309.821
 256  2264.646
 257  2228.757
 258  2352.855
 259  2465.773
 260  2453.297
 261  2696.042
 262  2295.109
 263  2276.833
 264  2387.598
 265  2658.256
 266  2367.007
 267  2433.305
 268  2636.73
 269  2690.896
 270  2693.54
 271  2664.99
 272  3244.298
 273  2866.946
 274  2585.914
 275  2373.116
 276  2692.247
 277  2444.602
 278  1952.959
 279  2352.505
 280  2515.752
 281  2582.508
 282  2513.019
 283  2694.717
 284  2502.674
 285  2321.877
 286  1945.631
 287  2030.737
 288  2728.779
 289  2357.278
 290  2414.185
 291  2910.872
 292  3069.249
 293  2622.459
 294  2742.673
 295  2832.28
 296  2535.483
 297  2149.902
 298  1976.094
 299  2343.942
 300  2714.038
 301  2725.355
 302  2558.317
 303  2199.813
 304  2074.003
 305  2132.991
 306  2230.794
 307  2217.054
 308  2531.318
 309  2851.514
 310  2949.696
 311  2715.828
 312  2540.909
 313  2327.152
 314  2109.917
 315  1972.245
 316  2176.813
 317  2544.643
 318  2608.088
 319  2695.662
 320  2373.264
 321  2561.781
 322  2581.758
 323  2424.919
 324  2765.982
 325  2732.632
 326  2639.445
 327  2802.667
 328  2587.181
 329  2423.209
 330  2549.828
 331  2848.844
 332  2637.626
 333  2764.953
 334  2683.003
 335  2736.733
 336  2529.742
 337  2719.149
 338  2863.077
 339  3118.812
 340  2679.28
 341  2484.081
 342  2848.568
 343  2720.416
 344  2368.732
 345  2461.528
 346  2651.157
 347  2473.37
 348  2236.376
 349  2358.252
 350  2292.919
 351  2495.693
 352  2299.168
 353  2396.802
 354  2228.292
 355  2283.349
 356  2491.188
 357  2262.34
 358  2466.171
 359  2643.489
 360  2544.302
 361  2104.737
 362  2458.036
 363  2681.477
 364  2577.929
 365  2524.771
 366  2758.622
 367  2409.541
 368  2237.927
 369  2274.975
 370  2176.914
 371  2181.76
 372  2259.443
 373  2067.585
 374  2312.484
 375  2093.855
 376  2259.443
 377  2117.961
 378  2383.729
 379  2479.347
 380  2192.367
 381  2395.914
 382  2481.417
 383  2618.164
 384  2513.684
 385  2304.28
 386  2284.148
 387  2731.326
 388  2299.457
 389  2279.517
 390  2268.87
 391  2242.23
 392  2815.037
 393  2715.13
 394  2569.407
 395  2354.171
 396  2247.471
 397  2438.567
 398  2175.142
 399  2048.384
 400  2567.298
 401  2821.421
 402  2561.203
 403  2627.301
 404  2320.455
 405  2331.892
 406  2322.059
 407  2692.542
 408  3046.666
 409  2653.473
 410  2766.35
 411  2374.938
 412  2521.722
 413  2685.147
 414  2906.512
 415  2971.271
 416  2626.667
 417  2573.2
 418  2247.831
 419  2814.705
 420  2753.633
 421  2474.321
 422  2376.685
 423  2668.904
 424  2748.641
 425  2601.486
 426  2607.504
 427  2784.481
 428  2872.52
 429  2524.078
 430  2468.848
 431  2548.76
 432  2717.384
 433  2604.237
 434  2448.038
 435  2691.514
 436  2532.062
 437  2814.999
 438  2913.315
 439  2466.219
 440  2758.534
 441  2729.34
 442  2426.293
 443  2135.685
 444  2019.543
 445  2228.146
 446  2448.775
 447  2569.532
 448  2658.264
 449  2620.809
 450  2380.476
 451  2201.178
 452  2239.26
 453  2652.763
 454  2655.808
 455  2997.89
 456  2369.886
 457  2710.852
 458  2791.098
 459  2830.81
 460  2490.13
 461  2518.723
 462  2691.515
 463  2750.423
 464  2742.188
 465  2835.378
 466  2775.982
 467  2830.381
 468  3030.573
 469  2803.452
 470  2584.873
 471  2360.432
 472  2492.32
 473  2806.161
 474  3090.787
 475  3136.915
 476  2713.743
 477  2812.767
 478  2665.679
 479  2597.81
 480  2263.716
 481  2543.929
 482  2957.978
 483  2859.552
 484  2770.052
 485  2705.446
 486  2681.366
 487  3014.159
 488  3254.612
 489  3176.211
 490  2984.926
 491  3214.421
 492  3171.74
 493  3218.091
 494  3270.732
 495  3188.839
 496  2958.469
 497  2833.877
 498  3044.762
 499  3371.039
 500  3440.125
 501  3504.592
 502  3176.462
 503  2938.212
 504  2698.624
 505  2481.092
 506  2746.257
 507  2807.298
 508  2797.875
 509  3012.768
 510  3157.747
 511  2874.001
