# Input file       =  1197986379.106846_cleaned.dat
# Candidate        =  PSR_0332+5434
# Telescope        =  AR
# Epoch_topo       =  58109.583311421833
# Epoch_bary       =  N/A
# T_sample         =  0.002
# Data Folded      =  7143424
# Data Avg         =  0.182903424235395
# Data StdDev      =  4.9738604505729  
# Profile Bins     =  512
# Profile Avg      =  2551.86772210628 
# Profile StdDev   =  587.505355832013 
# Reduced chi-sqr  =  0.463
# Prob(Noise)      <  1   (~0.0 sigma)
# P_topo (ms)      =  714.547292692287  +/- 0.00105
# P'_topo (s/s)    =  -0                +/- 5.69e-10
# P''_topo (s/s^2) =  0                 +/- 2.58e-13
# P_bary (ms)      =  N/A
# P'_bary (s/s)    =  N/A
# P''_bary (s/s^2) =  N/A
# P_orb (s)        =  N/A
# asin(i)/c (s)    =  N/A
# eccentricity     =  N/A
# w (rad)          =  N/A
# T_peri           =  N/A
######################################################
   0  2974.51
   1  2434.654
   2  2984.381
   3  2848.628
   4  2429.299
   5  2884.363
   6  2586.553
   7  2313.879
   8  2122.252
   9  2426.088
  10  2404.699
  11  2003.647
  12  2405.749
  13  2466.981
  14  2315.454
  15  1912.484
  16  1817.062
  17  1902.118
  18  2252.678
  19  2009.073
  20  1795.947
  21  2313.789
  22  2444.407
  23  2415.173
  24  2406.649
  25  2121.009
  26  2312.356
  27  2113.814
  28  2193.076
  29  2720.169
  30  2582.722
  31  2491.891
  32  2417.27
  33  2550.716
  34  2688.129
  35  2968.449
  36  2390.929
  37  2619.313
  38  2375.882
  39  2379.165
  40  2480.276
  41  2434.29
  42  2509.9
  43  2489.638
  44  2429.596
  45  2229.049
  46  2193.36
  47  2148.207
  48  2172.867
  49  2349.253
  50  2793.466
  51  2865.811
  52  2666.493
  53  2533.276
  54  2239.292
  55  2559.98
  56  2489.773
  57  2484.883
  58  2261.687
  59  2449.843
  60  2557.104
  61  2174.983
  62  2542.159
  63  2403.647
  64  2470.943
  65  2552.178
  66  2345.515
  67  2387.951
  68  2175.121
  69  2292.354
  70  2400.053
  71  2512.124
  72  2586.173
  73  2513.786
  74  2238.286
  75  2261.48
  76  2565.658
  77  2545.899
  78  2380.682
  79  2537.877
  80  2638.874
  81  2781.801
  82  2619.226
  83  3032.443
  84  3004.365
  85  2760.039
  86  2470.27
  87  2566.065
  88  2586.585
  89  2090.588
  90  2099.41
  91  2487.954
  92  2606.284
  93  2458.303
  94  2661.797
  95  2566.118
  96  2524.167
  97  2065.189
  98  1907.235
  99  2358.176
 100  2717.647
 101  2260.672
 102  2650.165
 103  3141.076
 104  2738.159
 105  2772.502
 106  2688.244
 107  2775.091
 108  2249.355
 109  2008.125
 110  2097.622
 111  2599.143
 112  2863.474
 113  2580.824
 114  2376.48
 115  2054.744
 116  2202.705
 117  2181.132
 118  2157.753
 119  2337.724
 120  2737.392
 121  3035.489
 122  2710.989
 123  2701.549
 124  2323.979
 125  2301.919
 126  2018.635
 127  1997.663
 128  2458.104
 129  2428.381
 130  2809.099
 131  2533.735
 132  2384.006
 133  2616.301
 134  2430.216
 135  2751.368
 136  2727.017
 137  2639.707
 138  2676.195
 139  2828.103
 140  2348.861
 141  2510.692
 142  2766.77
 143  2754.355
 144  2684.422
 145  2605.663
 146  2977.902
 147  2407.106
 148  2755.15
 149  2601.188
 150  3199.622
 151  2917.675
 152  2374.048
 153  2765.715
 154  2783.075
 155  2604.799
 156  2245.87
 157  2673.056
 158  2541.768
 159  2349.007
 160  2310.941
 161  2310.537
 162  2484.533
 163  2254.82
 164  2390.604
 165  2322.378
 166  2254.273
 167  2377.447
 168  2360.982
 169  2372.823
 170  2598.059
 171  2666.487
 172  2183.308
 173  2298.141
 174  2580.435
 175  2708.221
 176  2461.478
 177  2709.943
 178  2615.158
 179  2149.233
 180  2406.658
 181  2162.489
 182  2189.79
 183  2173.75
 184  2222.87
 185  2262.48
 186  2136.875
 187  2144.762
 188  2129.971
 189  2400.405
 190  2377.252
 191  2429.685
 192  2080.145
 193  2523.077
 194  2560.504
 195  2617.075
 196  2448.037
 197  2099.565
 198  2641.751
 199  2517.687
 200  2274.95
 201  2268.583
 202  2167.304
 203  2560.584
 204  2876.412
 205  2620.219
 206  2430.032
 207  2323.266
 208  2291.555
 209  2395.815
 210  2004.016
 211  2327.203
 212  2779.126
 213  2600.395
 214  2669
 215  2501.582
 216  2334.414
 217  2217.696
 218  2455.624
 219  3025.778
 220  2812.865
 221  2730.805
 222  2528.631
 223  2422.286
 224  2633.702
 225  2855.452
 226  2907.978
 227  2788.633
 228  2583.638
 229  2397.987
 230  2504.368
 231  2846.968
 232  2576.807
 233  2397.132
 234  2577.002
 235  2703.608
 236  2642.19
 237  2631.379
 238  2646.908
 239  2921.112
 240  2661.514
 241  2483.205
 242  2470.476
 243  2647.629
 244  2740.689
 245  2456.901
 246  2605.991
 247  2481.568
 248  2763.679
 249  2935.007
 250  2691.295
 251  2460.41
 252  2871.099
 253  2617.54
 254  2223.375
 255  2058.935
 256  2057.944
 257  2391.881
 258  2473.321
 259  2688.395
 260  2671.844
 261  2486.323
 262  2230.963
 263  2146.053
 264  2590.734
 265  2507.792
 266  2965.826
 267  2632.643
 268  2606.828
 269  2685.134
 270  2816.143
 271  2670.313
 272  2431.44
 273  2716.298
 274  2642.273
 275  2874.332
 276  2701.365
 277  2822.433
 278  2751.117
 279  2922.869
 280  3051.223
 281  2458.735
 282  2631.465
 283  2303.742
 284  2807.232
 285  2814.005
 286  3279.908
 287  2843.491
 288  2820.757
 289  2722.34
 290  2571.399
 291  2433.947
 292  2276.174
 293  2950.934
 294  2937.017
 295  2760.341
 296  2678.019
 297  2658.815
 298  2944.02
 299  3120.599
 300  3238.587
 301  2975.292
 302  3201.193
 303  3215.002
 304  3129.769
 305  3254.874
 306  3249.961
 307  3137.31
 308  2710.623
 309  3039.915
 310  3168.965
 311  3458.349
 312  3455.003
 313  3413.807
 314  3062.26
 315  2702.297
 316  2545.928
 317  2556.027
 318  2967.641
 319  2690.983
 320  2925.61
 321  3110.397
 322  3036.035
 323  2829.873
 324  2423.139
 325  2296.665
 326  2561.296
 327  2690.6
 328  2539.721
 329  2380.743
 330  2535.54
 331  2464.144
 332  2929.645
 333  2638.885
 334  2233.675
 335  2264.427
 336  2327.812
 337  2135.735
 338  1913.227
 339  2598.597
 340  2103.181
 341  2029.779
 342  2120.207
 343  2119.344
 344  2336.401
 345  2484.325
 346  2710.695
 347  2292.878
 348  2577.582
 349  2245.062
 350  2259.103
 351  1888.968
 352  2351.324
 353  2375.188
 354  2267.976
 355  2221.286
 356  2229.399
 357  2343.241
 358  1877.313
 359  2252.164
 360  2369.87
 361  2380.514
 362  2296.546
 363  2301.768
 364  2496.884
 365  2090.038
 366  1956.969
 367  1868.143
 368  2707.718
 369  2984.46
 370  2796.891
 371  2965.188
 372  2582.838
 373  2431.926
 374  2551.72
 375  2663.925
 376  2764.892
 377  3260.325
 378  3270.909
 379  2736.248
 380  2597.865
 381  2836.828
 382  2564.797
 383  2665.64
 384  2548.742
 385  2267.965
 386  2049.692
 387  2335.391
 388  2575.294
 389  2839.441
 390  3102.593
 391  2753.374
 392  2992.414
 393  2695.666
 394  2667.454
 395  2551.239
 396  2692.043
 397  2873.368
 398  2376.788
 399  2360.498
 400  2704.251
 401  2711.853
 402  2809.864
 403  2597.757
 404  2768.904
 405  2523.588
 406  2866.858
 407  2729.92
 408  2967.382
 409  2750.308
 410  2607.928
 411  2644.135
 412  2827.757
 413  2776.338
 414  2373.97
 415  2768.982
 416  2841.023
 417  2949.326
 418  2935.478
 419  2487.204
 420  2670.885
 421  2420.133
 422  2788.779
 423  2817.607
 424  2844.417
 425  2486.408
 426  2542.655
 427  2491.271
 428  2189.372
 429  2337.573
 430  2429.68
 431  2249.101
 432  2069.586
 433  2284.662
 434  2585.31
 435  2469.826
 436  1948.531
 437  1993.448
 438  2328.429
 439  2103.29
 440  2260.643
 441  2400.347
 442  2778.287
 443  2916.14
 444  2506.921
 445  2034.251
 446  2233.969
 447  2772.439
 448  2544.814
 449  2529.588
 450  2582.66
 451  2689.492
 452  2841.708
 453  2755.591
 454  2848.437
 455  2471.483
 456  2628.274
 457  2602.977
 458  2775.968
 459  2674.698
 460  2274.594
 461  2736.859
 462  2852.186
 463  2817.218
 464  2497.933
 465  2774.712
 466  2986.931
 467  2672.719
 468  2525.69
 469  2555.26
 470  2705.986
 471  2719.021
 472  2741.877
 473  2692.462
 474  2571.94
 475  2593.668
 476  2487.042
 477  2592.212
 478  2438.813
 479  2518.061
 480  2287.271
 481  2618.245
 482  2577.821
 483  2506.595
 484  2570.849
 485  2455.367
 486  2760.189
 487  2381.636
 488  2431.398
 489  2671.31
 490  2543.401
 491  2725.627
 492  2905.037
 493  2880.574
 494  2701.263
 495  2464.77
 496  2777.361
 497  3048.415
 498  2619.967
 499  2758.647
 500  2889.629
 501  2628.65
 502  2616.752
 503  2669.89
 504  2899.375
 505  3450.895
 506  2956.839
 507  2727.626
 508  2600.067
 509  2474.544
 510  2558.411
 511  2560.539
