# Input file       =  1197842978.102469-PSRB0329-2ms-sampling-dd.dat
# Candidate        =  PSR_0332+5434
# Telescope        =  AR
# Epoch_topo       =  58107.923577574875
# Epoch_bary       =  N/A
# T_sample         =  0.002
# Data Folded      =  7340032
# Data Avg         =  1.92914387032608e-10
# Data StdDev      =  5.06839128474471 
# Profile Bins     =  512
# Profile Avg      =  0.417526845576647
# Profile StdDev   =  606.853878068023 
# Reduced chi-sqr  =  0.615
# Prob(Noise)      <  1   (~0.0 sigma)
# P_topo (ms)      =  714.546064258474  +/- 0.000231
# P'_topo (s/s)    =  -0                +/- 1.22e-10
# P''_topo (s/s^2) =  0                 +/- 5.39e-14
# P_bary (ms)      =  N/A
# P'_bary (s/s)    =  N/A
# P''_bary (s/s^2) =  N/A
# P_orb (s)        =  N/A
# asin(i)/c (s)    =  N/A
# eccentricity     =  N/A
# w (rad)          =  N/A
# T_peri           =  N/A
######################################################
   0  146.6633
   1  6.531084
   2  264.7921
   3  519.2185
   4  615.6549
   5  201.1548
   6  -85.92767
   7  -237.3195
   8  -358.4267
   9  -448.3765
  10  -59.06234
  11  -376.6974
  12  -573.4111
  13  -245.9598
  14  -428.6606
  15  -397.2743
  16  -39.41222
  17  -350.8273
  18  -436.9019
  19  -467.5976
  20  -207.3366
  21  -612.9849
  22  -523.3144
  23  -277.4282
  24  -505.8215
  25  -628.007
  26  -198.6043
  27  76.7132
  28  -208.8437
  29  -265.544
  30  -301.1025
  31  -583.8894
  32  -217.4371
  33  269.8583
  34  93.25793
  35  4.283971
  36  -42.94146
  37  78.12102
  38  293.782
  39  207.053
  40  406.5755
  41  442.6462
  42  98.13524
  43  -58.07734
  44  26.38189
  45  -183.7661
  46  -334.3295
  47  -486.713
  48  -314.1138
  49  -86.21603
  50  29.94857
  51  115.7431
  52  -38.04508
  53  -268.3128
  54  -131.3759
  55  -7.579148
  56  149.7284
  57  519.7653
  58  339.8609
  59  520.9391
  60  618.8841
  61  28.64731
  62  -214.1613
  63  -281.1492
  64  74.86531
  65  530.3535
  66  780.8527
  67  622.999
  68  618.3865
  69  639.6298
  70  492.5452
  71  147.2753
  72  37.23936
  73  216.4069
  74  767.1206
  75  767.5133
  76  528.4457
  77  520.6907
  78  261.6366
  79  -145.5188
  80  159.7751
  81  245.4974
  82  332.4221
  83  751.5538
  84  605.8398
  85  358.474
  86  33.35211
  87  -43.98789
  88  -270.5905
  89  -104.4349
  90  143.1965
  91  -124.5361
  92  -67.06155
  93  764.2697
  94  723.7076
  95  671.4111
  96  877.7856
  97  318.6214
  98  117.0753
  99  631.0529
 100  968.7876
 101  793.455
 102  672.9289
 103  514.6895
 104  276.5079
 105  205.6233
 106  322.0601
 107  635.7878
 108  743.8238
 109  1017.74
 110  877.3076
 111  694.6758
 112  325.8518
 113  80.26823
 114  381.7831
 115  560.6133
 116  898.7292
 117  728.9166
 118  316.1828
 119  105.4984
 120  -71.85261
 121  -138.407
 122  -215.2016
 123  -190.322
 124  -417.6861
 125  -108.5021
 126  91.23813
 127  -10.85781
 128  -55.31648
 129  -73.63931
 130  -325.1843
 131  -258.6362
 132  -116.5825
 133  420.9966
 134  124.41
 135  -215.9787
 136  -57.33242
 137  -118.6601
 138  -156.9996
 139  -242.5795
 140  74.25077
 141  206.7704
 142  88.64616
 143  9.005592
 144  -30.92751
 145  -287.2833
 146  -352.6239
 147  -187.5936
 148  123.9862
 149  417.6918
 150  398.4073
 151  40.49236
 152  -146.0568
 153  -337.1338
 154  -354.4981
 155  -595.8735
 156  -250.8581
 157  -227.0369
 158  -442.4026
 159  -246.8309
 160  -428.0695
 161  -154.0507
 162  -412.6836
 163  -500.5066
 164  -470.7325
 165  -405.6414
 166  -411.8369
 167  -467.5514
 168  -649.4916
 169  -622.5808
 170  -495.9612
 171  -721.8199
 172  -752.1328
 173  -634.022
 174  -287.63
 175  -19.01637
 176  -179.9247
 177  -380.6944
 178  -494.2509
 179  -534.9421
 180  -371.3135
 181  -256.625
 182  -147.5926
 183  -162.9973
 184  22.81731
 185  -188.8643
 186  -103.8622
 187  -249.416
 188  -270.2166
 189  -537.0618
 190  -225.7958
 191  -311.2676
 192  -346.3518
 193  141.8766
 194  -59.54051
 195  -332.2724
 196  -279.7661
 197  -486.4892
 198  -409.2328
 199  -284.3589
 200  165.9145
 201  -15.98998
 202  -277.2104
 203  -77.69086
 204  3.722684
 205  -298.2849
 206  -180.8518
 207  129.4216
 208  368.5867
 209  144.9086
 210  155.5133
 211  468.0588
 212  72.49538
 213  -65.23636
 214  99.03854
 215  0.3463534
 216  431.9064
 217  540.1035
 218  560.4117
 219  633.5919
 220  489.1811
 221  347.8756
 222  291.2706
 223  139.8088
 224  19.42896
 225  0.9098707
 226  -1.42868
 227  174.8292
 228  218.0651
 229  -52.11862
 230  124.651
 231  350.2277
 232  658.2044
 233  360.5411
 234  -33.23132
 235  10.72037
 236  -21.78909
 237  246.7217
 238  -14.71986
 239  63.37119
 240  -59.04832
 241  1.944178
 242  -173.4993
 243  -88.0209
 244  13.90723
 245  209.874
 246  -97.32484
 247  176.8007
 248  123.4868
 249  -422.0482
 250  221.7747
 251  286.9833
 252  203.2111
 253  430.8292
 254  439.7217
 255  383.3532
 256  165.355
 257  259.3416
 258  508.0099
 259  563.6215
 260  698.7016
 261  587.2913
 262  797.8397
 263  557.6945
 264  408.1661
 265  459.9709
 266  537.6977
 267  487.5452
 268  531.4719
 269  1066.057
 270  677.3826
 271  247.9259
 272  369.0965
 273  98.0785
 274  157.5289
 275  303.0523
 276  269.0536
 277  114.39
 278  356.3881
 279  438.7631
 280  435.0098
 281  281.472
 282  -23.44141
 283  -1.842136
 284  93.78784
 285  493.527
 286  723.8942
 287  399.6318
 288  349.2079
 289  394.4642
 290  416.0493
 291  441.9952
 292  102.3841
 293  317.1022
 294  484.3253
 295  384.0878
 296  405.1182
 297  186.2259
 298  241.3748
 299  266.0236
 300  24.85971
 301  -91.3866
 302  52.1466
 303  -33.77711
 304  -158.1824
 305  -86.15675
 306  -13.80953
 307  -99.64069
 308  215.0771
 309  119.9463
 310  -30.59573
 311  248.4279
 312  -276.284
 313  -370.1119
 314  -436.2591
 315  -187.3482
 316  -394.0471
 317  -447.3327
 318  105.3845
 319  -84.70473
 320  -96.97984
 321  -281.2365
 322  -321.875
 323  -305.0334
 324  -75.56158
 325  -386.7517
 326  -362.5174
 327  -331.8173
 328  -401.4366
 329  -277.5846
 330  -87.34132
 331  -25.89627
 332  82.25314
 333  8.401454
 334  -72.47411
 335  -229.3428
 336  -186.962
 337  -272.0663
 338  -183.3581
 339  -471.7783
 340  -654.228
 341  -386.1261
 342  -199.0221
 343  215.347
 344  187.7003
 345  -18.77333
 346  -390.4648
 347  -7.743617
 348  45.39194
 349  -53.96508
 350  -165.1606
 351  -166.1156
 352  -219.7587
 353  -61.99366
 354  256.9246
 355  -196.3795
 356  -361.1375
 357  -399.0306
 358  -407.7226
 359  -252.4298
 360  -444.0001
 361  -295.6347
 362  -202.3489
 363  -291.5491
 364  -145.486
 365  -360.1639
 366  -8.783779
 367  -114.6848
 368  -169.6644
 369  97.8208
 370  250.5593
 371  -3.716058
 372  -378.4224
 373  -187.1939
 374  -83.43613
 375  -416.407
 376  -264.5446
 377  -306.3359
 378  -107.2491
 379  -137.9132
 380  13.77522
 381  -134.3256
 382  -217.2386
 383  -169.4476
 384  -3.00309
 385  -70.15926
 386  184.4603
 387  214.9478
 388  218.6568
 389  268.8101
 390  293.1286
 391  355.1314
 392  295.0136
 393  399.4981
 394  382.5132
 395  -95.87801
 396  -104.4517
 397  260.5467
 398  187.3087
 399  384.7161
 400  122.1224
 401  -66.39101
 402  9.175815
 403  -23.29425
 404  -119.9401
 405  -206.1527
 406  -336.5296
 407  -103.2162
 408  -277.2247
 409  -210.6151
 410  109.2065
 411  10.50359
 412  176.8014
 413  71.79236
 414  -380.8339
 415  -188.9224
 416  -188.8593
 417  46.41956
 418  59.50481
 419  157.9637
 420  -25.11748
 421  107.2601
 422  299.9563
 423  -28.93694
 424  -25.20481
 425  251.3499
 426  400.0364
 427  218.0385
 428  -28.4245
 429  156.1085
 430  349.4877
 431  238.8044
 432  404.8016
 433  191.7951
 434  50.51924
 435  -267.2314
 436  -118.8395
 437  -142.8334
 438  58.16061
 439  -30.79791
 440  -154.0603
 441  -318.7773
 442  -344.3359
 443  -142.8119
 444  -5.617351
 445  -130.0302
 446  -492.3794
 447  -440.8862
 448  -368.1896
 449  3.507111
 450  -162.8168
 451  194.7549
 452  319.3806
 453  208.6987
 454  209.4825
 455  -10.13198
 456  129.6673
 457  155.0474
 458  41.12428
 459  100.0242
 460  169.8761
 461  178.0258
 462  88.89703
 463  -31.11345
 464  -63.08189
 465  -160.1616
 466  -278.1606
 467  -387.6345
 468  2.47024
 469  479.2409
 470  211.2564
 471  -173.3925
 472  -284.6151
 473  -472.0685
 474  -198.4527
 475  -164.5829
 476  -279.274
 477  -386.1405
 478  -171.5228
 479  -112.9337
 480  -327.5261
 481  -47.38702
 482  -107.5626
 483  -264.3651
 484  -201.2729
 485  -344.7647
 486  -433.6282
 487  -209.3071
 488  -517.0128
 489  -376.8252
 490  -254.0856
 491  -170.4249
 492  -461.5863
 493  -381.2965
 494  -597.4473
 495  -424.9558
 496  -260.3271
 497  -38.62868
 498  -95.63165
 499  -542.3585
 500  -774.8249
 501  -469.7974
 502  -577.9705
 503  -453.9485
 504  -298.2277
 505  -556.0803
 506  -701.7371
 507  -931.3804
 508  -383.5497
 509  -643.8788
 510  -431.4302
 511  -134.4353
