# Input file       =  1197914847.107016_cleaned.dat
# Candidate        =  PSR_0332+5434
# Telescope        =  AR
# Epoch_topo       =  58108.755394757129
# Epoch_bary       =  N/A
# T_sample         =  0.002
# Data Folded      =  7340032
# Data Avg         =  0.182591794140795
# Data StdDev      =  4.28612055921581 
# Profile Bins     =  256
# Profile Avg      =  5235.20762801945 
# Profile StdDev   =  725.760581691273 
# Reduced chi-sqr  =  0.484
# Prob(Noise)      <  1   (~0.0 sigma)
# P_topo (ms)      =  714.546534062254  +/- 0.00172
# P'_topo (s/s)    =  -0                +/- 9.08e-10
# P''_topo (s/s^2) =  0                 +/- 4.01e-13
# P_bary (ms)      =  N/A
# P'_bary (s/s)    =  N/A
# P''_bary (s/s^2) =  N/A
# P_orb (s)        =  N/A
# asin(i)/c (s)    =  N/A
# eccentricity     =  N/A
# w (rad)          =  N/A
# T_peri           =  N/A
######################################################
   0  4224.108
   1  5381.041
   2  5095.455
   3  5276.063
   4  4714.984
   5  5243.659
   6  5576.397
   7  5262.147
   8  5352.799
   9  4913.903
  10  4784.324
  11  5163.294
  12  4907.355
  13  5266.266
  14  5198.726
  15  5524.565
  16  5913.714
  17  5584.275
  18  5327.461
  19  5564.671
  20  5371.42
  21  5342.149
  22  5222.52
  23  5868.42
  24  5985.133
  25  5258.306
  26  4550.344
  27  5398.455
  28  5083.638
  29  5058.93
  30  5110.551
  31  5397.519
  32  5205.616
  33  4422.441
  34  4498.738
  35  4690.527
  36  5071.604
  37  4847.004
  38  4459.476
  39  5105.209
  40  4789.455
  41  5079.965
  42  5140.286
  43  4998.356
  44  5192.8
  45  5318.088
  46  5554.386
  47  5360.086
  48  5131.434
  49  5395.104
  50  5779.837
  51  6155.071
  52  5166.771
  53  5476.967
  54  5528.74
  55  5481.27
  56  5524.117
  57  5033.136
  58  5221.344
  59  5381.059
  60  5798.638
  61  5465.649
  62  5846.927
  63  4896.197
  64  5297.968
  65  4849.326
  66  5270.091
  67  4972.077
  68  5029.964
  69  5592.434
  70  5984.095
  71  5230.54
  72  5275.055
  73  5485.961
  74  5397.049
  75  5622.292
  76  5046.299
  77  4875.039
  78  5171.835
  79  5725.691
  80  5097.979
  81  5638.639
  82  5078.058
  83  5499.126
  84  5316.169
  85  5565.111
  86  5112.798
  87  5269.34
  88  5070.754
  89  5433.382
  90  5315.04
  91  5666.935
  92  5309.696
  93  5354.414
  94  5527.144
  95  5082.67
  96  5152.387
  97  5285.476
  98  5706.683
  99  6111.665
 100  6001.044
 101  5789.763
 102  5085.872
 103  5783.002
 104  5888.636
 105  4913.079
 106  4797.782
 107  6268.336
 108  5508.443
 109  4703.723
 110  5399.854
 111  5220.332
 112  5037.469
 113  6025.556
 114  6389.698
 115  5278.253
 116  5715.441
 117  5662.655
 118  5031.31
 119  4793.332
 120  5619.173
 121  6177.132
 122  5236.33
 123  5004.993
 124  5804.155
 125  5667.436
 126  4683.83
 127  4843.528
 128  4969.6
 129  4774.946
 130  4738.314
 131  4973.038
 132  5684.108
 133  5035.122
 134  5312.988
 135  5106.892
 136  4812.499
 137  4884.495
 138  4123.593
 139  5163.958
 140  5333.992
 141  5421.985
 142  4793.119
 143  5038.319
 144  5672.582
 145  4822.812
 146  5219.371
 147  5571.612
 148  5393.967
 149  5279.953
 150  5256.109
 151  5385.543
 152  5091.75
 153  5520.229
 154  6681.251
 155  6681.361
 156  6460.221
 157  6439.896
 158  5927.04
 159  5229.452
 160  5960.501
 161  5210.747
 162  5038.407
 163  4725.894
 164  5737.002
 165  5703.902
 166  5325.767
 167  4948.981
 168  5924.377
 169  5526.718
 170  5518.631
 171  5331.266
 172  5034.229
 173  6032.902
 174  5935.596
 175  5713.008
 176  5757.521
 177  5056.343
 178  5066.95
 179  5338.224
 180  4779.257
 181  4976.234
 182  5234.148
 183  5525.308
 184  5346.338
 185  5613.662
 186  5593.693
 187  5222.079
 188  5190.05
 189  5097.599
 190  4956.238
 191  4653.153
 192  5022.076
 193  4677.616
 194  4917.452
 195  5462.844
 196  4701.513
 197  4330.208
 198  4248.246
 199  4418.828
 200  4970.201
 201  4843.711
 202  4627.71
 203  5342.102
 204  5087.714
 205  5107.908
 206  4909.802
 207  5861.102
 208  5356.945
 209  5744.7
 210  5315.978
 211  4932.192
 212  4380.392
 213  5299.813
 214  4925.995
 215  4500.521
 216  5171.949
 217  5031.831
 218  5012.874
 219  5647.66
 220  5087.875
 221  4973.646
 222  5231.084
 223  5073.43
 224  5051.322
 225  5175.806
 226  5027.666
 227  4399.769
 228  4639.341
 229  4737.476
 230  4400.321
 231  4662.455
 232  5504.521
 233  4896.604
 234  5350.246
 235  5486.097
 236  4978.717
 237  4854.327
 238  4796.842
 239  4501.087
 240  5242.49
 241  4776.336
 242  4363.455
 243  4987.087
 244  4972.207
 245  5124.309
 246  5288.209
 247  5044.957
 248  5437.645
 249  5066.195
 250  4640.017
 251  4633.741
 252  4776.346
 253  5131.368
 254  5497.278
 255  4989.929
