# Input file       =  1197813510.105772_cleaned.dat
# Candidate        =  PSR_0332+5434
# Telescope        =  AR
# Epoch_topo       =  58107.582512798290
# Epoch_bary       =  N/A
# T_sample         =  0.002
# Data Folded      =  7143424
# Data Avg         =  0.186773699245826
# Data StdDev      =  4.62012632335509 
# Profile Bins     =  512
# Profile Avg      =  2605.90802915392 
# Profile StdDev   =  545.722781442117 
# Reduced chi-sqr  =  0.763
# Prob(Noise)      <  1   (~0.0 sigma)
# P_topo (ms)      =  714.545394576739  +/- 6.18e-05
# P'_topo (s/s)    =  -0                +/- 3.35e-11
# P''_topo (s/s^2) =  0                 +/- 1.52e-14
# P_bary (ms)      =  N/A
# P'_bary (s/s)    =  N/A
# P''_bary (s/s^2) =  N/A
# P_orb (s)        =  N/A
# asin(i)/c (s)    =  N/A
# eccentricity     =  N/A
# w (rad)          =  N/A
# T_peri           =  N/A
######################################################
   0  2955.735
   1  3210.311
   2  2938.969
   3  3021.746
   4  2811.871
   5  2951.872
   6  3192.097
   7  2917.285
   8  2766.659
   9  2568.085
  10  2747.634
  11  2628.577
  12  2645.144
  13  2297.401
  14  2665.191
  15  2647.451
  16  2914.38
  17  2807.959
  18  2371.874
  19  2774.636
  20  2844.17
  21  2768.486
  22  2499.596
  23  2797.434
  24  2414.325
  25  2383.758
  26  2715.211
  27  2754.729
  28  2642.575
  29  2469.4
  30  2639.992
  31  2993.389
  32  2987.281
  33  2978.157
  34  2562.341
  35  2826.715
  36  3009.28
  37  2791.454
  38  2309.887
  39  2705.658
  40  2690.826
  41  2306.666
  42  2253.199
  43  2462.277
  44  2658.516
  45  2402.166
  46  2504.192
  47  2347.811
  48  2301.5
  49  2873
  50  2682.654
  51  2747.269
  52  2677.565
  53  2751.877
  54  2484.933
  55  2377.504
  56  2231.003
  57  1994.766
  58  2308.782
  59  1984.557
  60  2339.788
  61  2726.764
  62  2383.544
  63  1958.877
  64  2103.946
  65  2379.609
  66  2154.646
  67  2519.032
  68  2792.817
  69  3057.342
  70  2607.151
  71  2270.546
  72  2342.304
  73  2400.56
  74  2386.381
  75  2408.202
  76  2746.549
  77  2418.461
  78  2121.003
  79  2566.609
  80  2648.138
  81  2286.31
  82  2405.454
  83  2815.656
  84  3058.085
  85  3198.768
  86  3274.063
  87  3207.062
  88  2737.038
  89  2810.94
  90  2716.239
  91  2348.205
  92  2801.266
  93  2823.617
  94  3089.813
  95  2548.278
  96  3054.265
  97  3232.66
  98  3443.81
  99  3289.039
 100  3667.165
 101  3967.179
 102  3258.835
 103  2996.96
 104  2526.398
 105  2829.562
 106  2248.709
 107  2327.32
 108  2513.775
 109  2358.08
 110  2436.855
 111  2559.881
 112  2600.381
 113  2226.7
 114  1960.993
 115  2187.642
 116  2361.444
 117  2410.112
 118  2568.073
 119  2704.248
 120  2258.26
 121  2441.008
 122  2516.132
 123  2374.727
 124  2158.085
 125  2056.814
 126  2668.678
 127  2561.179
 128  2573.735
 129  2250.586
 130  2249.953
 131  2501.343
 132  2725.193
 133  2916.143
 134  2524.298
 135  2482.917
 136  2766.638
 137  3053.072
 138  2540.296
 139  2283.149
 140  2703.725
 141  2814.922
 142  2447.684
 143  2825.594
 144  2749.94
 145  2225.023
 146  2536.783
 147  2406.68
 148  2492.852
 149  2442.029
 150  2850.069
 151  2819.404
 152  2373.706
 153  2394.337
 154  2219.497
 155  2224.16
 156  2410.556
 157  2446.767
 158  2305.198
 159  2606.576
 160  2404.312
 161  2554.952
 162  2311.911
 163  2043.739
 164  2513.493
 165  2208.799
 166  2605.386
 167  2502.162
 168  3040.171
 169  2999.754
 170  2584.622
 171  2237.875
 172  2340.616
 173  2163.918
 174  2033.952
 175  2486.251
 176  2655.422
 177  2404.392
 178  2381.243
 179  2354.978
 180  2425.177
 181  1900.661
 182  2296.294
 183  2771.35
 184  2863.627
 185  2666.897
 186  2374.806
 187  2346.301
 188  1807.034
 189  2273.825
 190  2488.467
 191  2789.501
 192  2636.523
 193  2621.508
 194  2966.709
 195  2556.034
 196  2679.695
 197  2902.426
 198  2919.719
 199  2221.951
 200  2780.735
 201  3101.192
 202  3022.862
 203  2969.032
 204  2805.98
 205  2620.214
 206  2318.471
 207  2564.772
 208  2539.986
 209  2478.171
 210  2355.651
 211  2587.232
 212  2728.828
 213  2428.273
 214  2636.89
 215  3105.524
 216  3471.843
 217  3172.909
 218  2961.417
 219  2794.768
 220  1856.612
 221  2444.854
 222  2813.746
 223  2527.684
 224  2204.585
 225  2193.622
 226  2190.817
 227  1872.65
 228  2084.003
 229  2312.991
 230  2319.594
 231  1955.12
 232  1872.689
 233  1982.074
 234  2447.69
 235  2358.11
 236  2517.163
 237  2213.453
 238  1868.717
 239  1856.648
 240  2261.149
 241  2322.316
 242  1773.86
 243  1780.508
 244  2053.428
 245  1923.355
 246  2605.916
 247  2971.517
 248  3060.897
 249  2445.685
 250  2651.19
 251  2595.004
 252  2626.656
 253  2074.037
 254  2448.91
 255  2729.711
 256  2204.378
 257  2442.023
 258  2780.184
 259  2571.357
 260  2043.672
 261  2738.747
 262  2494.717
 263  1950.531
 264  1884.929
 265  2450.742
 266  2643.267
 267  2619.155
 268  3081.667
 269  2918.313
 270  2912.376
 271  2902.614
 272  2397.177
 273  2501.627
 274  2237.452
 275  2645.989
 276  2691.315
 277  2805.861
 278  2619.235
 279  2850.081
 280  2623.571
 281  2508.496
 282  2939.87
 283  3081.122
 284  3010.699
 285  2444.502
 286  2430.311
 287  2762.16
 288  2527.487
 289  2811.896
 290  3109.717
 291  3122.546
 292  2274.552
 293  2659.889
 294  2698.141
 295  1954.03
 296  2100.351
 297  2861.962
 298  3235.94
 299  2816.765
 300  2794.634
 301  2940.869
 302  2712.008
 303  2152.191
 304  2422.269
 305  2711.898
 306  2370.172
 307  2423.948
 308  2236.247
 309  2519.26
 310  1801.367
 311  2300.684
 312  2529.313
 313  2193.055
 314  1911.355
 315  2392.544
 316  2524.419
 317  2297.085
 318  2604.001
 319  2726.573
 320  2591.637
 321  2149.71
 322  2155.981
 323  2344.403
 324  2222.201
 325  2408.438
 326  2545.164
 327  2492.126
 328  2229.592
 329  2560.981
 330  2955.412
 331  2401.362
 332  2510.804
 333  2801.654
 334  3061.395
 335  2900.562
 336  2359.49
 337  2205.703
 338  2181.627
 339  2087.413
 340  2087.897
 341  2499.856
 342  2676.696
 343  2514.767
 344  2886.927
 345  2703.163
 346  2555.672
 347  2497.653
 348  3155.942
 349  2493.632
 350  2692.625
 351  2951.568
 352  2691.021
 353  2337.275
 354  2332.61
 355  2432.441
 356  2300.94
 357  2329.654
 358  2399.268
 359  2617.193
 360  2152.335
 361  2197.367
 362  2395.191
 363  2392.855
 364  2540.906
 365  3069.307
 366  3072.635
 367  2906.935
 368  2245.171
 369  2242.78
 370  2587.161
 371  2453.193
 372  2269.945
 373  2488.709
 374  2201.777
 375  2270.559
 376  2805.074
 377  2997.987
 378  2490.655
 379  2828.15
 380  3348.376
 381  2616.806
 382  2687.042
 383  2700.439
 384  2421.877
 385  2392.03
 386  2568.368
 387  2593.513
 388  2365.716
 389  2767.374
 390  2676.814
 391  2760.919
 392  2194.499
 393  2607.568
 394  2347.794
 395  2183.63
 396  2790.854
 397  2893.729
 398  3139.673
 399  3093.856
 400  2766.82
 401  2576.554
 402  2573.185
 403  2515.279
 404  2614.279
 405  2219.325
 406  2409.92
 407  2690.769
 408  2583.475
 409  2453.854
 410  2168.704
 411  2317.64
 412  2513.236
 413  2754.83
 414  2716.053
 415  2937.15
 416  2703.729
 417  2588.031
 418  2413.819
 419  2194.903
 420  2456.283
 421  2376.686
 422  2402.552
 423  2688.142
 424  2556.496
 425  2340.095
 426  2300.238
 427  2866.029
 428  2850.371
 429  3041.119
 430  2803.34
 431  3167.112
 432  3011.878
 433  2803.742
 434  2853.729
 435  2717.4
 436  2907.732
 437  2799.014
 438  3247.519
 439  2771.756
 440  2647.465
 441  3308.623
 442  3468.174
 443  3066.731
 444  2599.729
 445  2734.609
 446  2889.905
 447  3787.967
 448  3863.411
 449  3423.15
 450  3109.792
 451  2613.836
 452  2690.627
 453  2422.128
 454  2560.419
 455  2907.284
 456  2951.679
 457  2500.018
 458  2499.972
 459  2760.31
 460  2419.277
 461  2870.637
 462  3080.625
 463  3196.14
 464  2891.784
 465  2858.942
 466  3074.581
 467  2384.096
 468  2020.527
 469  2259.892
 470  2397.888
 471  2516.195
 472  2936.759
 473  3087.067
 474  2917.246
 475  2858.363
 476  2649.715
 477  2928.729
 478  2847.2
 479  3502.466
 480  3258.864
 481  2841.363
 482  2544.512
 483  2839.525
 484  2831.735
 485  2807.898
 486  2844.466
 487  2499.077
 488  2664.406
 489  2385.782
 490  3018.415
 491  3043.929
 492  2652.385
 493  2310.282
 494  2744.258
 495  3050.876
 496  3035.761
 497  3108.787
 498  3004.171
 499  2591.925
 500  2430.518
 501  2806.708
 502  3292.321
 503  3134.625
 504  3133.289
 505  3288.733
 506  3405.574
 507  3174.559
 508  2418.237
 509  2543.394
 510  2593.535
 511  2392.124
