# Input file       =  1197986379.106846_cleaned.dat
# Candidate        =  PSR_0332+5434
# Telescope        =  AR
# Epoch_topo       =  58109.583311421833
# Epoch_bary       =  N/A
# T_sample         =  0.002
# Data Folded      =  7143424
# Data Avg         =  0.182903424235395
# Data StdDev      =  4.9738604505729  
# Profile Bins     =  256
# Profile Avg      =  5103.73544421256 
# Profile StdDev   =  830.858042184464 
# Reduced chi-sqr  =  0.533
# Prob(Noise)      <  1   (~0.0 sigma)
# P_topo (ms)      =  714.547292692287  +/- 0.00105
# P'_topo (s/s)    =  -0                +/- 5.71e-10
# P''_topo (s/s^2) =  0                 +/- 2.59e-13
# P_bary (ms)      =  N/A
# P'_bary (s/s)    =  N/A
# P''_bary (s/s^2) =  N/A
# P_orb (s)        =  N/A
# asin(i)/c (s)    =  N/A
# eccentricity     =  N/A
# w (rad)          =  N/A
# T_peri           =  N/A
######################################################
   0  5409.164
   1  5833.01
   2  5313.662
   3  4900.431
   4  4548.34
   5  4408.346
   6  4872.731
   7  4227.938
   8  3719.18
   9  4261.751
  10  4109.736
  11  4859.581
  12  4527.659
  13  4426.17
  14  4913.245
  15  5074.614
  16  4967.986
  17  5656.578
  18  5010.242
  19  4755.047
  20  4914.565
  21  4999.538
  22  4658.645
  23  4341.567
  24  4522.121
  25  5659.277
  26  5199.77
  27  4799.271
  28  4974.655
  29  4711.53
  30  4732.087
  31  4945.805
  32  5023.122
  33  4733.466
  34  4467.475
  35  4912.177
  36  5099.958
  37  4499.766
  38  5111.558
  39  4918.559
  40  5420.675
  41  5651.668
  42  5764.404
  43  5036.334
  44  4677.173
  45  4587.364
  46  5064.587
  47  5227.916
  48  4589.356
  49  4265.411
  50  4978.319
  51  5791.241
  52  5510.661
  53  5463.335
  54  4257.48
  55  4696.765
  56  5444.298
  57  4431.224
  58  4383.837
  59  4495.477
  60  5772.881
  61  5412.538
  62  4625.898
  63  4016.298
  64  4886.485
  65  5342.835
  66  5000.307
  67  5181.584
  68  5366.724
  69  5504.297
  70  4859.552
  71  5521.125
  72  5290.085
  73  5385.008
  74  5356.338
  75  6117.296
  76  5139.763
  77  5387.874
  78  4918.926
  79  4890.774
  80  4621.479
  81  4739.353
  82  4712.981
  83  4631.719
  84  4733.804
  85  5264.546
  86  4481.449
  87  5288.656
  88  5171.421
  89  4764.391
  90  4569.147
  91  4363.54
  92  4485.35
  93  4281.637
  94  4530.375
  95  4806.938
  96  4603.223
  97  5177.579
  98  4547.602
  99  5159.438
 100  4543.533
 101  4727.888
 102  5496.631
 103  4753.298
 104  4687.37
 105  4331.219
 106  5379.521
 107  5170.581
 108  4552.11
 109  5481.401
 110  5543.67
 111  4950.917
 112  5489.153
 113  5696.612
 114  4981.625
 115  5351.336
 116  4973.938
 117  5280.611
 118  5273.569
 119  5568.02
 120  5144.719
 121  5118.105
 122  5197.59
 123  5087.559
 124  5698.686
 125  5151.705
 126  5488.639
 127  4282.31
 128  4449.824
 129  5161.716
 130  5158.167
 131  4377.016
 132  5098.526
 133  5598.469
 134  5291.962
 135  5486.456
 136  5147.738
 137  5516.605
 138  5523.798
 139  5673.986
 140  5509.958
 141  4935.207
 142  5621.236
 143  6123.398
 144  5543.097
 145  5005.346
 146  5227.108
 147  5697.358
 148  5336.834
 149  6064.619
 150  6213.879
 151  6416.196
 152  6384.643
 153  6387.271
 154  5750.538
 155  6627.314
 156  6868.811
 157  5764.557
 158  5101.956
 159  5658.624
 160  6036.007
 161  5865.909
 162  4719.804
 163  5251.896
 164  4920.464
 165  4999.685
 166  5568.529
 167  4498.101
 168  4463.547
 169  4511.824
 170  4132.96
 171  4239.551
 172  4820.727
 173  5003.573
 174  4822.643
 175  4148.071
 176  4726.512
 177  4489.262
 178  4572.64
 179  4129.477
 180  4750.384
 181  4598.314
 182  4586.922
 183  3825.112
 184  5692.178
 185  5762.079
 186  5014.764
 187  5215.646
 188  6025.217
 189  6007.157
 190  5434.694
 191  5230.437
 192  4816.707
 193  4385.084
 194  5414.736
 195  5855.967
 196  5688.08
 197  5218.693
 198  5565.411
 199  4737.286
 200  5416.104
 201  5407.621
 202  5292.492
 203  5596.778
 204  5717.69
 205  5252.063
 206  5604.095
 207  5142.953
 208  5790.349
 209  5422.682
 210  5091.017
 211  5606.386
 212  5330.825
 213  5033.927
 214  4526.945
 215  4678.781
 216  4354.248
 217  5055.135
 218  3941.979
 219  4431.719
 220  4660.99
 221  5694.427
 222  4541.172
 223  5006.408
 224  5074.403
 225  5272.152
 226  5597.3
 227  5319.92
 228  5231.251
 229  5450.666
 230  5011.453
 231  5669.403
 232  5272.646
 233  5659.649
 234  5080.949
 235  5425.007
 236  5434.34
 237  5165.608
 238  5079.253
 239  4956.874
 240  4905.516
 241  5084.417
 242  5026.216
 243  5141.825
 244  5102.709
 245  5269.029
 246  5785.61
 247  5166.033
 248  5825.776
 249  5378.614
 250  5518.279
 251  5286.642
 252  6350.269
 253  5684.465
 254  5074.611
 255  5118.95
