# Input file       =  1197570344.120679_cleaned.dat
# Candidate        =  PSR_0332+5434
# Telescope        =  AR
# Epoch_topo       =  58104.768091674523
# Epoch_bary       =  N/A
# T_sample         =  0.002
# Data Folded      =  7340032
# Data Avg         =  0.0347605808504351
# Data StdDev      =  1.00005044693723 
# Profile Bins     =  512
# Profile Avg      =  498.31472519431  
# Profile StdDev   =  119.739076541737 
# Reduced chi-sqr  =  0.895
# Prob(Noise)      <  0.958   (~0.0 sigma)
# P_topo (ms)      =  714.54268272794   +/- 0.000307
# P'_topo (s/s)    =  -0                +/- 1.62e-10
# P''_topo (s/s^2) =  0                 +/- 7.16e-14
# P_bary (ms)      =  N/A
# P'_bary (s/s)    =  N/A
# P''_bary (s/s^2) =  N/A
# P_orb (s)        =  N/A
# asin(i)/c (s)    =  N/A
# eccentricity     =  N/A
# w (rad)          =  N/A
# T_peri           =  N/A
######################################################
   0  880.0465
   1  868.5369
   2  746.9832
   3  692.8434
   4  611.6036
   5  619.1675
   6  608.6313
   7  589.2012
   8  471.8441
   9  426.4995
  10  471.3069
  11  433.2304
  12  466.7558
  13  626.2199
  14  587.7311
  15  506.4632
  16  577.1424
  17  460.29
  18  427.8632
  19  548.2909
  20  563.2979
  21  503.7493
  22  471.8755
  23  599.3484
  24  674.7371
  25  602.6712
  26  515.1771
  27  545.0508
  28  550.3609
  29  447.8406
  30  494.4599
  31  570.6126
  32  538.6093
  33  482.1526
  34  516.0193
  35  560.3826
  36  450.4772
  37  474.7344
  38  476.8683
  39  436.0301
  40  403.7018
  41  376.5327
  42  404.3636
  43  362.7893
  44  505.1702
  45  492.1328
  46  506.1209
  47  431.8209
  48  459.4261
  49  510.3192
  50  535.2112
  51  406.3513
  52  447.1409
  53  527.5986
  54  520.0888
  55  602.0869
  56  575.5403
  57  522.4953
  58  477.2489
  59  537.5809
  60  427.2522
  61  436.2744
  62  513.2145
  63  485.7001
  64  497.0579
  65  409.0848
  66  380.1824
  67  421.8966
  68  520.5911
  69  449.9421
  70  443.2691
  71  394.2513
  72  369.2046
  73  483.8384
  74  515.1537
  75  595.8585
  76  488.1074
  77  365.2769
  78  388.1671
  79  477.0976
  80  562.4921
  81  477.7969
  82  507.6255
  83  486.9963
  84  653.6506
  85  667.2303
  86  622.3322
  87  642.8917
  88  544.4482
  89  498.7253
  90  365.2954
  91  374.4218
  92  528.2059
  93  617.3377
  94  496.5566
  95  490.4317
  96  527.5339
  97  459.4832
  98  548.0618
  99  429.4307
 100  434.4121
 101  495.9896
 102  522.1451
 103  489.6293
 104  417.6769
 105  533.4727
 106  514.4956
 107  494.3697
 108  628.5458
 109  525.0181
 110  396.0721
 111  519.1031
 112  454.746
 113  418.6615
 114  453.6513
 115  380.5026
 116  412.6935
 117  349.3614
 118  459.1146
 119  536.486
 120  522.6237
 121  597.1045
 122  588.4076
 123  496.265
 124  455.4987
 125  420.4946
 126  437.0197
 127  402.9895
 128  487.4197
 129  395.0442
 130  456.8384
 131  393.4236
 132  444.7767
 133  486.8897
 134  481.3696
 135  445.5631
 136  472.6622
 137  437.303
 138  498.7966
 139  627.2361
 140  563.8981
 141  459.0209
 142  471.5984
 143  491.4172
 144  490.1854
 145  584.0641
 146  555.8514
 147  389.4063
 148  475.9042
 149  431.0088
 150  518.3263
 151  516.7988
 152  591.1497
 153  527.5613
 154  468.2812
 155  408.8598
 156  523.6294
 157  540.0059
 158  510.8207
 159  540.7496
 160  508.581
 161  493.3442
 162  404.2513
 163  508.4853
 164  650.1584
 165  611.2853
 166  512.2782
 167  428.4297
 168  547.1477
 169  463.3616
 170  451.1727
 171  522.7298
 172  490.3061
 173  528.8981
 174  480.9257
 175  449.4695
 176  356.2613
 177  401.5278
 178  458.6555
 179  461.2065
 180  467.4612
 181  444.7139
 182  542.5585
 183  531.2715
 184  689.0018
 185  600.1752
 186  570.8676
 187  548.877
 188  501.3836
 189  511.7539
 190  549.725
 191  474.7333
 192  480.3252
 193  568.53
 194  510.6966
 195  524.3079
 196  488.9907
 197  544.6867
 198  688.9321
 199  764.538
 200  618.9799
 201  424.3192
 202  410.8221
 203  442.5242
 204  367.1685
 205  403.4233
 206  602.0095
 207  507.1717
 208  497.6974
 209  554.2042
 210  504.474
 211  412.2122
 212  440.5736
 213  500.4966
 214  463.2979
 215  448.0332
 216  425.9366
 217  487.1626
 218  452.9487
 219  482.4461
 220  571.0135
 221  539.9105
 222  465.7455
 223  426.5066
 224  467.9524
 225  538.7469
 226  525.574
 227  536.1647
 228  519.5878
 229  459.8088
 230  457.5272
 231  563.4407
 232  648.7938
 233  555.1638
 234  426.5914
 235  461.2704
 236  527.0052
 237  359.8896
 238  356.7261
 239  502.3007
 240  497.4461
 241  500.2729
 242  418.3889
 243  411.3312
 244  494.3809
 245  554.3515
 246  515.5545
 247  518.1538
 248  547.66
 249  601.5536
 250  556.6872
 251  486.4626
 252  490.9192
 253  619.6182
 254  599.3049
 255  544.4601
 256  562.213
 257  532.1259
 258  454.1342
 259  407.5256
 260  368.5805
 261  477.148
 262  480.116
 263  431.1235
 264  367.2369
 265  430.3897
 266  468.7713
 267  362.1389
 268  331.1239
 269  412.1399
 270  513.2197
 271  618.1354
 272  591.8947
 273  568.067
 274  601.4844
 275  515.3572
 276  472.1503
 277  443.7915
 278  399.0812
 279  453.7533
 280  383.5181
 281  426.4965
 282  453.2383
 283  361.3125
 284  389.4973
 285  581.2346
 286  491.7936
 287  404.1052
 288  472.2574
 289  633.9146
 290  574.8107
 291  535.8046
 292  455.9252
 293  595.3591
 294  629.4064
 295  490.6489
 296  435.5487
 297  490.5893
 298  472.6774
 299  481.1349
 300  538.7543
 301  496.3391
 302  534.9752
 303  521.5452
 304  644.1534
 305  610.2416
 306  530.3856
 307  566.8692
 308  523.8272
 309  547.5176
 310  485.7805
 311  497.3893
 312  520.0587
 313  460.514
 314  465.0333
 315  394.7767
 316  447.647
 317  563.9532
 318  437.8872
 319  468.5436
 320  454.2463
 321  449.4176
 322  405.922
 323  432.1645
 324  596.8018
 325  489.3039
 326  557.6918
 327  596.2238
 328  552.0585
 329  540.5382
 330  499.9969
 331  456.2823
 332  467.8438
 333  477.1202
 334  487.5747
 335  480.9903
 336  579.2274
 337  581.2961
 338  615.6218
 339  620.3246
 340  541.4447
 341  551.8461
 342  499.2533
 343  419.7605
 344  457.4083
 345  398.0107
 346  502.3846
 347  395.1044
 348  344.0536
 349  430.9353
 350  504.8645
 351  411.1028
 352  424.2673
 353  442.6069
 354  446.0639
 355  425.4415
 356  418.3039
 357  457.8028
 358  458.6322
 359  466.4051
 360  428.1071
 361  539.1176
 362  507.419
 363  368.1353
 364  351.6405
 365  515.2184
 366  650.7136
 367  567.4742
 368  622.8679
 369  533.7786
 370  518.8492
 371  500.7348
 372  477.1395
 373  442.3057
 374  453.5902
 375  402.1449
 376  439.8908
 377  452.1354
 378  476.5138
 379  525.6003
 380  438.7496
 381  508.7554
 382  637.3714
 383  619.3671
 384  532.704
 385  525.2839
 386  520.2787
 387  425.1103
 388  533.8994
 389  672.8624
 390  591.6074
 391  555.5517
 392  472.3731
 393  519.8442
 394  518.5451
 395  584.1312
 396  661.4352
 397  512.7852
 398  436.6171
 399  486.3323
 400  478.2264
 401  417.386
 402  391.2455
 403  347.1486
 404  379.8927
 405  449.1238
 406  478.4555
 407  428.5193
 408  415.99
 409  546.2348
 410  523.2432
 411  514.5847
 412  409.5377
 413  466.2433
 414  552.6915
 415  487.4612
 416  532.9222
 417  493.8055
 418  529.5746
 419  537.1742
 420  427.8684
 421  279.7523
 422  360.2136
 423  501.8799
 424  586.8035
 425  529.6716
 426  431.1197
 427  378.2333
 428  469.4228
 429  332.3658
 430  381.2234
 431  448.2775
 432  388.3627
 433  470.5626
 434  473.5249
 435  517.8184
 436  535.2921
 437  441.2465
 438  458.1443
 439  520.1351
 440  504.1866
 441  587.6222
 442  672.1131
 443  668.5134
 444  632.8182
 445  521.7118
 446  535.749
 447  582.6631
 448  521.716
 449  447.5812
 450  546.7109
 451  463.5853
 452  458.2256
 453  410.2652
 454  411.8844
 455  503.3242
 456  406.41
 457  475.3422
 458  385.6703
 459  489.9783
 460  461.1242
 461  447.7462
 462  524.8853
 463  603.8849
 464  558.0212
 465  484.2393
 466  509.6768
 467  480.9866
 468  407.1935
 469  423.0807
 470  513.3898
 471  538.8469
 472  458.9706
 473  463.4673
 474  579.9098
 475  603.8138
 476  586.4226
 477  462.0899
 478  439.2118
 479  381.468
 480  360.1836
 481  433.5669
 482  459.0573
 483  512.3935
 484  439.8017
 485  422.8915
 486  564.3694
 487  485.3801
 488  562.9886
 489  595.0399
 490  611.9518
 491  650.1254
 492  485.0426
 493  531.1042
 494  499.5284
 495  467.1569
 496  486.4497
 497  542.1936
 498  490.3152
 499  448.9017
 500  466.5631
 501  327.8458
 502  433.2085
 503  440.4142
 504  443.6267
 505  460.1799
 506  614.1951
 507  473.9889
 508  562.8649
 509  728.3431
 510  873.3245
 511  909.9973
