# Input file       =  1197741965.100548_cleaned.dat
# Candidate        =  PSR_0332+5434
# Telescope        =  AR
# Epoch_topo       =  58106.754445608196
# Epoch_bary       =  N/A
# T_sample         =  0.002
# Data Folded      =  7340032
# Data Avg         =  0.0286191013555688
# Data StdDev      =  0.999991716920318
# Profile Bins     =  512
# Profile Avg      =  410.282036671496 
# Profile StdDev   =  119.732044618485 
# Reduced chi-sqr  =  0.847
# Prob(Noise)      <  0.995   (~0.0 sigma)
# P_topo (ms)      =  714.544607834013  +/- 0.000394
# P'_topo (s/s)    =  -0                +/- 2.08e-10
# P''_topo (s/s^2) =  0                 +/- 9.18e-14
# P_bary (ms)      =  N/A
# P'_bary (s/s)    =  N/A
# P''_bary (s/s^2) =  N/A
# P_orb (s)        =  N/A
# asin(i)/c (s)    =  N/A
# eccentricity     =  N/A
# w (rad)          =  N/A
# T_peri           =  N/A
######################################################
   0  304.804
   1  330.0126
   2  401.2594
   3  330.9634
   4  375.725
   5  369.4221
   6  457.0549
   7  335.7127
   8  321.7446
   9  318.678
  10  480.2316
  11  435.6607
  12  360.5505
  13  487.2662
  14  432.9152
  15  422.6554
  16  275.3788
  17  332.562
  18  354.113
  19  346.3206
  20  426.2327
  21  292.9204
  22  383.3698
  23  424.201
  24  434.8443
  25  496.6668
  26  485.5397
  27  402.3094
  28  328.3525
  29  346.286
  30  430.8257
  31  541.84
  32  511.7057
  33  467.2688
  34  404.7727
  35  308.7445
  36  320.4623
  37  372.3576
  38  470.7734
  39  438.7523
  40  389.9529
  41  323.5818
  42  243.6525
  43  333.6057
  44  384.4243
  45  428.0329
  46  401.4501
  47  492.0992
  48  344.0613
  49  341.4749
  50  475.6395
  51  466.3447
  52  351.8258
  53  331.8125
  54  339.1891
  55  366.5201
  56  537.7517
  57  402.4442
  58  339.6079
  59  367.3854
  60  372.7188
  61  304.1444
  62  310.8714
  63  437.2371
  64  464.9042
  65  468.5156
  66  558.9786
  67  403.5582
  68  366.0418
  69  374.862
  70  412.9169
  71  470.6184
  72  463.8352
  73  314.8329
  74  425.8364
  75  503.39
  76  433.4032
  77  444.5505
  78  530.1645
  79  535.9998
  80  488.287
  81  425.974
  82  424.003
  83  423.6389
  84  426.6835
  85  398.0907
  86  410.3033
  87  469.9898
  88  555.4214
  89  313.5296
  90  320.4174
  91  383.2265
  92  353.7448
  93  411.9071
  94  455.4159
  95  456.8452
  96  396.6477
  97  471.9235
  98  458.61
  99  348.9831
 100  400.9924
 101  509.6778
 102  479.8748
 103  390.5178
 104  474.0609
 105  438.0682
 106  471.8145
 107  519.0035
 108  467.5727
 109  378.3705
 110  398.3871
 111  422.5087
 112  558.7234
 113  358.199
 114  412.2208
 115  360.1485
 116  452.1181
 117  482.6913
 118  459.3394
 119  337.621
 120  444.3459
 121  525.3781
 122  476.9055
 123  476.7166
 124  361.8427
 125  354.7876
 126  385.5302
 127  420.0988
 128  385.9202
 129  378.1318
 130  437.4741
 131  453.6864
 132  431.6183
 133  545.3733
 134  434.4365
 135  438.297
 136  489.4849
 137  402.3863
 138  407.5123
 139  425.4895
 140  521.7918
 141  456.3645
 142  368.3906
 143  258.206
 144  364.895
 145  447.6283
 146  450.1148
 147  348.9295
 148  386.8478
 149  396.0774
 150  381.1239
 151  421.9011
 152  289.4699
 153  236.107
 154  199.4951
 155  262.2064
 156  227.2271
 157  245.2957
 158  376.3779
 159  371.5877
 160  413.5445
 161  411.4763
 162  361.5249
 163  432.7042
 164  344.1208
 165  208.8686
 166  294.0576
 167  272.8146
 168  304.6537
 169  420.7249
 170  479.6012
 171  403.5268
 172  522.9797
 173  493.8912
 174  318.5045
 175  300.5968
 176  401.2658
 177  369.2674
 178  409.6063
 179  538.6124
 180  544.0681
 181  406.1616
 182  407.9271
 183  361.6965
 184  356.849
 185  402.5038
 186  420.1705
 187  439.9991
 188  428.0374
 189  428.3729
 190  371.412
 191  398.1224
 192  382.1427
 193  389.7796
 194  473.2455
 195  447.5529
 196  464.4479
 197  508.4177
 198  463.0164
 199  445.5205
 200  479.6367
 201  474.7562
 202  453.8408
 203  405.882
 204  408.5926
 205  323.9211
 206  320.3148
 207  462.9942
 208  408.2954
 209  322.1692
 210  367.9511
 211  374.848
 212  412.2439
 213  427.8469
 214  418.1589
 215  416.8611
 216  474.9641
 217  410.5407
 218  492.8789
 219  442.0049
 220  377.7644
 221  386.0428
 222  391.0066
 223  569.2509
 224  525.6525
 225  332.5058
 226  311.7127
 227  432.4014
 228  426.9078
 229  469.864
 230  415.9177
 231  358.194
 232  350.678
 233  358.7487
 234  420.2755
 235  427.9386
 236  263.9712
 237  423.3632
 238  441.4472
 239  406.8182
 240  446.0456
 241  400.982
 242  351.3492
 243  507.8463
 244  467.2229
 245  447.1646
 246  415.5103
 247  385.686
 248  430.7832
 249  449.9398
 250  569.0302
 251  533.457
 252  404.5041
 253  368.8611
 254  346.4184
 255  401.2788
 256  397.9564
 257  436.1823
 258  476.5204
 259  415.6123
 260  379.0365
 261  279.6623
 262  372.3042
 263  444.5023
 264  430.1921
 265  402.9905
 266  375.1868
 267  341.9248
 268  255.27
 269  272.5706
 270  391.0814
 271  323.3652
 272  242.2353
 273  343.9413
 274  455.951
 275  342.2845
 276  265.1213
 277  374.3043
 278  481.3533
 279  454.7706
 280  387.1662
 281  457.3302
 282  364.6737
 283  302.4102
 284  424.4029
 285  361.5688
 286  414.3633
 287  491.357
 288  501.4641
 289  287.9404
 290  338.6744
 291  354.7101
 292  325.0119
 293  288.2376
 294  314.8444
 295  374.3829
 296  413.7371
 297  578.6259
 298  370.4054
 299  413.7208
 300  362.2382
 301  324.0068
 302  342.6871
 303  242.9253
 304  309.7558
 305  331.1985
 306  353.8763
 307  373.8283
 308  366.757
 309  283.2803
 310  308.4413
 311  330.664
 312  444.7052
 313  469.3961
 314  494.1783
 315  335.2939
 316  354.2096
 317  445.8038
 318  397.5715
 319  494.8181
 320  458.026
 321  412.2145
 322  397.7351
 323  461.2784
 324  488.4361
 325  468.0187
 326  512.7766
 327  478.0138
 328  457.741
 329  499.0919
 330  429.5605
 331  464.8637
 332  402.4735
 333  427.4743
 334  400.0764
 335  276.2328
 336  319.8017
 337  403.017
 338  447.3973
 339  392.3533
 340  336.1366
 341  417.4946
 342  405.9412
 343  402.884
 344  403.3846
 345  441.633
 346  433.9088
 347  546.5944
 348  503.3151
 349  348.8372
 350  314.1409
 351  345.2638
 352  303.0493
 353  402.7479
 354  393.8176
 355  428.775
 356  477.468
 357  441.3106
 358  307.0103
 359  356.9529
 360  454.4346
 361  380.2595
 362  360.3692
 363  401.2735
 364  458.2073
 365  388.6124
 366  388.4038
 367  454.683
 368  332.2622
 369  303.0253
 370  403.4735
 371  291.0115
 372  367.1269
 373  365.4447
 374  327.6574
 375  366.4893
 376  451.8413
 377  351.6343
 378  300.0078
 379  427.6075
 380  458.6057
 381  409.2875
 382  411.9545
 383  353.5497
 384  336.3304
 385  386.4962
 386  322.4724
 387  345.9128
 388  392.9867
 389  403.7914
 390  214.3611
 391  269.7887
 392  389.9287
 393  403.9967
 394  374.6058
 395  366.9324
 396  359.2849
 397  368.2873
 398  320.2547
 399  426.9495
 400  487.3452
 401  402.8808
 402  418.5737
 403  331.1985
 404  434.7757
 405  478.98
 406  549.4506
 407  522.5497
 408  542.9548
 409  685.5021
 410  699.1597
 411  862.5327
 412  887.6952
 413  639.1469
 414  514.4995
 415  464.7573
 416  444.9884
 417  419.2606
 418  605.8597
 419  565.5675
 420  514.0826
 421  445.3415
 422  405.6215
 423  409.9156
 424  433.1232
 425  458.4687
 426  555.6505
 427  574.5205
 428  442.4097
 429  329.9896
 430  304.7727
 431  379.3482
 432  425.2867
 433  521.1521
 434  489.447
 435  418.0595
 436  371.0789
 437  287.8593
 438  345.6463
 439  479.0003
 440  473.3659
 441  509.248
 442  599.1085
 443  522.5122
 444  411.4951
 445  497.0028
 446  382.4679
 447  340.3088
 448  251.8949
 449  273.1766
 450  356.8288
 451  375.9779
 452  368.2811
 453  363.0426
 454  347.2195
 455  423.774
 456  344.768
 457  388.931
 458  350.8197
 459  440.1953
 460  519.4345
 461  579.5057
 462  516.2717
 463  520.4236
 464  421.9216
 465  335.4819
 466  479.6823
 467  579.1322
 468  508.4377
 469  480.7048
 470  455.0096
 471  485.6205
 472  435.1952
 473  437.9572
 474  324.9193
 475  496.1434
 476  539.7578
 477  448.6287
 478  390.2916
 479  449.0638
 480  330.8322
 481  422.72
 482  452.0211
 483  441.9749
 484  483.1781
 485  434.4817
 486  499.2762
 487  359.7018
 488  421.377
 489  375.627
 490  319.6346
 491  454.5401
 492  499.6218
 493  400.3814
 494  391.73
 495  413.7601
 496  456.3805
 497  403.738
 498  456.2519
 499  403.935
 500  468.7901
 501  445.3608
 502  351.8481
 503  264.9059
 504  392.698
 505  385.5311
 506  411.284
 507  380.1482
 508  343.3094
 509  368.0956
 510  472.7483
 511  376.7047
