# Input file       =  1197828070.101624-PSRB0329-2ms-sampling-dd.dat
# Candidate        =  PSR_0332+5434
# Telescope        =  AR
# Epoch_topo       =  58107.751031268795
# Epoch_bary       =  N/A
# T_sample         =  0.002
# Data Folded      =  7340032
# Data Avg         =  -1.47224455411036e-10
# Data StdDev      =  4.63595289443658 
# Profile Bins     =  512
# Profile Avg      =  2.29212623569675 
# Profile StdDev   =  555.07671655055  
# Reduced chi-sqr  =  0.428
# Prob(Noise)      <  1   (~0.0 sigma)
# P_topo (ms)      =  714.545566187411  +/- 0.000503
# P'_topo (s/s)    =  -0                +/- 2.65e-10
# P''_topo (s/s^2) =  0                 +/- 1.17e-13
# P_bary (ms)      =  N/A
# P'_bary (s/s)    =  N/A
# P''_bary (s/s^2) =  N/A
# P_orb (s)        =  N/A
# asin(i)/c (s)    =  N/A
# eccentricity     =  N/A
# w (rad)          =  N/A
# T_peri           =  N/A
######################################################
   0  108.4628
   1  46.91858
   2  -288.2204
   3  -176.3086
   4  127.8765
   5  80.41972
   6  -268.3671
   7  -195.5039
   8  -282.3815
   9  -230.8882
  10  -165.9322
  11  -149.1203
  12  -158.028
  13  -127.0019
  14  -140.5027
  15  55.47881
  16  214.7842
  17  37.78238
  18  -450.2496
  19  -323.3814
  20  -243.4456
  21  -167.2633
  22  -436.9201
  23  -423.1902
  24  -163.9333
  25  -167.983
  26  -459.9118
  27  -672.8866
  28  -367.1831
  29  65.59885
  30  368.6626
  31  409.523
  32  57.56702
  33  -227.7342
  34  -77.30119
  35  14.6052
  36  139.7292
  37  162.1272
  38  191.1876
  39  -215.9387
  40  -258.0783
  41  -215.8238
  42  1.850971
  43  -74.8275
  44  -170.5528
  45  -155.4168
  46  43.18251
  47  -153.9904
  48  -161.3588
  49  -413.9207
  50  -321.6407
  51  -332.6414
  52  66.00428
  53  397.6475
  54  58.78276
  55  -72.12985
  56  -31.10684
  57  -501.5429
  58  -335.5218
  59  1.363445
  60  411.2659
  61  241.337
  62  138.2811
  63  76.30573
  64  225.2428
  65  147.7932
  66  172.9216
  67  40.62951
  68  -66.14595
  69  -177.3297
  70  -256.347
  71  -211.2978
  72  -177.6065
  73  -460.885
  74  -366.3008
  75  -73.53186
  76  -389.2338
  77  -551.0042
  78  -292.3221
  79  -297.2382
  80  -325.442
  81  -126.8253
  82  -147.8712
  83  -161.2966
  84  -37.32759
  85  137.4135
  86  -53.4151
  87  -67.50838
  88  199.2571
  89  454.9308
  90  205.7565
  91  -81.13966
  92  -10.70051
  93  205.1708
  94  269.0224
  95  453.0505
  96  213.436
  97  -67.07101
  98  -332.7148
  99  -279.4848
 100  -396.4347
 101  -259.0959
 102  -320.0045
 103  -205.1701
 104  -326.7705
 105  -289.5583
 106  -421.3401
 107  -479.2676
 108  -187.5661
 109  -50.9437
 110  276.1197
 111  522.7319
 112  430.8251
 113  -101.6368
 114  -524.7581
 115  -409.5091
 116  -135.0934
 117  -166.3897
 118  -83.37384
 119  174.638
 120  -100.36
 121  34.17724
 122  122.3183
 123  -150.8653
 124  -117.8543
 125  42.82032
 126  141.6552
 127  -19.34545
 128  -19.8113
 129  -23.04096
 130  -44.09747
 131  -392.4292
 132  -247.3417
 133  -162.564
 134  -152.9422
 135  -159.848
 136  -5.73766
 137  -176.7205
 138  -355.8088
 139  -251.7586
 140  58.92438
 141  222.8044
 142  322.2281
 143  34.59729
 144  -124.8399
 145  -438.8647
 146  -375.3746
 147  -274.8337
 148  -34.64201
 149  -123.8994
 150  -206.3597
 151  -58.35735
 152  -291.0598
 153  -224.8993
 154  -174.0714
 155  -529.5968
 156  -459.3476
 157  -593.7363
 158  -646.5078
 159  -267.0473
 160  -50.95657
 161  -180.3754
 162  -399.0329
 163  -409.8574
 164  -246.5423
 165  -215.9073
 166  33.04037
 167  197.0942
 168  39.56206
 169  -102.6212
 170  -267.2023
 171  -114.9205
 172  79.66955
 173  -11.65861
 174  156.1262
 175  34.3841
 176  -62.68157
 177  -330.3454
 178  -449.4959
 179  -146.5047
 180  125.5862
 181  422.8333
 182  316.2947
 183  512.3871
 184  9.146561
 185  -385.1884
 186  -380.1332
 187  -487.1401
 188  -87.47149
 189  133.0713
 190  294.0161
 191  226.8902
 192  75.73995
 193  129.2763
 194  -208.9276
 195  81.74193
 196  306.438
 197  5.721843
 198  22.81963
 199  -97.98917
 200  -208.3599
 201  86.20013
 202  114.2339
 203  -170.4497
 204  -13.27376
 205  52.87729
 206  -61.88219
 207  -170.7587
 208  -310.2536
 209  -306.3839
 210  -200.3176
 211  40.13078
 212  120.8579
 213  -175.207
 214  -597.6876
 215  -423.6557
 216  -23.68306
 217  144.683
 218  -20.47895
 219  -215.6702
 220  -334.1005
 221  -278.9394
 222  -125.2976
 223  -130.8838
 224  -361.5725
 225  -435.1773
 226  21.58955
 227  205.0081
 228  -99.92735
 229  -262.8256
 230  -205.92
 231  -58.4526
 232  56.6244
 233  -176.7843
 234  -162.8039
 235  -501.7083
 236  -130.2806
 237  -79.139
 238  -144.4449
 239  41.46292
 240  70.88248
 241  323.0632
 242  -248.2034
 243  -423.9096
 244  -212.1957
 245  42.47075
 246  516.1334
 247  199.1704
 248  106.3505
 249  173.6698
 250  26.36535
 251  35.66825
 252  272.5923
 253  270.8907
 254  138.322
 255  -46.6882
 256  -119.4607
 257  -0.0170314
 258  238.3363
 259  322.5495
 260  112.2648
 261  -2.564333
 262  20.34463
 263  -73.54968
 264  -53.16949
 265  -233.5047
 266  -95.83237
 267  181.208
 268  -129.9692
 269  44.02419
 270  81.15405
 271  71.14961
 272  -24.02586
 273  -1.020186
 274  -40.02182
 275  -44.20347
 276  -40.20329
 277  -113.8633
 278  0.902419
 279  71.15542
 280  65.76741
 281  12.92532
 282  249.7966
 283  357.8717
 284  226.2572
 285  125.4222
 286  64.30553
 287  -135.8868
 288  -196.3968
 289  -252.8739
 290  -236.5204
 291  -112.8106
 292  46.59743
 293  198.586
 294  -405.5654
 295  -409.9812
 296  71.71614
 297  -269.2852
 298  -136.6461
 299  271.935
 300  196.6291
 301  -140.7037
 302  20.61003
 303  147.4465
 304  230.7062
 305  216.2095
 306  93.88534
 307  282.1425
 308  267.3638
 309  611.8167
 310  564.8697
 311  746.666
 312  1349.882
 313  1084.796
 314  942.9177
 315  247.7977
 316  115.0453
 317  218.6497
 318  282.6974
 319  51.91172
 320  254.2964
 321  194.6403
 322  -105.3084
 323  -119.7095
 324  229.0973
 325  134.1932
 326  -73.26099
 327  35.37014
 328  182.3087
 329  -135.0172
 330  -239.4028
 331  217.0106
 332  130.6492
 333  346.8766
 334  605.6043
 335  673.3157
 336  385.8207
 337  67.92347
 338  249.8876
 339  318.9052
 340  498.5808
 341  298.6805
 342  440.1126
 343  517.1461
 344  199.9504
 345  66.7198
 346  220.9156
 347  162.3168
 348  142.297
 349  288.8779
 350  156.2588
 351  21.11379
 352  162.3291
 353  146.2086
 354  -138.6992
 355  -3.26568
 356  -74.28366
 357  -99.71484
 358  -36.85883
 359  200.5143
 360  339.8726
 361  280.4684
 362  160.4749
 363  3.996343
 364  -184.2227
 365  -3.686322
 366  -29.07478
 367  -201.133
 368  -49.42091
 369  -201.6469
 370  185.5393
 371  455.0324
 372  192.5835
 373  308.2156
 374  387.209
 375  312.7748
 376  20.47613
 377  201.1071
 378  226.4289
 379  -245.8741
 380  28.89972
 381  -161.3218
 382  26.96124
 383  -220.6653
 384  -199.1086
 385  -514.5347
 386  -383.63
 387  -443.9414
 388  -219.8637
 389  62.13277
 390  -156.6788
 391  -112.8075
 392  -23.41495
 393  7.101527
 394  83.94987
 395  448.5589
 396  612.9688
 397  412.8606
 398  494.9773
 399  124.6403
 400  327.7928
 401  414.0163
 402  561.1254
 403  526.4491
 404  557.8494
 405  379.3918
 406  377.9118
 407  357.5099
 408  128.9506
 409  95.59392
 410  223.3138
 411  376.7724
 412  367.071
 413  307.05
 414  145.4969
 415  -215.1353
 416  31.9494
 417  254.9957
 418  10.03059
 419  8.802723
 420  71.43442
 421  66.64984
 422  -136.2743
 423  -227.9746
 424  -286.9154
 425  18.26107
 426  262.6639
 427  -194.3443
 428  -208.6515
 429  118.6675
 430  -86.85065
 431  -85.57986
 432  -128.3422
 433  -197.9859
 434  -13.96706
 435  99.14501
 436  245.4895
 437  -155.2577
 438  -67.56482
 439  9.82541
 440  -35.16736
 441  -37.30581
 442  70.59423
 443  168.0125
 444  338.1268
 445  -285.8382
 446  80.96148
 447  164.2124
 448  239.4075
 449  102.4512
 450  210.6701
 451  330.8919
 452  -125.3216
 453  -129.9942
 454  281.1164
 455  374.652
 456  498.1354
 457  167.5045
 458  202.0497
 459  33.2527
 460  86.03654
 461  302.006
 462  71.31752
 463  -104.3764
 464  139.777
 465  70.17701
 466  -160.4324
 467  -190.8684
 468  -390.0637
 469  -74.13126
 470  14.54098
 471  113.1865
 472  601.0097
 473  166.7839
 474  249.0782
 475  244.7458
 476  52.06314
 477  236.6176
 478  300.2202
 479  263.0593
 480  623.2933
 481  392.1463
 482  348.9619
 483  292.1627
 484  107.3663
 485  -132.6945
 486  -83.91427
 487  -278.4182
 488  -58.23055
 489  -139.6934
 490  98.38526
 491  125.1621
 492  92.00207
 493  -40.11642
 494  -245.5232
 495  -167.7994
 496  -234.7706
 497  -115.6218
 498  -217.5114
 499  -104.5859
 500  100.5154
 501  -56.74839
 502  -111.0054
 503  -302.3844
 504  -427.4446
 505  -123.5281
 506  305.3394
 507  26.70972
 508  -31.7978
 509  158.0825
 510  90.44189
 511  -65.56142
