# Input file       =  1197986379.106846-PSRB0329-2ms-sampling-dd.dat
# Candidate        =  PSR_0332+5434
# Telescope        =  AR
# Epoch_topo       =  58109.583311421833
# Epoch_bary       =  N/A
# T_sample         =  0.002
# Data Folded      =  7143424
# Data Avg         =  -4.20906950974061e-09
# Data StdDev      =  225.70624248945  
# Profile Bins     =  512
# Profile Avg      =  0.225504147068655
# Profile StdDev   =  26660.1018715749 
# Reduced chi-sqr  =  1.129
# Prob(Noise)      <  0.0225   (~2.0 sigma)
# P_topo (ms)      =  714.547292774349  +/- 0.000555
# P'_topo (s/s)    =  -0                +/- 3.01e-10
# P''_topo (s/s^2) =  0                 +/- 1.37e-13
# P_bary (ms)      =  N/A
# P'_bary (s/s)    =  N/A
# P''_bary (s/s^2) =  N/A
# P_orb (s)        =  N/A
# asin(i)/c (s)    =  N/A
# eccentricity     =  N/A
# w (rad)          =  N/A
# T_peri           =  N/A
######################################################
   0  -2599.103
   1  -2895.057
   2  -2780.824
   3  -2808.098
   4  -3125.575
   5  -3253.587
   6  -3333.125
   7  -3047.634
   8  -3044.945
   9  -2731.713
  10  -3197.263
  11  -3119.175
  12  -3021.707
  13  -3519.429
  14  -3431.262
  15  -2949.009
  16  -2576.836
  17  -3521.574
  18  -3441.2
  19  -3687.562
  20  -3769.957
  21  -3509.139
  22  -3340.129
  23  -3413.916
  24  -3875.751
  25  -3284.465
  26  -3415.152
  27  -3232.132
  28  -3609.127
  29  -3158.961
  30  -3238.369
  31  -3381.379
  32  -3221.022
  33  -3195.976
  34  -3391.865
  35  -3676.172
  36  -3630.444
  37  -3392.557
  38  -3570.908
  39  -3405.32
  40  -3589.519
  41  -3315.6
  42  -3911.547
  43  -3687.684
  44  -3287.183
  45  -2684.622
  46  -2787.927
  47  -2861.016
  48  -2888.75
  49  -3240.508
  50  -3240.587
  51  -2989.007
  52  -2701.341
  53  -2685.756
  54  -2791.294
  55  -3044.025
  56  -3226.584
  57  -2421.793
  58  -2988.557
  59  -2708.028
  60  -2426.695
  61  -3495.666
  62  -3658.816
  63  -2555.523
  64  -3866.033
  65  -2300.803
  66  -1628.365
  67  -4200.086
  68  -1641.024
  69  -2346.391
  70  -5650.587
  71  -787.0596
  72  -3186.463
  73  -6676.235
  74  1765.47
  75  -4684.506
  76  -7456.945
  77  3851.661
  78  -6601.893
  79  -5884.086
  80  6776.163
  81  -10727.04
  82  -4684.199
  83  8825.048
  84  -4227.978
  85  73387.91
  86  125867
  87  22223
  88  140353.8
  89  187859.7
  90  160230
  91  75181.08
  92  140220.3
  93  280015.9
  94  25611.63
  95  42407.93
  96  65669.78
  97  -17761.41
  98  1955.293
  99  7008.084
 100  -15235.85
 101  2805.736
 102  1276.967
 103  -11609.25
 104  3028.056
 105  -2245.125
 106  -8480.113
 107  1957.397
 108  -3955.84
 109  -5508.56
 110  834.9592
 111  -3422.292
 112  -3927.995
 113  -796.2148
 114  -4066.878
 115  -2977.283
 116  -1200.627
 117  -3917.926
 118  -2521.011
 119  -1878.449
 120  -3288.261
 121  -2859.126
 122  -2547.02
 123  -2758.348
 124  -2286.303
 125  -2610.931
 126  -3166.767
 127  -2621.252
 128  -2593.936
 129  -2280.916
 130  -2318.569
 131  -2612.9
 132  -2677.985
 133  -2681.031
 134  -2877.639
 135  -2712.611
 136  -2829.743
 137  -3191.319
 138  -2546.56
 139  -2628.242
 140  -2865.269
 141  -2954.39
 142  -2790.261
 143  -2493.98
 144  -2745.815
 145  -2555.234
 146  -2696.491
 147  -2802.846
 148  -2556.545
 149  -2663.901
 150  -2348.153
 151  -2369.392
 152  -2483.315
 153  -2761.953
 154  -2771.28
 155  -2732.573
 156  -2855.572
 157  -2814.047
 158  -2662.93
 159  -2612.893
 160  -2687.347
 161  -3061.886
 162  -3011.543
 163  -2686.926
 164  -2531.366
 165  -2341.051
 166  -2365.262
 167  -2151.258
 168  -1992.589
 169  -2249.327
 170  -2282.683
 171  -2978.091
 172  -2778.059
 173  -2482.686
 174  -2565.231
 175  -2555.773
 176  -2662.573
 177  -2580.511
 178  -2812.582
 179  -2730.256
 180  -2764.948
 181  -2022.685
 182  -2310.673
 183  -3057.107
 184  -3008.828
 185  -2806.314
 186  -2687.69
 187  -2803.874
 188  -2177.534
 189  -2615.271
 190  -2724.2
 191  -2303.715
 192  -2493.977
 193  -2292.886
 194  -2270.118
 195  -2751.294
 196  -2929.36
 197  -3117.151
 198  -3133.37
 199  -3397.21
 200  -3270.616
 201  -2765.078
 202  -2675.386
 203  -3124.814
 204  -3424.844
 205  -3875.231
 206  -3544.327
 207  -3130.237
 208  -3027.868
 209  -2587.492
 210  -2571.849
 211  -2355.713
 212  -2740.94
 213  -3165.796
 214  -3378.827
 215  -3020.923
 216  -3163.085
 217  -2705.481
 218  -2152.99
 219  -2369.063
 220  -2577.989
 221  -2837.406
 222  -2604.873
 223  -2715.757
 224  -3161.62
 225  -3161.562
 226  -2800.837
 227  -2991.889
 228  -2833.81
 229  -3047.309
 230  -3351.706
 231  -3266.308
 232  -3055.82
 233  -3081.367
 234  -3041.995
 235  -3280.967
 236  -3391.88
 237  -3546.105
 238  -2977.151
 239  -2621.246
 240  -2687.118
 241  -2621.122
 242  -2810.359
 243  -2942.09
 244  -3006.351
 245  -3190.585
 246  -3221.9
 247  -2945.771
 248  -2831.873
 249  -3167.36
 250  -3018.176
 251  -2888.716
 252  -2679.602
 253  -2705.972
 254  -2491.046
 255  -2395.378
 256  -2515.372
 257  -2626.988
 258  -2419.92
 259  -2315.886
 260  -2544.459
 261  -2372.344
 262  -2390.156
 263  -2600.766
 264  -2784.568
 265  -2839.445
 266  -2983.701
 267  -3062.232
 268  -2582.897
 269  -2478.553
 270  -2566.127
 271  -2409.298
 272  -1980.792
 273  -2295.38
 274  -2471.485
 275  -2358.243
 276  -2339.567
 277  -2434.971
 278  -2728.073
 279  -2753.637
 280  -2443.207
 281  -2134.567
 282  -2233.355
 283  -1692.221
 284  -1776.535
 285  -2262.812
 286  -2555.147
 287  -2567.724
 288  -2166.507
 289  -2466.232
 290  -2628.958
 291  -2339.968
 292  -2296.449
 293  -2704.926
 294  -2633.47
 295  -2450.561
 296  -2671.794
 297  -3215.422
 298  -3233.415
 299  -2656.799
 300  -2300.899
 301  -2039.401
 302  -2005.011
 303  -2901.314
 304  -3216.764
 305  -3130.314
 306  -2735.661
 307  -2562.716
 308  -2239.991
 309  -2056.49
 310  -1666.283
 311  -2294.606
 312  -2686.661
 313  -2501.425
 314  -2690.639
 315  -2886.415
 316  -2864.395
 317  -2431.788
 318  -2292.918
 319  -2372.614
 320  -2763.661
 321  -2898.702
 322  -2868.496
 323  -2940.78
 324  -2574.805
 325  -2654.126
 326  -2683.885
 327  -2709.491
 328  -2847.878
 329  -3113.271
 330  -2794.813
 331  -2536.212
 332  -3054.667
 333  -2842.715
 334  -2946.405
 335  -2697.552
 336  -2929.681
 337  -2703.682
 338  -2476.781
 339  -2464.476
 340  -2429.897
 341  -2397.557
 342  -2024.91
 343  -2218.586
 344  -2433.098
 345  -2493.703
 346  -2426.575
 347  -2477.04
 348  -2665.568
 349  -2594.415
 350  -2541.792
 351  -2352.825
 352  -2930.457
 353  -3154.13
 354  -3220.847
 355  -2882.468
 356  -2831.618
 357  -2972.706
 358  -3028.069
 359  -2987.604
 360  -2755.343
 361  -2488.277
 362  -2270.641
 363  -2425.555
 364  -2722.251
 365  -2980.77
 366  -2040.101
 367  -2290.137
 368  -2413.233
 369  -2286.624
 370  -2563.466
 371  -2747.502
 372  -2605.936
 373  -2511.078
 374  -2260.776
 375  -2411.802
 376  -2386.031
 377  -2351.995
 378  -2111.353
 379  -1897.439
 380  -2048.387
 381  -1774.007
 382  -1893.319
 383  -1803.691
 384  -1756.999
 385  -1658.592
 386  -1836.012
 387  -1628.201
 388  -2233.632
 389  -2357.966
 390  -2412.196
 391  -2462.319
 392  -1969.992
 393  -1980.924
 394  -2317.125
 395  -2605.507
 396  -2887.256
 397  -2860.397
 398  -2985.334
 399  -2657.788
 400  -2111.412
 401  -1631.132
 402  -1737.931
 403  -1677.626
 404  -2178.577
 405  -2611.533
 406  -2482.178
 407  -2053.668
 408  -1391.483
 409  -1502.317
 410  -1307.716
 411  -1683.913
 412  -1937.157
 413  -1824.323
 414  -1926.313
 415  -1946.418
 416  -2212.804
 417  -1969.754
 418  -2109.296
 419  -1710.215
 420  -1733.96
 421  -2322.516
 422  -2347.157
 423  -2209.433
 424  -2233.496
 425  -2326.5
 426  -2338.866
 427  -2081.009
 428  -1995.41
 429  -2394.545
 430  -2547.5
 431  -2000.741
 432  -1634.851
 433  -1581.499
 434  -2211.869
 435  -2232.206
 436  -2535.504
 437  -2527.385
 438  -2298.147
 439  -2580.374
 440  -2273.846
 441  -2039.999
 442  -2116.907
 443  -2167.974
 444  -2753.73
 445  -2758.31
 446  -2686.622
 447  -2319.846
 448  -2593.145
 449  -2680.206
 450  -2611.781
 451  -2657.481
 452  -2890.012
 453  -2866.549
 454  -2779.822
 455  -2531.55
 456  -2857.112
 457  -2441.733
 458  -2355.77
 459  -2288.239
 460  -2808.884
 461  -2898.999
 462  -2746.683
 463  -2653.066
 464  -2792.985
 465  -2654.323
 466  -2485.208
 467  -2601.712
 468  -2333.252
 469  -2533.282
 470  -2658.96
 471  -2977.447
 472  -2906.562
 473  -2590.534
 474  -2661.446
 475  -2475.361
 476  -2411.816
 477  -2412.529
 478  -2811.984
 479  -2707.762
 480  -2936.936
 481  -2837.874
 482  -2568.158
 483  -2736.918
 484  -2659.17
 485  -2862.299
 486  -2834.222
 487  -2317.531
 488  -2314.009
 489  -2584.671
 490  -2721.085
 491  -2822.778
 492  -2887.91
 493  -2742.466
 494  -2461.072
 495  -2596.668
 496  -2770.286
 497  -2837.018
 498  -2567.93
 499  -2275.243
 500  -2194.639
 501  -2011.781
 502  -2384.361
 503  -2826.568
 504  -2997.204
 505  -2857.289
 506  -2619.564
 507  -2794.675
 508  -2728.722
 509  -2403.176
 510  -2276.593
 511  -2716.305
