# Input file       =  1197067746.109697-PSRB0329-2ms-sampling-dd.dat
# Candidate        =  PSR_0332+5434
# Telescope        =  AR
# Epoch_topo       =  58098.950985065938
# Epoch_bary       =  N/A
# T_sample         =  0.002
# Data Folded      =  7340032
# Data Avg         =  -1.17971412628545e-09
# Data StdDev      =  7.08644197088967 
# Profile Bins     =  512
# Profile Avg      =  -0.0131428817728813
# Profile StdDev   =  848.481214282375 
# Reduced chi-sqr  =  0.382
# Prob(Noise)      <  1   (~0.0 sigma)
# P_topo (ms)      =  714.537212903552  +/- 0.000643
# P'_topo (s/s)    =  -0                +/- 3.39e-10
# P''_topo (s/s^2) =  0                 +/- 1.5e-13
# P_bary (ms)      =  N/A
# P'_bary (s/s)    =  N/A
# P''_bary (s/s^2) =  N/A
# P_orb (s)        =  N/A
# asin(i)/c (s)    =  N/A
# eccentricity     =  N/A
# w (rad)          =  N/A
# T_peri           =  N/A
######################################################
   0  -335.3574
   1  -384.8786
   2  -352.327
   3  -591.7003
   4  -491.1601
   5  -491.8302
   6  -360.7326
   7  -165.3133
   8  -110.7425
   9  -174.1921
  10  -381.2087
  11  -223.0984
  12  -197.7891
  13  -144.8771
  14  -425.2633
  15  -134.0799
  16  -213.0087
  17  -232.6992
  18  -263.1995
  19  47.3891
  20  342.4536
  21  -47.08761
  22  280.7914
  23  238.8763
  24  -287.5035
  25  54.00668
  26  25.22952
  27  114.2795
  28  811.4536
  29  1113.66
  30  1047.991
  31  886.6791
  32  108.0801
  33  -31.74378
  34  -276.9362
  35  -556.4445
  36  -677.0635
  37  -511.2459
  38  -427.0005
  39  -2.695906
  40  343.6948
  41  286.5375
  42  -187.687
  43  -157.3091
  44  -266.9975
  45  141.0304
  46  442.9639
  47  692.2722
  48  557.1295
  49  320.3637
  50  277.126
  51  491.1793
  52  864.9217
  53  381.8984
  54  199.4104
  55  126.7354
  56  86.43518
  57  299.87
  58  203.377
  59  386.0466
  60  702.3613
  61  687.4425
  62  373.8907
  63  538.8808
  64  724.3553
  65  1021.797
  66  501.6842
  67  644.3951
  68  474.915
  69  315.729
  70  10.19985
  71  -45.31121
  72  77.381
  73  103.368
  74  181.6508
  75  153.0709
  76  -127.3497
  77  -654.0961
  78  -511.9539
  79  200.7565
  80  -321.0032
  81  -159.3562
  82  -206.8903
  83  -212.7744
  84  -42.10474
  85  -463.6095
  86  -37.54179
  87  305.8597
  88  391.9309
  89  56.23701
  90  58.94562
  91  238.6157
  92  -48.50779
  93  -201.7081
  94  394.554
  95  302.5655
  96  270.7155
  97  318.0856
  98  -215.3359
  99  -109.5362
 100  60.39643
 101  297.9921
 102  430.5163
 103  285.2473
 104  187.1289
 105  103.5539
 106  448.6781
 107  -210.552
 108  -151.918
 109  -328.3721
 110  -727.1586
 111  -326.9649
 112  -36.93584
 113  84.27039
 114  142.7948
 115  227.1097
 116  20.94317
 117  -23.74091
 118  -137.3629
 119  -183.8316
 120  -354.819
 121  232.7937
 122  303.0081
 123  -157.7533
 124  -267.8331
 125  -243.0622
 126  -515.6315
 127  -768.4308
 128  -250.3716
 129  -248.9043
 130  -134.8488
 131  -307.4194
 132  202.2562
 133  158.974
 134  -229.6067
 135  432.5611
 136  669.2096
 137  679.5782
 138  78.54674
 139  255.0988
 140  166.9731
 141  -36.79653
 142  388.3456
 143  854.156
 144  796.3086
 145  477.6581
 146  -127.5636
 147  -493.5041
 148  -788.705
 149  -755.4158
 150  -786.4923
 151  -246.108
 152  -335.2027
 153  -280.3936
 154  -58.78181
 155  -233.4229
 156  -136.7027
 157  -18.1674
 158  514.3851
 159  386.3871
 160  278.0545
 161  20.12654
 162  -14.62432
 163  -37.23021
 164  47.40162
 165  324.5121
 166  182.8319
 167  375.3586
 168  99.81381
 169  40.97309
 170  75.98709
 171  74.20974
 172  97.7795
 173  -105.2711
 174  -67.28358
 175  -370.3224
 176  -212.2281
 177  196.1177
 178  -279.4605
 179  -459.327
 180  -161.0495
 181  -0.2600764
 182  -121.9165
 183  537.6215
 184  518.595
 185  -206.5551
 186  -426.2343
 187  -11.8521
 188  -141.2016
 189  -59.24104
 190  64.54975
 191  -376.4457
 192  65.04575
 193  -161.1924
 194  200.5346
 195  92.97477
 196  166.9049
 197  353.6853
 198  141.6452
 199  18.12788
 200  -37.3775
 201  -53.64205
 202  -252.4237
 203  -233.6917
 204  285.4656
 205  470.0033
 206  -107.0951
 207  -119.5328
 208  -136.0826
 209  112.3553
 210  95.38124
 211  173.8314
 212  -101.4634
 213  -177.3203
 214  -189.1191
 215  -442.8829
 216  -838.5284
 217  -275.6812
 218  442.636
 219  16.75266
 220  -509.0561
 221  -134.472
 222  -329.5068
 223  -392.4191
 224  12.99152
 225  -19.20719
 226  125.3988
 227  -113.9217
 228  -207.2471
 229  -258.7477
 230  155.5522
 231  358.4409
 232  358.3259
 233  556.0212
 234  30.92349
 235  -274.3261
 236  -161.4188
 237  -397.2137
 238  -410.4446
 239  -15.22575
 240  -118.5249
 241  -960.0716
 242  -861.1587
 243  -786.4429
 244  -731.9482
 245  -638.7324
 246  -275.7935
 247  66.23087
 248  -254.0326
 249  -781.8924
 250  -690.5873
 251  -598.1161
 252  -756.0269
 253  -463.3191
 254  -301.1059
 255  -146.5887
 256  -99.24566
 257  -392.7297
 258  -394.3414
 259  10.83227
 260  97.31043
 261  -91.98648
 262  -70.21574
 263  224.9783
 264  282.69
 265  695.9233
 266  1145.916
 267  387.0463
 268  683.1901
 269  347.3173
 270  260.5606
 271  55.5635
 272  126.5291
 273  397.0609
 274  -140.1791
 275  -184.193
 276  -5.484295
 277  -87.45837
 278  -57.88704
 279  -390.5655
 280  346.8133
 281  182.4069
 282  -235.4262
 283  20.62854
 284  100.2702
 285  -34.55219
 286  232.3306
 287  604.6844
 288  807.3544
 289  577.4518
 290  604.827
 291  201.3003
 292  133.8813
 293  239.1514
 294  176.8859
 295  47.64264
 296  104.2738
 297  175.2171
 298  -41.07686
 299  -194.501
 300  117.4148
 301  669.2587
 302  465.5023
 303  229.2814
 304  40.61534
 305  441.6672
 306  127.9498
 307  -112.1622
 308  -99.86605
 309  -292.1306
 310  -608.342
 311  -896.4879
 312  -578.1733
 313  -660.4034
 314  -831.0967
 315  -570.2454
 316  -859.1978
 317  -830.9419
 318  -196.3718
 319  -352.3513
 320  -138.772
 321  -26.7346
 322  -72.04934
 323  21.98353
 324  -58.32839
 325  344.2254
 326  207.6197
 327  18.09751
 328  14.99004
 329  -279.5717
 330  258.9749
 331  146.7576
 332  -167.2283
 333  -512.3972
 334  -516.8146
 335  -373.5723
 336  -815.8759
 337  -211.015
 338  108.3978
 339  296.4032
 340  69.16586
 341  -453.9204
 342  125.7636
 343  -73.91228
 344  -450.5929
 345  -490.7687
 346  -146.2881
 347  86.88575
 348  -67.84662
 349  -180.8904
 350  -234.0217
 351  -221.9337
 352  -224.2227
 353  -0.3249438
 354  61.3805
 355  151.3248
 356  -176.0719
 357  -76.08516
 358  -438.5249
 359  -345.4448
 360  444.0131
 361  350.198
 362  691.9868
 363  415.6169
 364  392.752
 365  439.6141
 366  400.277
 367  -73.11316
 368  -130.6883
 369  514.8994
 370  147.4729
 371  152.9761
 372  635.6479
 373  270.7353
 374  111.0626
 375  357.4498
 376  864.0446
 377  715.0294
 378  240.9988
 379  493.5486
 380  339.9924
 381  182.871
 382  47.5858
 383  -271.749
 384  48.55195
 385  333.9789
 386  114.8808
 387  147.3253
 388  -12.9222
 389  165.3348
 390  -69.18598
 391  523.1422
 392  779.181
 393  389.2116
 394  504.899
 395  698.965
 396  451.8755
 397  25.15045
 398  100.6525
 399  4.016659
 400  -191.6939
 401  217.0447
 402  -55.80734
 403  337.6993
 404  243.0236
 405  0.9595994
 406  281.0697
 407  348.2967
 408  444.8293
 409  160.3727
 410  -259.524
 411  -230.6963
 412  -344.7801
 413  215.1461
 414  613.5833
 415  205.9447
 416  173.0303
 417  -416.8148
 418  -658.9664
 419  -525.8801
 420  -12.57113
 421  1119.942
 422  836.4083
 423  460.717
 424  230.6971
 425  113.3297
 426  534.5396
 427  29.49203
 428  -48.95764
 429  -54.56248
 430  -319.5291
 431  -1108.175
 432  -872.6858
 433  -310.5542
 434  -118.1446
 435  175.0181
 436  398.5013
 437  267.1569
 438  -61.28477
 439  -97.01039
 440  -350.3257
 441  -558.4286
 442  -275.248
 443  -131.0891
 444  -216.2302
 445  -780.1021
 446  -381.2082
 447  -421.8274
 448  -103.9909
 449  -581.9971
 450  -668.222
 451  -615.3121
 452  -319.2363
 453  -6.502188
 454  -198.7565
 455  -56.43426
 456  -274.6447
 457  -537.1621
 458  -344.2672
 459  -110.0497
 460  59.11856
 461  -61.94625
 462  82.22546
 463  240.291
 464  -267.2762
 465  -140.6367
 466  150.8639
 467  -33.29671
 468  -258.6547
 469  -370.634
 470  -261.1978
 471  35.57499
 472  -159.2474
 473  138.3998
 474  79.65604
 475  82.62001
 476  -631.2754
 477  -885.4656
 478  -756.4985
 479  -232.4324
 480  454.2483
 481  380.002
 482  274.455
 483  377.9224
 484  352.4979
 485  -198.7781
 486  -61.41116
 487  -329.2365
 488  20.2845
 489  39.39851
 490  526.0729
 491  975.3322
 492  238.0206
 493  -53.68222
 494  -161.1925
 495  -153.5009
 496  164.6744
 497  741.0714
 498  167.6451
 499  -57.98978
 500  370.0803
 501  434.3443
 502  -6.033376
 503  -340.1918
 504  184.0484
 505  251.3798
 506  -448.3978
 507  -85.02653
 508  27.77843
 509  -283.2732
 510  -210.6303
 511  -558.3055
