# Input file       =  1197670746.104753_cleaned.dat
# Candidate        =  PSR_0332+5434
# Telescope        =  AR
# Epoch_topo       =  58105.930151675384
# Epoch_bary       =  N/A
# T_sample         =  0.002
# Data Folded      =  7340032
# Data Avg         =  0.0245648863858533
# Data StdDev      =  1.00011249952161 
# Profile Bins     =  512
# Profile Avg      =  352.258899736034 
# Profile StdDev   =  119.74650628608  
# Reduced chi-sqr  =  0.811
# Prob(Noise)      <  0.999   (~0.0 sigma)
# P_topo (ms)      =  714.544142806383  +/- 0.000321
# P'_topo (s/s)    =  -0                +/- 1.7e-10
# P''_topo (s/s^2) =  0                 +/- 7.49e-14
# P_bary (ms)      =  N/A
# P'_bary (s/s)    =  N/A
# P''_bary (s/s^2) =  N/A
# P_orb (s)        =  N/A
# asin(i)/c (s)    =  N/A
# eccentricity     =  N/A
# w (rad)          =  N/A
# T_peri           =  N/A
######################################################
   0  376.3317
   1  361.9622
   2  357.9412
   3  288.4329
   4  322.5655
   5  267.9163
   6  105.4283
   7  157.2794
   8  265.9916
   9  437.3363
  10  397.903
  11  356.9023
  12  410.1571
  13  317.3413
  14  340.4703
  15  343.8974
  16  434.8012
  17  491.8773
  18  414.8605
  19  314.8204
  20  261.483
  21  303.621
  22  347.4649
  23  493.321
  24  460.5553
  25  325.9843
  26  285.1521
  27  447.2477
  28  483.3207
  29  510.0252
  30  486.5107
  31  449.5432
  32  377.0714
  33  386.4691
  34  392.8179
  35  360.8525
  36  467.8921
  37  408.3987
  38  395.1379
  39  425.748
  40  432.5457
  41  458.6471
  42  460.07
  43  442.6892
  44  271.8511
  45  324.7162
  46  429.9063
  47  391.8999
  48  343.3224
  49  368.4925
  50  333.4907
  51  339.0674
  52  364.3537
  53  327.8387
  54  414.0116
  55  344.9149
  56  267.3129
  57  332.454
  58  314.411
  59  286.4914
  60  314.6342
  61  360.302
  62  408.742
  63  429.4818
  64  367.3006
  65  370.5659
  66  423.7251
  67  334.5302
  68  379.5283
  69  437.0628
  70  510.4123
  71  394.9859
  72  371.7234
  73  418.2403
  74  333.4891
  75  389.7892
  76  374.0107
  77  274.6059
  78  272.3779
  79  304.218
  80  272.3395
  81  346.0426
  82  439.3087
  83  394.8631
  84  341.8086
  85  378.0058
  86  399.3047
  87  278.2214
  88  364.7343
  89  317.5468
  90  299.696
  91  351.8421
  92  375.1624
  93  266.5535
  94  301.098
  95  369.9763
  96  339.2943
  97  375.6325
  98  499.3195
  99  429.2835
 100  331.0053
 101  431.1539
 102  409.3829
 103  365.4302
 104  358.4321
 105  380.9086
 106  261.976
 107  212.9253
 108  241.8595
 109  234.8288
 110  236.5904
 111  352.036
 112  345.5645
 113  241.8341
 114  322.3454
 115  396.3594
 116  361.4796
 117  297.0721
 118  300.5057
 119  200.5927
 120  89.82178
 121  154.3769
 122  373.1549
 123  372.9995
 124  287.6504
 125  299.4298
 126  331.6388
 127  357.2121
 128  323.358
 129  352.3636
 130  293.5369
 131  210.423
 132  224.7059
 133  233.4449
 134  261.409
 135  294.6501
 136  290.4596
 137  314.1671
 138  332.6067
 139  442.8936
 140  397.5697
 141  498.0081
 142  684.1838
 143  812.3569
 144  563.0087
 145  595.5327
 146  499.2359
 147  376.336
 148  407.9104
 149  378.8361
 150  412.3271
 151  392.0917
 152  297.5509
 153  322.7955
 154  401.4148
 155  443.1008
 156  381.8045
 157  338.8893
 158  475.1608
 159  486.5381
 160  529.0015
 161  543.8652
 162  324.1701
 163  350.4455
 164  392.9763
 165  486.0933
 166  446.0814
 167  349.5042
 168  312.3134
 169  337.5651
 170  291.3117
 171  206.314
 172  174.9805
 173  343.3737
 174  474.8448
 175  443.9973
 176  352.3224
 177  287.7777
 178  268.7313
 179  375.1755
 180  364.0814
 181  345.0435
 182  277.1919
 183  292.6937
 184  368.939
 185  296.7145
 186  207.5331
 187  311.1208
 188  318.9712
 189  335.253
 190  309.0811
 191  305.3495
 192  235.8156
 193  320.8477
 194  454.0618
 195  376.9927
 196  284.0502
 197  345.8118
 198  306.9762
 199  348.3166
 200  327.3411
 201  354.234
 202  361.4052
 203  238.6169
 204  200.4017
 205  284.0234
 206  458.6069
 207  446.8464
 208  397.4379
 209  388.8824
 210  315.1288
 211  327.187
 212  313.3281
 213  375.6601
 214  288.3203
 215  328.6656
 216  402.0283
 217  540.372
 218  441.5496
 219  376.4411
 220  314.5866
 221  231.4151
 222  310.8
 223  283.7904
 224  364.8778
 225  354.2877
 226  345.9946
 227  252.9227
 228  366.1535
 229  383.2546
 230  327.528
 231  374.7703
 232  400.7652
 233  311.3321
 234  292.3302
 235  358.4325
 236  287.8233
 237  381.266
 238  349.1719
 239  287.2372
 240  355.2998
 241  360.6471
 242  353.1638
 243  392.7045
 244  351.2866
 245  309.7214
 246  336.0052
 247  400.664
 248  420.8445
 249  375.1892
 250  290.0241
 251  351.7126
 252  370.1732
 253  269.7536
 254  283.4881
 255  318.9372
 256  381.0938
 257  437.1244
 258  454.5826
 259  413.6692
 260  269.473
 261  339.1928
 262  333.6642
 263  434.8794
 264  487.9457
 265  452.6718
 266  432.5948
 267  371.9579
 268  348.9397
 269  452.6928
 270  568.1388
 271  448.1428
 272  328.7928
 273  336.0666
 274  306.165
 275  396.4837
 276  394.5383
 277  384.3735
 278  470.7867
 279  436.7754
 280  519.9249
 281  451.9896
 282  400.4096
 283  427.8584
 284  447.5821
 285  452.4282
 286  421.0284
 287  350.9924
 288  301.375
 289  393.3593
 290  447.7115
 291  394.1498
 292  548.9926
 293  388.3454
 294  410.0353
 295  331.7001
 296  360.8363
 297  352.5444
 298  356.0836
 299  410.0606
 300  314.8465
 301  311.407
 302  453.289
 303  423.0621
 304  438.5381
 305  393.4868
 306  328.1744
 307  395.6835
 308  432.8897
 309  480.4171
 310  282.4541
 311  298.5078
 312  334.0485
 313  330.5941
 314  374.3833
 315  231.2458
 316  379.1151
 317  380.0663
 318  292.3969
 319  243.5504
 320  457.9604
 321  365.8013
 322  329.5421
 323  225.1842
 324  214.8313
 325  315.2369
 326  370.7581
 327  410.2654
 328  372.6659
 329  349.4628
 330  327.8365
 331  222.6761
 332  383.5146
 333  353.4644
 334  292.6035
 335  405.4144
 336  336.5819
 337  368.8454
 338  335.8874
 339  295.221
 340  339.2319
 341  307.0658
 342  353.1199
 343  400.107
 344  330.1093
 345  361.9601
 346  486.4126
 347  381.2195
 348  415.212
 349  456.4749
 350  497.6406
 351  430.0415
 352  258.9054
 353  332.0521
 354  296.6329
 355  287.1083
 356  263.3688
 357  257.7128
 358  316.1154
 359  381.3177
 360  264.3669
 361  206.6317
 362  160.8883
 363  267.9771
 364  283.1742
 365  421.4905
 366  357.072
 367  279.7205
 368  385.8033
 369  379.8802
 370  334.059
 371  312.3805
 372  245.8576
 373  351.6452
 374  327.195
 375  306.9395
 376  268.7217
 377  295.8368
 378  346.5113
 379  416.041
 380  420.9082
 381  314.231
 382  325.9575
 383  320.5241
 384  268.431
 385  320.8121
 386  296.4058
 387  479.0125
 388  315.3682
 389  260.8058
 390  288.144
 391  268.756
 392  349.972
 393  311.8819
 394  290.0383
 395  410.1977
 396  538.7078
 397  448.2081
 398  361.3697
 399  338.3336
 400  348.7243
 401  432.4974
 402  381.6839
 403  334.9207
 404  288.0216
 405  390.6469
 406  419.0737
 407  398.1068
 408  302.9768
 409  383.9553
 410  432.8948
 411  257.2713
 412  205.1795
 413  314.7242
 414  314.9426
 415  340.2255
 416  318.1035
 417  223.1971
 418  258.0511
 419  405.5472
 420  444.2865
 421  341.7972
 422  297.9078
 423  323.2178
 424  332.7193
 425  446.0172
 426  409.2443
 427  360.0082
 428  386.4094
 429  337.1087
 430  397.0973
 431  384.6616
 432  272.2842
 433  339.5871
 434  309.636
 435  295.2187
 436  328.7783
 437  357.7039
 438  372.9712
 439  433.2478
 440  216.7593
 441  182.4449
 442  324.2981
 443  336.254
 444  339.7358
 445  371.9008
 446  368.6267
 447  337.1107
 448  244.6367
 449  293.0299
 450  307.4388
 451  378.4275
 452  359.8295
 453  338.6624
 454  279.0525
 455  276.5154
 456  166.8525
 457  271.3134
 458  355.7925
 459  334.0175
 460  346.6071
 461  319.1186
 462  345.2578
 463  329.901
 464  189.521
 465  313.1107
 466  289.0113
 467  421.1634
 468  374.7329
 469  465.9925
 470  406.5334
 471  389.5898
 472  269.0913
 473  285.5257
 474  221.1649
 475  283.1183
 476  280.1486
 477  397.5868
 478  363.2512
 479  292.7689
 480  343.8703
 481  336.4768
 482  307.2534
 483  275.6375
 484  285.5593
 485  235.9996
 486  307.9891
 487  297.2263
 488  276.5778
 489  333.6245
 490  446.1049
 491  411.1702
 492  372.7427
 493  341.1957
 494  421.3238
 495  368.9705
 496  312.0789
 497  368.7536
 498  476.2919
 499  499.4048
 500  466.9451
 501  315.7681
 502  352.3808
 503  334.1194
 504  254.5905
 505  259.5828
 506  299.9862
 507  333.3746
 508  352.7228
 509  322.8086
 510  263.1852
 511  245.333
