# Input file       =  1197655838.099764_cleaned.dat
# Candidate        =  PSR_0332+5434
# Telescope        =  AR
# Epoch_topo       =  58105.757605321342
# Epoch_bary       =  N/A
# T_sample         =  0.002
# Data Folded      =  7340032
# Data Avg         =  0.0337840936642743
# Data StdDev      =  1.00011302184235 
# Profile Bins     =  512
# Profile Avg      =  484.681778572383 
# Profile StdDev   =  119.746568825127 
# Reduced chi-sqr  =  0.868
# Prob(Noise)      <  0.986   (~0.0 sigma)
# P_topo (ms)      =  714.543641151877  +/- 0.000147
# P'_topo (s/s)    =  -0                +/- 7.73e-11
# P''_topo (s/s^2) =  0                 +/- 3.41e-14
# P_bary (ms)      =  N/A
# P'_bary (s/s)    =  N/A
# P''_bary (s/s^2) =  N/A
# P_orb (s)        =  N/A
# asin(i)/c (s)    =  N/A
# eccentricity     =  N/A
# w (rad)          =  N/A
# T_peri           =  N/A
######################################################
   0  484.4875
   1  458.0509
   2  497.6577
   3  473.062
   4  552.428
   5  475.0199
   6  466.9459
   7  481.9147
   8  402.7317
   9  438.7637
  10  544.0889
  11  530.1463
  12  455.7871
  13  513.8768
  14  502.2018
  15  378.0842
  16  462.343
  17  517.8125
  18  438.2115
  19  357.6338
  20  376.6094
  21  438.4794
  22  488.6811
  23  547.0109
  24  515.5416
  25  615.2864
  26  605.7723
  27  362.917
  28  283.4923
  29  275.0366
  30  438.8214
  31  476.1667
  32  485.4081
  33  445.9504
  34  333.6899
  35  408.2719
  36  541.178
  37  583.6419
  38  613.4364
  39  494.8315
  40  425.254
  41  366.3551
  42  257.882
  43  396.224
  44  450.3953
  45  502.3685
  46  536.064
  47  514.4884
  48  576.5678
  49  451.8504
  50  480.3377
  51  468.2067
  52  436.8494
  53  460.126
  54  391.3932
  55  454.3384
  56  358.3849
  57  443.2396
  58  497.489
  59  435.0728
  60  410.7188
  61  410.0446
  62  437.5411
  63  491.4474
  64  419.8607
  65  491.5045
  66  475.7305
  67  449.2886
  68  473.772
  69  345.7542
  70  316.6326
  71  484.2141
  72  544.1259
  73  514.5455
  74  533.1152
  75  474.0858
  76  464.8492
  77  388.6003
  78  376.2151
  79  419.5063
  80  402.3987
  81  467.5391
  82  460.1418
  83  443.1219
  84  533.3246
  85  468.5809
  86  564.9619
  87  610.2328
  88  438.8836
  89  415.0949
  90  505.7146
  91  438.7237
  92  427.2366
  93  515.3705
  94  464.2884
  95  314.9114
  96  384.7919
  97  481.8609
  98  514.8676
  99  394.0374
 100  473.8256
 101  453.6878
 102  446.5502
 103  421.6938
 104  363.975
 105  448.2611
 106  618.2349
 107  613.8362
 108  561.8803
 109  462.0858
 110  475.3082
 111  521.6057
 112  483.8741
 113  519.3406
 114  381.829
 115  436.5556
 116  483.0342
 117  468.371
 118  510.0429
 119  431.1979
 120  565.1848
 121  567.7014
 122  492.5527
 123  435.5397
 124  451.9081
 125  531.9022
 126  524.4738
 127  402.6348
 128  521.2291
 129  569.6254
 130  446.639
 131  571.8573
 132  593.944
 133  643.2736
 134  594.5168
 135  492.4267
 136  570.5697
 137  704.3636
 138  677.3774
 139  519.1796
 140  544.1942
 141  518.6531
 142  557.0758
 143  442.0272
 144  489.227
 145  434.8844
 146  473.5308
 147  639.1041
 148  614.6445
 149  574.2104
 150  455.1721
 151  400.4277
 152  331.6935
 153  443.5186
 154  488.6555
 155  500.9785
 156  462.8211
 157  379.3885
 158  469.9679
 159  583.4284
 160  489.7271
 161  543.463
 162  456.86
 163  385.0742
 164  506.0109
 165  501.955
 166  467.3377
 167  416.4894
 168  458.9274
 169  354.1157
 170  442.9585
 171  560.1358
 172  485.4903
 173  498.0839
 174  542.8185
 175  619.8503
 176  520.1356
 177  430.4247
 178  461.053
 179  490.473
 180  548.0329
 181  538.4055
 182  550.5101
 183  573.5468
 184  529.2414
 185  536.7888
 186  659.6476
 187  563.5137
 188  640.4966
 189  616.4078
 190  515.8851
 191  501.0729
 192  533.2318
 193  559.6357
 194  510.9246
 195  613.2233
 196  625.31
 197  556.0042
 198  526.2571
 199  492.9851
 200  575.9665
 201  541.7014
 202  650.8468
 203  613.2186
 204  528.6489
 205  481.8495
 206  449.1808
 207  558.553
 208  608.1115
 209  505.7447
 210  475.5078
 211  549.7443
 212  553.6296
 213  672.9943
 214  681.4426
 215  542.7773
 216  519.2914
 217  472.4137
 218  494.6527
 219  490.9467
 220  455.8117
 221  563.5244
 222  524.515
 223  493.5807
 224  553.3023
 225  641.0045
 226  536.2757
 227  524.8109
 228  524.3568
 229  551.4613
 230  533.1718
 231  453.0438
 232  543.1824
 233  384.0304
 234  435.5222
 235  572.6718
 236  592.012
 237  496.5465
 238  453.0321
 239  576.3783
 240  548.8367
 241  445.9594
 242  370.2811
 243  424.843
 244  461.3493
 245  518.4039
 246  508.4328
 247  527.7803
 248  506.1697
 249  422.7055
 250  509.0093
 251  500.1393
 252  617.0423
 253  549.0126
 254  423.7531
 255  415.6607
 256  334.026
 257  359.1575
 258  488.4091
 259  524.7195
 260  546.1473
 261  603.8336
 262  600.5695
 263  546.3477
 264  473.4132
 265  461.4226
 266  509.447
 267  481.0355
 268  518.3345
 269  518.6262
 270  510.6723
 271  426.9437
 272  390.7604
 273  472.3185
 274  527.4207
 275  602.5289
 276  520.2268
 277  512.4045
 278  544.9504
 279  536.5411
 280  608.2535
 281  515.4169
 282  541.2257
 283  460.2932
 284  405.9225
 285  441.6203
 286  475.8976
 287  444.6574
 288  357.9395
 289  366.3365
 290  456.562
 291  436.019
 292  358.5737
 293  467.9673
 294  457.745
 295  482.1851
 296  413.9646
 297  477.1647
 298  459.4578
 299  545.5825
 300  638.8564
 301  503.3213
 302  480.3775
 303  492.6618
 304  541.4973
 305  534.2602
 306  534.2897
 307  454.6246
 308  338.8318
 309  502.9348
 310  534.8228
 311  510.2862
 312  457.584
 313  469.9473
 314  371.6419
 315  533.8615
 316  614.0022
 317  538.3855
 318  426.3344
 319  503.1879
 320  445.8594
 321  322.9135
 322  427.0687
 323  513.9091
 324  435.1476
 325  447.3107
 326  573.6795
 327  475.0574
 328  386.5806
 329  420.8587
 330  383.944
 331  410.6631
 332  548.595
 333  569.1776
 334  554.9782
 335  456.6476
 336  449.8318
 337  526.3094
 338  443.3044
 339  408.5359
 340  528.3058
 341  502.3835
 342  445.2515
 343  423.4946
 344  472.0075
 345  511.9902
 346  480.9724
 347  484.6552
 348  450.1877
 349  468.7838
 350  484.2443
 351  382.0312
 352  316.961
 353  368.1825
 354  466.8904
 355  531.2064
 356  412.9167
 357  458.5378
 358  545.3019
 359  513.7336
 360  454.4984
 361  576.1849
 362  563.1092
 363  518.4417
 364  408.7465
 365  446.5988
 366  447.416
 367  414.7588
 368  508.939
 369  597.8937
 370  566.2302
 371  454.205
 372  303.3145
 373  390.0517
 374  366.2327
 375  531.7382
 376  651.0367
 377  513.6555
 378  368.5175
 379  371.2697
 380  488.6696
 381  490.5368
 382  377.1024
 383  437.5294
 384  465.2532
 385  360.177
 386  332.4998
 387  503.0035
 388  540.4288
 389  515.6612
 390  476.3424
 391  431.2334
 392  404.0218
 393  395.7379
 394  333.9696
 395  403.14
 396  297.924
 397  428.529
 398  457.2522
 399  355.3353
 400  367.814
 401  418.701
 402  427.7128
 403  392.7864
 404  454.4782
 405  501.392
 406  480.384
 407  458.298
 408  489.7396
 409  399.6933
 410  472.7705
 411  449.2289
 412  395.1721
 413  385.338
 414  364.0702
 415  405.8138
 416  479.4669
 417  389.7992
 418  403.6168
 419  527.0786
 420  516.6997
 421  439.7454
 422  454.0946
 423  456.3277
 424  444.6465
 425  393.0745
 426  467.9022
 427  415.0039
 428  529.6031
 429  501.5869
 430  400.3937
 431  393.5031
 432  470.7838
 433  558.0212
 434  411.6505
 435  391.3752
 436  377.3935
 437  465.5779
 438  430.1371
 439  427.0722
 440  452.7729
 441  430.6268
 442  495.0182
 443  580.7689
 444  495.167
 445  495.4536
 446  486.956
 447  484.3
 448  461.1435
 449  539.4399
 450  535.6758
 451  439.1206
 452  473.8955
 453  431.2876
 454  365.7495
 455  413.0288
 456  406.7484
 457  411.6248
 458  334.3849
 459  330.0984
 460  387.2421
 461  488.6833
 462  406.5147
 463  387.8838
 464  452.1912
 465  410.0172
 466  447.4519
 467  504.8696
 468  519.8273
 469  544.9835
 470  529.5239
 471  604.0566
 472  435.0495
 473  335.1614
 474  388.6166
 475  395.5437
 476  490.1577
 477  418.8529
 478  627.1448
 479  634.0443
 480  579.3028
 481  672.4053
 482  730.6472
 483  766.9116
 484  828.7175
 485  799.3411
 486  731.7429
 487  685.0906
 488  559.8167
 489  577.7593
 490  507.9243
 491  499.3695
 492  579.3309
 493  593.4617
 494  601.2845
 495  551.8265
 496  508.9079
 497  559.6846
 498  574.8576
 499  374.8536
 500  422.6716
 501  494.7563
 502  406.1606
 503  564.4833
 504  493.7907
 505  498.0355
 506  546.4201
 507  530.3004
 508  558.6501
 509  552.419
 510  566.0155
 511  565.7326
