# Input file       =  1197813510.105772_cleaned.dat
# Candidate        =  PSR_0332+5434
# Telescope        =  AR
# Epoch_topo       =  58107.582512798290
# Epoch_bary       =  N/A
# T_sample         =  0.002
# Data Folded      =  7143424
# Data Avg         =  0.0373103130308623
# Data StdDev      =  1.00017820022936 
# Profile Bins     =  512
# Profile Avg      =  520.569581949282 
# Profile StdDev   =  118.139633240714 
# Reduced chi-sqr  =  1.167
# Prob(Noise)      <  0.00528   (~2.6 sigma)
# P_topo (ms)      =  714.545393421274  +/- 9.44e-05
# P'_topo (s/s)    =  -0                +/- 5.12e-11
# P''_topo (s/s^2) =  0                 +/- 2.32e-14
# P_bary (ms)      =  N/A
# P'_bary (s/s)    =  N/A
# P''_bary (s/s^2) =  N/A
# P_orb (s)        =  N/A
# asin(i)/c (s)    =  N/A
# eccentricity     =  N/A
# w (rad)          =  N/A
# T_peri           =  N/A
######################################################
   0  913.5523
   1  936.8974
   2  750.0967
   3  648.2632
   4  518.5118
   5  616.2872
   6  449.592
   7  511.8563
   8  509.6746
   9  464.5047
  10  537.4819
  11  529.3486
  12  555.9182
  13  442.3327
  14  365.8454
  15  410.3067
  16  494.0321
  17  429.7151
  18  468.4852
  19  432.6194
  20  409.831
  21  498.7287
  22  512.2633
  23  464.1548
  24  428.7583
  25  425.4102
  26  462.2617
  27  534.2271
  28  542.8708
  29  443.5924
  30  426.1949
  31  588.2909
  32  593.0528
  33  577.5583
  34  445.1396
  35  443.0332
  36  571.1235
  37  721.7447
  38  604.7419
  39  461.3624
  40  523.3328
  41  533.1699
  42  560.4963
  43  604.7935
  44  602.7902
  45  564.9351
  46  615.1012
  47  481.0185
  48  447.8759
  49  524.4916
  50  498.6852
  51  496.5623
  52  421.4059
  53  439.5848
  54  444.832
  55  426.0615
  56  492.7446
  57  474.9353
  58  433.8179
  59  586.6151
  60  498.3977
  61  554.8589
  62  406.3704
  63  440.2464
  64  557.2776
  65  439.0682
  66  536.902
  67  519.4106
  68  634.9333
  69  565.1677
  70  516.6184
  71  447.3774
  72  540.6386
  73  419.8274
  74  382.1774
  75  475.4941
  76  535.9635
  77  437.636
  78  419.9997
  79  467.1924
  80  512.0251
  81  362.3464
  82  428.7893
  83  544.488
  84  573.2454
  85  521.1545
  86  439.8781
  87  440.185
  88  334.4928
  89  445.0335
  90  533.9763
  91  547.1609
  92  543.7747
  93  529.2185
  94  586.5208
  95  444.0742
  96  537.6824
  97  625.9459
  98  591.9158
  99  394.6137
 100  567.3555
 101  617.0213
 102  648.2344
 103  615.2312
 104  565.395
 105  534.2911
 106  474.388
 107  521.9435
 108  503.141
 109  510.9891
 110  521.5614
 111  565.902
 112  511.9698
 113  459.711
 114  540.0156
 115  650.8726
 116  702.7354
 117  608.6835
 118  604.2226
 119  524.8423
 120  342.5914
 121  502.0669
 122  533.4124
 123  437.4693
 124  437.7635
 125  372.1212
 126  338.7686
 127  226.792
 128  376.4966
 129  475.4237
 130  474.1903
 131  310.3741
 132  299.9947
 133  317.9849
 134  433.1211
 135  463.6135
 136  476.4488
 137  347.9071
 138  280.4438
 139  357.1203
 140  500.4613
 141  419.9196
 142  295.0368
 143  318.9019
 144  332.7017
 145  311.4884
 146  522.6443
 147  604.262
 148  576.1894
 149  454.408
 150  504.0108
 151  515.572
 152  481.9656
 153  410.9164
 154  563.6127
 155  524.7896
 156  399.246
 157  498.6308
 158  614.1998
 159  446.2493
 160  436.6919
 161  595.3034
 162  515.3472
 163  357.8699
 164  333.4094
 165  453.7344
 166  435.6296
 167  489.0433
 168  626.099
 169  581.3949
 170  618.0397
 171  636.6376
 172  462.1099
 173  546.4597
 174  434.254
 175  517.3319
 176  548.0114
 177  587.1974
 178  623.1095
 179  625.725
 180  539.0941
 181  490.3061
 182  567.643
 183  610.3169
 184  580.1053
 185  457.4774
 186  498.2212
 187  622.2419
 188  472.148
 189  517.6683
 190  638.6127
 191  660.5522
 192  470.71
 193  596.8227
 194  607.985
 195  397.14
 196  430.0843
 197  636.2393
 198  668.7176
 199  563.5986
 200  525.6964
 201  530.5082
 202  486.9222
 203  430.7827
 204  472.1822
 205  509.2637
 206  489.2588
 207  502.4475
 208  430.6379
 209  503.545
 210  367.5633
 211  434.9522
 212  483.0745
 213  420.6579
 214  385.5179
 215  437.6059
 216  403.8592
 217  415.9788
 218  488.2637
 219  469.8605
 220  468.0013
 221  404.0273
 222  380.1927
 223  445.3511
 224  435.318
 225  517.5278
 226  546.0195
 227  505.7065
 228  418.2211
 229  542.7942
 230  584.012
 231  480.1873
 232  459.9908
 233  596.3916
 234  612.1511
 235  597.7457
 236  465.4188
 237  403.4601
 238  461.0656
 239  450.4234
 240  373.5443
 241  447.3351
 242  529.3039
 243  546.5577
 244  618.1333
 245  582.2382
 246  557.9226
 247  546.2367
 248  632.2039
 249  471.1246
 250  528.0242
 251  580.7501
 252  512.0352
 253  523.0233
 254  487.57
 255  467.4877
 256  442.0723
 257  496.2489
 258  495.6882
 259  530.6459
 260  411.2612
 261  429.6484
 262  421.6172
 263  391.9657
 264  474.1008
 265  607.1889
 266  622.8766
 267  615.5605
 268  442.0483
 269  470.9007
 270  520.551
 271  482.5586
 272  443.6134
 273  492.1433
 274  451.0024
 275  475.5589
 276  574.4344
 277  533.6147
 278  451.0941
 279  573.3523
 280  681.5357
 281  516.2378
 282  533.9727
 283  517.9559
 284  435.0081
 285  507.7945
 286  577.4484
 287  546.264
 288  470.1413
 289  600.5569
 290  528.7023
 291  557.5282
 292  442.6937
 293  541.1061
 294  455.0031
 295  428.7477
 296  608.921
 297  561.6525
 298  640.9032
 299  656.1321
 300  600.4569
 301  540.1593
 302  524.5254
 303  479.8745
 304  548.1708
 305  452.758
 306  482.8065
 307  550.7338
 308  531.0335
 309  483.4388
 310  404.3334
 311  424.6234
 312  553.5651
 313  541.1781
 314  524.2272
 315  567.1224
 316  514.2319
 317  535.3748
 318  471.7495
 319  442.5145
 320  478.2988
 321  577.5853
 322  531.3478
 323  556.2148
 324  508.8246
 325  517.948
 326  542.0226
 327  630.0052
 328  636.6994
 329  603.1069
 330  561.7332
 331  614.4602
 332  537.8561
 333  531.6447
 334  556.5688
 335  547.3829
 336  541.3863
 337  531.6426
 338  676.8168
 339  563.1378
 340  536.9702
 341  718.7983
 342  756.949
 343  654.6845
 344  518.782
 345  530.3889
 346  650.0696
 347  790.0571
 348  747.8754
 349  700.045
 350  675.4916
 351  516.6229
 352  521.1431
 353  430.4817
 354  480.4279
 355  573.2709
 356  544.6293
 357  438.6121
 358  495.8573
 359  611.9565
 360  532.5781
 361  575.8334
 362  620.2271
 363  689.0154
 364  538.8755
 365  573.5997
 366  618.343
 367  445.8169
 368  335.6153
 369  450.3072
 370  488.4586
 371  507.0635
 372  601.0275
 373  616.598
 374  587.5945
 375  637.7111
 376  619.8603
 377  643.8018
 378  592.948
 379  738.0821
 380  674.3103
 381  458.4501
 382  457.127
 383  599.8809
 384  650.2114
 385  669.3914
 386  556.5618
 387  424.2418
 388  527.03
 389  462.2187
 390  666.153
 391  649.4728
 392  495.8427
 393  425.9846
 394  517.2183
 395  576.0216
 396  558.4556
 397  581.3405
 398  541.2919
 399  407.234
 400  391.5723
 401  569.4073
 402  752.187
 403  724.6843
 404  721.0373
 405  640.5682
 406  578.8333
 407  586.5534
 408  390.8163
 409  480.2496
 410  562.128
 411  466.209
 412  565.0117
 413  635.2283
 414  579.956
 415  598.5669
 416  537.4078
 417  570.4155
 418  699.3601
 419  538.5876
 420  551.3213
 421  531.7006
 422  532.0914
 423  517.5181
 424  500.9851
 425  448.0136
 426  519.3934
 427  564.5015
 428  632.7317
 429  509.4234
 430  366.9022
 431  489.1894
 432  569.4649
 433  501.0336
 434  488.8442
 435  565.7571
 436  489.6115
 437  470.5754
 438  522.304
 439  553.2825
 440  516.8896
 441  488.3164
 442  590.0012
 443  624.7046
 444  575.5095
 445  545.9231
 446  529.7028
 447  519.8985
 448  619.2568
 449  512.4114
 450  483.8911
 451  522.3519
 452  469.5313
 453  431.1713
 454  407.1025
 455  488.7522
 456  491.6545
 457  471.5545
 458  492.8886
 459  527.3187
 460  492.17
 461  661.6769
 462  565.5189
 463  540.1466
 464  479.9864
 465  486.799
 466  465.1517
 467  421.9636
 468  484.6574
 469  383.981
 470  431.3831
 471  367.0938
 472  457.5849
 473  574.9105
 474  432.8127
 475  373.3925
 476  411.7344
 477  458.0219
 478  381.1268
 479  428.1638
 480  521.4827
 481  601.2903
 482  544.2128
 483  525.9108
 484  581.8735
 485  528.3276
 486  435.002
 487  390.239
 488  532.973
 489  537.5823
 490  424.6244
 491  567.204
 492  569.0307
 493  456.1042
 494  477.3262
 495  529.6059
 496  647.105
 497  609.5642
 498  742.3618
 499  678.3841
 500  582.3781
 501  584.0868
 502  547.5757
 503  490.4475
 504  580.6747
 505  529.3279
 506  658.3998
 507  572.6736
 508  687.5365
 509  753.4975
 510  793.1062
 511  842.6981
