# Input file       =  1197641248.109297_cleaned.dat
# Candidate        =  PSR_0332+5434
# Telescope        =  AR
# Epoch_topo       =  58105.588739690938
# Epoch_bary       =  N/A
# T_sample         =  0.002
# Data Folded      =  7143424
# Data Avg         =  0.276863756255298
# Data StdDev      =  5.70938821216296 
# Profile Bins     =  512
# Profile Avg      =  3862.77093574519 
# Profile StdDev   =  674.384853878147 
# Reduced chi-sqr  =  1.199
# Prob(Noise)      <  0.00129   (~3.0 sigma)
# P_topo (ms)      =  714.54346455141   +/- 2.52e-05
# P'_topo (s/s)    =  -0                +/- 1.36e-11
# P''_topo (s/s^2) =  0                 +/- 6.19e-15
# P_bary (ms)      =  N/A
# P'_bary (s/s)    =  N/A
# P''_bary (s/s^2) =  N/A
# P_orb (s)        =  N/A
# asin(i)/c (s)    =  N/A
# eccentricity     =  N/A
# w (rad)          =  N/A
# T_peri           =  N/A
######################################################
   0  3039.793
   1  3158.504
   2  3448.606
   3  3771.67
   4  4087.735
   5  4192.753
   6  3602.093
   7  3357.294
   8  3236.688
   9  3452.458
  10  3608.238
  11  4131.19
  12  4037.02
  13  3963.988
  14  4211.478
  15  3701.797
  16  3134.479
  17  2846.971
  18  3281.435
  19  3291.404
  20  3851.75
  21  4389.943
  22  4372.636
  23  3851.726
  24  2785.269
  25  3217.347
  26  3525.655
  27  3670.477
  28  4011.492
  29  4428.642
  30  4388.218
  31  4101.817
  32  3958.37
  33  3156.78
  34  3129.529
  35  2811.633
  36  3519.941
  37  4105.288
  38  4444.946
  39  4322.684
  40  3436.914
  41  3346.794
  42  3294.728
  43  3483.981
  44  3463.012
  45  4235.95
  46  4635.438
  47  4631.054
  48  3990.033
  49  3653.702
  50  4232.538
  51  3468.754
  52  3109.577
  53  3396.895
  54  4451.428
  55  4475.407
  56  3492.661
  57  2974.268
  58  3410.045
  59  3373.005
  60  3239.313
  61  3765.199
  62  3927.362
  63  3648.52
  64  3840.676
  65  3539.317
  66  3449.18
  67  3035.375
  68  3483.838
  69  3291.282
  70  4202.818
  71  4099.253
  72  4151.971
  73  3810.119
  74  3486.465
  75  3927.749
  76  3662.104
  77  3817.632
  78  4227.196
  79  4943.202
  80  4677.228
  81  3635.484
  82  3658.908
  83  3890.063
  84  4082.75
  85  3836.487
  86  3925.221
  87  3955.245
  88  4064.151
  89  3891.213
  90  3711.026
  91  3472.509
  92  3935.577
  93  4268.516
  94  4574.542
  95  4722.688
  96  4572.538
  97  4257.419
  98  3646.157
  99  3548.094
 100  3476.626
 101  3689.383
 102  4332.727
 103  4758.028
 104  4698.804
 105  4350.009
 106  3708.835
 107  3281.014
 108  3407.69
 109  3432.876
 110  3832.858
 111  4128.714
 112  4238.399
 113  4595.413
 114  3965.811
 115  3355.557
 116  2726.172
 117  2834.24
 118  2714.683
 119  3172.916
 120  4065.238
 121  4365.084
 122  4066.727
 123  3187.951
 124  3307.644
 125  3343.303
 126  3777.656
 127  3864.557
 128  4556.089
 129  4664
 130  4238.232
 131  3241.881
 132  3158.099
 133  3624.325
 134  3323.719
 135  3321.129
 136  3733.755
 137  4208.945
 138  4148.083
 139  3530.469
 140  3733.752
 141  3170.632
 142  3466.73
 143  3450.113
 144  3711.653
 145  3820.278
 146  4474.343
 147  4486.679
 148  3977.735
 149  3501.702
 150  3467.882
 151  3246.169
 152  3499.036
 153  4349.735
 154  4448.016
 155  4042.035
 156  3717.712
 157  3424.384
 158  3870.091
 159  3692.648
 160  4051.488
 161  4251.718
 162  4270.059
 163  3636.109
 164  2967.49
 165  2853.386
 166  3193.063
 167  3755.169
 168  4259.433
 169  4399.885
 170  4117.234
 171  3545.613
 172  2635.221
 173  2710.741
 174  3376.292
 175  3636.421
 176  4230.893
 177  4162.642
 178  4473.019
 179  4129.376
 180  3497.594
 181  2928.942
 182  3294.183
 183  3386.865
 184  3215.883
 185  3768.555
 186  4406.425
 187  4365.917
 188  3881.502
 189  3474.802
 190  3446.735
 191  3117.674
 192  3309.105
 193  3867.379
 194  4670.443
 195  4554.705
 196  4327.565
 197  3490.579
 198  3040.176
 199  2440.593
 200  2935.078
 201  3508.241
 202  4503.397
 203  4966.328
 204  4289.468
 205  3644.263
 206  2913.813
 207  3225.853
 208  3417.776
 209  3820.054
 210  3895.291
 211  4797.405
 212  5046.979
 213  4307.284
 214  3400.996
 215  3207.863
 216  3326.838
 217  3233.665
 218  3523.111
 219  3912.416
 220  3979.576
 221  3839.846
 222  3520.612
 223  3449.286
 224  3500.549
 225  3855.08
 226  4053.789
 227  4372.688
 228  4724.297
 229  4012.438
 230  3857.9
 231  3465.969
 232  3248.745
 233  3166.337
 234  3526.233
 235  3654.074
 236  4067.313
 237  4180.351
 238  3870.258
 239  3433.981
 240  3626.661
 241  3966.793
 242  3758.163
 243  3867.002
 244  4411.093
 245  4383.399
 246  3472.376
 247  3603.723
 248  3259.124
 249  3257.533
 250  3640.281
 251  4024.945
 252  4315.627
 253  4336.203
 254  3702.873
 255  3231.406
 256  3018.59
 257  3603.142
 258  4343.466
 259  4810.099
 260  4869.409
 261  5353.651
 262  4629.822
 263  3744.655
 264  3433.583
 265  3551.403
 266  3518.48
 267  3715.173
 268  4611.655
 269  4844.561
 270  4312.281
 271  4049.433
 272  4092.594
 273  3774.716
 274  3924.395
 275  4300.962
 276  4899.936
 277  5123.017
 278  4874.454
 279  4529.051
 280  3780.531
 281  3525.635
 282  3596.155
 283  3764.208
 284  4512.865
 285  4870.98
 286  4735
 287  4224.425
 288  3759.275
 289  3344.594
 290  3755.283
 291  3615.934
 292  3976.46
 293  4785.233
 294  4803.061
 295  4825.953
 296  3594.861
 297  3768.633
 298  3204.923
 299  3375.665
 300  3519.715
 301  4478.903
 302  4844.576
 303  4565.684
 304  4365.543
 305  3933.378
 306  4117.339
 307  4238.957
 308  4678.587
 309  4324.989
 310  5072.112
 311  5877.356
 312  5276.082
 313  4663.84
 314  4295.855
 315  4218.228
 316  4209.831
 317  4475.037
 318  4587.564
 319  4706.067
 320  4658.494
 321  4172.88
 322  4097.967
 323  3890.778
 324  3918.59
 325  3867.287
 326  4548.065
 327  4391.777
 328  4004.752
 329  3890.939
 330  3455.098
 331  3804.102
 332  4059.26
 333  4032.667
 334  4289.667
 335  4365.692
 336  4358.867
 337  3964.854
 338  3460.894
 339  3443.861
 340  3873.55
 341  3886.354
 342  3905.638
 343  4184.43
 344  4771.289
 345  4036.266
 346  3558.169
 347  3189.952
 348  3441.143
 349  3803.658
 350  3589.681
 351  4524.19
 352  4588.531
 353  4189.074
 354  3499.317
 355  3217.837
 356  3267.012
 357  3361.443
 358  3798.237
 359  4230.698
 360  4453.234
 361  4206.401
 362  3732.276
 363  2723.168
 364  2459.282
 365  2989.539
 366  3613.748
 367  4089.295
 368  4374.363
 369  4308.632
 370  3709.984
 371  3474.102
 372  3396.647
 373  3744.742
 374  3916.276
 375  3765.136
 376  4427.374
 377  4371.581
 378  4114.317
 379  3676.578
 380  3403.998
 381  3183.125
 382  3510.019
 383  3869.541
 384  4467.935
 385  4518.082
 386  4133.939
 387  3673.852
 388  3067.808
 389  3780.528
 390  3979.614
 391  3950.172
 392  4138.563
 393  4609.192
 394  4596.449
 395  3400.532
 396  3386.794
 397  3333.55
 398  3602.552
 399  3418.405
 400  3934.142
 401  4728.49
 402  4839.185
 403  3937.433
 404  2813.481
 405  3156.704
 406  3459.344
 407  4027.127
 408  4121.784
 409  4560.672
 410  4535.029
 411  4536.241
 412  3728.789
 413  3265.515
 414  3752.395
 415  3700.04
 416  4066.342
 417  4531.688
 418  4298.272
 419  4267.117
 420  3530.299
 421  3613.365
 422  4010.118
 423  4023.355
 424  3984.472
 425  4504.728
 426  4445.568
 427  4370.65
 428  3847.861
 429  3266.999
 430  3339.215
 431  3669.726
 432  3811.512
 433  4411.886
 434  4931.573
 435  4146.692
 436  3685.339
 437  3582.611
 438  3408.915
 439  3599.332
 440  4074.618
 441  4421.882
 442  4571.162
 443  4733.092
 444  4055.256
 445  3482.326
 446  2802.42
 447  3099.262
 448  3302
 449  3557.017
 450  3848.845
 451  4317.416
 452  4706.37
 453  3939.333
 454  3422.35
 455  3065.526
 456  3122.164
 457  3324.713
 458  4367.026
 459  4620.779
 460  4527.587
 461  3962.83
 462  3433.138
 463  3557.896
 464  3185.298
 465  3770.552
 466  4306.785
 467  4491.36
 468  4378.709
 469  3774.818
 470  3134.924
 471  2887.433
 472  3550.026
 473  3377.346
 474  3541.895
 475  4081.402
 476  4467.817
 477  4179.25
 478  3428.197
 479  3270.725
 480  3178.052
 481  2915.562
 482  2700.868
 483  3584.915
 484  3796.325
 485  3935.953
 486  3589.281
 487  3728.955
 488  3993.818
 489  3474.587
 490  4078.486
 491  4671.402
 492  4827.156
 493  4762.033
 494  4110.864
 495  3897.515
 496  3733.81
 497  3794.275
 498  3866.252
 499  3720.031
 500  3728.606
 501  4366.585
 502  4008.922
 503  3251.978
 504  3113.128
 505  3664.156
 506  4020.13
 507  3891.338
 508  4374.678
 509  4360.664
 510  3793.387
 511  3194.534
