# Input file       =  1197585260.104582_cleaned.dat
# Candidate        =  PSR_0332+5434
# Telescope        =  AR
# Epoch_topo       =  58104.940730377108
# Epoch_bary       =  N/A
# T_sample         =  0.002
# Data Folded      =  7340032
# Data Avg         =  0.144268066646223
# Data StdDev      =  3.7846681052033  
# Profile Bins     =  256
# Profile Avg      =  4136.43618583278 
# Profile StdDev   =  640.850598482303 
# Reduced chi-sqr  =  0.941
# Prob(Noise)      <  0.744   (~0.0 sigma)
# P_topo (ms)      =  714.543194740967  +/- 0.000262
# P'_topo (s/s)    =  -0                +/- 1.38e-10
# P''_topo (s/s^2) =  0                 +/- 6.1e-14
# P_bary (ms)      =  N/A
# P'_bary (s/s)    =  N/A
# P''_bary (s/s^2) =  N/A
# P_orb (s)        =  N/A
# asin(i)/c (s)    =  N/A
# eccentricity     =  N/A
# w (rad)          =  N/A
# T_peri           =  N/A
######################################################
   0  4467.753
   1  3932.604
   2  4256.386
   3  3715.855
   4  3951.489
   5  4201.298
   6  4573.757
   7  5381.466
   8  5113.31
   9  4682.408
  10  4767.965
  11  4719.492
  12  4672.554
  13  4280.63
  14  4030.337
  15  3902.574
  16  3864.563
  17  3594.819
  18  3886.512
  19  4150.817
  20  3625.701
  21  3640.429
  22  4522.919
  23  3751.53
  24  3857.533
  25  4145.652
  26  4240.887
  27  4120.495
  28  4636.796
  29  4059.002
  30  4257.305
  31  4311.776
  32  3780.457
  33  3510.587
  34  4410.438
  35  3937.931
  36  4452.967
  37  3411.843
  38  4239.295
  39  3904.339
  40  4104.624
  41  4441.277
  42  3500.038
  43  4261.345
  44  4592.602
  45  3673.339
  46  3681.886
  47  3762.204
  48  4242.253
  49  3757.365
  50  3286.984
  51  3304.079
  52  3466.685
  53  4472.491
  54  3640.433
  55  3236.857
  56  3613.684
  57  4352.378
  58  4166.036
  59  4705.874
  60  4401.098
  61  3938.099
  62  4055.151
  63  3934.82
  64  3982.932
  65  3914.074
  66  4578.107
  67  4706.351
  68  3700.964
  69  4179.156
  70  4259.45
  71  4328.149
  72  4204.501
  73  4019.541
  74  4340.382
  75  4058.433
  76  3724.006
  77  3964.035
  78  4711.344
  79  4155.407
  80  4234.591
  81  4240.872
  82  4590.645
  83  4380.542
  84  4238.837
  85  4414.176
  86  4466.657
  87  4151.41
  88  4611.905
  89  4097.529
  90  4084.381
  91  4238.748
  92  4446.128
  93  4331.833
  94  4805.621
  95  3898.253
  96  4802.686
  97  4490.841
  98  5215.753
  99  4821.455
 100  3860.661
 101  3843.817
 102  3671.145
 103  4793.058
 104  4800.478
 105  4477.021
 106  4531.747
 107  3958.131
 108  4223.507
 109  3580.849
 110  3546.14
 111  3971.124
 112  4285.452
 113  4606.845
 114  3585.783
 115  4445.759
 116  3907.247
 117  3691.675
 118  4491.47
 119  4180.531
 120  5303.831
 121  4386.921
 122  3595.034
 123  4609.49
 124  4336.333
 125  4044.443
 126  3985.531
 127  3975.858
 128  3565.027
 129  3717.052
 130  4759.045
 131  4241.893
 132  3878.421
 133  4344.821
 134  4230.896
 135  4146.061
 136  3723.622
 137  4526.801
 138  4769.076
 139  4542.689
 140  4597.986
 141  4116.494
 142  4184.375
 143  3658.917
 144  4152.244
 145  4523.191
 146  4369.394
 147  4624.592
 148  5054.742
 149  4270.009
 150  3382.3
 151  4391.011
 152  5495.235
 153  4866.204
 154  4670.143
 155  6708.875
 156  6452.156
 157  5625.788
 158  4202.1
 159  4198.404
 160  4099.587
 161  3251.795
 162  3389.365
 163  3542.547
 164  3905.283
 165  3954.199
 166  3926.923
 167  4632.661
 168  3825.161
 169  4104.358
 170  4030.541
 171  3975.782
 172  3484.1
 173  3853.364
 174  3897.948
 175  3720.118
 176  3081.139
 177  3627.107
 178  3287.583
 179  3380.872
 180  3330.137
 181  3964.344
 182  3356.205
 183  3454.661
 184  3573.637
 185  3585.696
 186  3054.307
 187  3615.259
 188  3777.533
 189  4285.177
 190  3838.918
 191  4662.411
 192  4242.648
 193  4178.381
 194  3460.501
 195  4017.659
 196  4313.333
 197  3939.194
 198  3353.7
 199  3661.92
 200  3637.971
 201  4049.07
 202  3699.897
 203  3327.196
 204  3670.438
 205  3730.384
 206  2994.266
 207  3635.469
 208  3067.202
 209  3307.213
 210  3820.156
 211  3957.271
 212  4206.282
 213  4378.013
 214  4495.452
 215  4611.549
 216  3745.219
 217  3537.594
 218  4339.961
 219  4626.428
 220  4128.595
 221  3815.979
 222  3385.369
 223  3540.34
 224  3780.048
 225  3763.555
 226  3532.987
 227  4041.948
 228  4014.303
 229  4137.796
 230  4631.242
 231  3624.581
 232  3581.263
 233  3712.578
 234  4313.613
 235  3485.448
 236  4623.38
 237  4815.656
 238  4096.155
 239  4270.277
 240  4254.049
 241  4682.979
 242  4246.428
 243  4090.348
 244  3874.29
 245  4792.592
 246  5103.265
 247  5356.172
 248  4902.022
 249  5468.966
 250  5641.634
 251  4429.303
 252  4447.826
 253  4912.506
 254  4276.345
 255  4055.53
