# Input file       =  1197641248.109297_cleaned.dat
# Candidate        =  PSR_0332+5434
# Telescope        =  AR
# Epoch_topo       =  58105.588739690938
# Epoch_bary       =  N/A
# T_sample         =  0.002
# Data Folded      =  7143424
# Data Avg         =  0.276863756255298
# Data StdDev      =  5.70938821216296 
# Profile Bins     =  512
# Profile Avg      =  3862.77093580359 
# Profile StdDev   =  674.384853878147 
# Reduced chi-sqr  =  1.206
# Prob(Noise)      <  0.000935   (~3.1 sigma)
# P_topo (ms)      =  714.543464591296  +/- 2.5e-05
# P'_topo (s/s)    =  -0                +/- 1.36e-11
# P''_topo (s/s^2) =  0                 +/- 6.15e-15
# P_bary (ms)      =  N/A
# P'_bary (s/s)    =  N/A
# P''_bary (s/s^2) =  N/A
# P_orb (s)        =  N/A
# asin(i)/c (s)    =  N/A
# eccentricity     =  N/A
# w (rad)          =  N/A
# T_peri           =  N/A
######################################################
   0  3374.602
   1  2769.864
   2  3333.203
   3  3686.588
   4  3654.655
   5  4436.537
   6  4316.615
   7  4270.767
   8  4083.423
   9  3646.633
  10  3206.24
  11  2800.434
  12  3075.955
  13  3759.877
  14  4442.106
  15  4434.428
  16  3896.26
  17  3248.515
  18  3356.629
  19  3533.484
  20  3252.586
  21  3870.908
  22  4261.823
  23  4936.38
  24  4344.146
  25  3755.397
  26  3874.331
  27  3893.329
  28  3326.486
  29  3049.711
  30  4053.554
  31  4421.907
  32  4263.255
  33  3039.284
  34  3248.252
  35  3423.215
  36  3168.346
  37  3503.959
  38  3890.04
  39  3892.573
  40  3533.69
  41  3854.049
  42  3404.744
  43  3333.261
  44  3255.713
  45  3282.932
  46  3674.012
  47  4142.816
  48  4270.448
  49  4001.576
  50  3729.229
  51  3397.663
  52  4027.882
  53  3594
  54  4050.801
  55  4522.078
  56  4878.631
  57  4301.772
  58  3465.89
  59  3902.636
  60  3800.05
  61  4132.089
  62  3712.225
  63  4125.277
  64  3978.456
  65  3954.26
  66  3895.644
  67  3394.316
  68  3873.791
  69  3915.342
  70  4540.222
  71  4536.357
  72  4758.719
  73  4509.638
  74  3960.858
  75  3540.215
  76  3412.13
  77  3667.207
  78  3852.929
  79  4704.881
  80  4640.95
  81  4598.205
  82  4133.833
  83  3419.472
  84  3437.73
  85  3264.982
  86  3644.935
  87  3889.293
  88  4339.675
  89  4346.65
  90  4355.213
  91  3697.402
  92  3027.542
  93  2877.35
  94  2652.207
  95  2875.754
  96  3417.136
  97  4484.857
  98  4208.365
  99  3740.971
 100  3124.873
 101  3230.262
 102  3656.648
 103  3701.37
 104  4227.478
 105  4594.591
 106  4594.084
 107  3800.305
 108  3153.642
 109  3363.04
 110  3457.547
 111  3273.384
 112  3493.532
 113  4054.344
 114  4245.864
 115  3700.09
 116  3709.102
 117  3509.539
 118  3311.596
 119  3391.394
 120  3606.324
 121  3601.408
 122  4286.843
 123  4500.456
 124  4317.856
 125  3648.846
 126  3423.38
 127  3524.922
 128  3197.894
 129  3882.565
 130  4422.292
 131  4413.467
 132  3857.617
 133  3581.869
 134  3471.121
 135  3833.629
 136  3830.126
 137  4161.921
 138  4346.577
 139  3993.369
 140  3327.648
 141  2781.904
 142  3087.262
 143  3336.824
 144  4073.429
 145  4221.272
 146  4407.213
 147  3978.958
 148  3112.588
 149  2483.708
 150  2949.365
 151  3595.305
 152  3866.476
 153  4252.784
 154  4281.458
 155  4356.377
 156  4015.71
 157  3100.62
 158  3054.351
 159  3315.117
 160  3313.196
 161  3422.297
 162  4103.683
 163  4509.121
 164  4066.276
 165  3698.08
 166  3402.504
 167  3460.077
 168  2990.492
 169  3627.796
 170  4234.728
 171  4710.329
 172  4487.481
 173  3895.294
 174  3338.796
 175  2676.553
 176  2665.673
 177  3114.49
 178  3933.868
 179  4676.286
 180  4838.438
 181  4006.674
 182  3407.84
 183  2914.425
 184  3184.427
 185  3654.442
 186  3799.236
 187  4357.255
 188  4957.795
 189  4789.513
 190  3879.181
 191  3270.685
 192  3334.686
 193  3140.953
 194  3330.143
 195  3723.403
 196  4053.941
 197  3970.922
 198  3665.811
 199  3426.252
 200  3418.936
 201  3730.979
 202  3898.261
 203  4212.575
 204  4458.352
 205  4634.784
 206  3839.392
 207  3739.02
 208  3279.374
 209  3204.086
 210  3352.371
 211  3640.196
 212  3770.773
 213  4090.518
 214  4160.895
 215  3612.139
 216  3492.742
 217  3810.025
 218  3872.917
 219  3714.294
 220  4063.215
 221  4684.956
 222  3838.388
 223  3501.391
 224  3388.518
 225  3346.287
 226  3374.024
 227  3799.705
 228  4065.394
 229  4398.607
 230  4182.425
 231  3391.185
 232  3219.698
 233  2977.937
 234  4081.384
 235  4521.484
 236  4920.183
 237  5080.944
 238  5084.427
 239  4276.521
 240  3518.4
 241  3592.52
 242  3410.447
 243  3587.296
 244  4011.036
 245  5020.833
 246  4550.314
 247  4123.675
 248  4072.922
 249  3934.456
 250  3878.422
 251  3990.221
 252  4625.453
 253  4968.819
 254  5112.474
 255  4733.195
 256  4341.516
 257  3469.512
 258  3490.479
 259  3702.014
 260  4017.244
 261  4864.119
 262  4644.289
 263  4616.312
 264  4027.928
 265  3579.053
 266  3505.801
 267  3638.856
 268  3732.571
 269  4260.552
 270  5007.709
 271  4790.083
 272  4345.233
 273  3473.31
 274  3620.142
 275  3283.946
 276  3330.705
 277  3914.595
 278  4659.534
 279  4853.885
 280  4481.858
 281  4140.897
 282  3995.021
 283  4005.346
 284  4667.834
 285  4368.63
 286  4673.439
 287  5407.592
 288  5846.895
 289  4890.975
 290  4583.254
 291  4214.781
 292  4092.368
 293  4355.171
 294  4511.484
 295  4814.079
 296  4554.708
 297  4531.794
 298  4002.64
 299  4163.339
 300  3892.501
 301  3711.27
 302  4222.453
 303  4481.671
 304  4426.662
 305  3800.217
 306  3761.143
 307  3363.129
 308  4088.528
 309  4106.209
 310  4082.543
 311  4363.944
 312  4205.091
 313  4397.276
 314  3622.256
 315  3600.031
 316  3436.862
 317  3978.807
 318  3824.05
 319  3998.103
 320  4583.187
 321  4448.642
 322  3763.146
 323  3383.486
 324  3263.284
 325  3635.155
 326  3667.596
 327  3890.6
 328  4728.621
 329  4574.043
 330  3765.067
 331  3401.705
 332  3031.476
 333  3461.081
 334  3498.735
 335  4058.439
 336  4274.291
 337  4286.77
 338  4208.374
 339  3250.235
 340  2568.397
 341  2478.479
 342  3409.697
 343  3751.543
 344  4364.533
 345  4293.329
 346  4157.835
 347  3459.022
 348  3424.814
 349  3602.38
 350  3776.782
 351  3909.953
 352  3848.26
 353  4646.449
 354  4286.084
 355  3896.914
 356  3478.604
 357  3164.044
 358  3517.495
 359  3499.8
 360  4290.097
 361  4370.171
 362  4507.647
 363  3907.173
 364  3420.775
 365  3227.332
 366  3942.192
 367  3978.183
 368  3916.781
 369  4528.535
 370  4640.341
 371  4095.397
 372  3186.378
 373  3488.951
 374  3512.862
 375  3356.435
 376  3597.606
 377  4249.825
 378  5127.067
 379  4418.463
 380  3377.876
 381  2733.811
 382  3336.057
 383  3809.918
 384  3994.403
 385  4390.671
 386  4421.249
 387  4726.868
 388  4267.083
 389  3411.141
 390  3372.524
 391  3725.863
 392  3758.764
 393  4458.019
 394  4414.53
 395  4308.146
 396  4002.224
 397  3389.585
 398  3932.651
 399  3969.55
 400  3897.007
 401  4246.224
 402  4493.978
 403  4519.073
 404  4148.378
 405  3602.722
 406  3030.492
 407  3722.097
 408  3659.742
 409  4132.009
 410  4542.572
 411  4718.291
 412  3897.967
 413  3638.967
 414  3604.779
 415  3197.813
 416  3972.857
 417  4155.717
 418  4626.67
 419  4613.883
 420  4456.771
 421  3855.984
 422  3104.337
 423  2973.709
 424  3037.549
 425  3504.451
 426  3465.537
 427  4290.259
 428  4428.714
 429  4575.178
 430  3526.44
 431  3190.749
 432  3246.451
 433  2995.477
 434  3863.315
 435  4455.115
 436  4709.759
 437  4316.012
 438  3730.24
 439  3394.185
 440  3384.461
 441  3294.883
 442  4122.287
 443  4527.338
 444  4340.985
 445  4184.153
 446  3465.669
 447  2949.045
 448  3211.405
 449  3469.86
 450  3417.979
 451  3662.369
 452  4561.328
 453  4238.007
 454  3939.468
 455  3073.126
 456  3352.214
 457  3187.549
 458  2660.57
 459  3136.641
 460  3603.105
 461  4030.091
 462  3739.355
 463  3660.684
 464  3842.864
 465  3727.147
 466  3595.634
 467  4466.446
 468  4766.541
 469  4797.269
 470  4507.904
 471  4002.181
 472  3919.511
 473  3628.312
 474  3822.193
 475  3802.219
 476  3704.342
 477  4080.055
 478  4306.529
 479  3634.62
 480  3026.523
 481  3358.061
 482  3925.065
 483  3951.71
 484  4040.027
 485  4359.559
 486  4302.162
 487  3425.257
 488  3179.424
 489  2847.913
 490  3406.742
 491  3548.187
 492  4036.722
 493  4100.914
 494  3961.305
 495  3521.033
 496  3166.456
 497  3520.129
 498  3269.713
 499  4005.642
 500  4018.374
 501  4066.927
 502  4057.806
 503  4089.873
 504  3336.812
 505  2964.757
 506  3151.12
 507  3241.931
 508  3514.522
 509  3924.644
 510  4625.412
 511  4206.847
