# Input file       =  1197670746.104753_cleaned.dat
# Candidate        =  PSR_0332+5434
# Telescope        =  AR
# Epoch_topo       =  58105.930151675384
# Epoch_bary       =  N/A
# T_sample         =  0.002
# Data Folded      =  7340032
# Data Avg         =  0.0245648863858533
# Data StdDev      =  1.00011249952161 
# Profile Bins     =  512
# Profile Avg      =  352.258895549002 
# Profile StdDev   =  119.74650628608  
# Reduced chi-sqr  =  0.820
# Prob(Noise)      <  0.999   (~0.0 sigma)
# P_topo (ms)      =  714.54414156646   +/- 0.000322
# P'_topo (s/s)    =  -0                +/- 1.7e-10
# P''_topo (s/s^2) =  0                 +/- 7.51e-14
# P_bary (ms)      =  N/A
# P'_bary (s/s)    =  N/A
# P''_bary (s/s^2) =  N/A
# P_orb (s)        =  N/A
# asin(i)/c (s)    =  N/A
# eccentricity     =  N/A
# w (rad)          =  N/A
# T_peri           =  N/A
######################################################
   0  606.3361
   1  584.6683
   2  546.0477
   3  382.3543
   4  399.566
   5  385.4684
   6  399.5107
   7  417.5403
   8  309.1981
   9  295.6155
  10  390.758
  11  437.0172
  12  408.9698
  13  332.9724
  14  443.8215
  15  506.1424
  16  489.892
  17  575.0338
  18  361.6206
  19  326.5807
  20  381.5401
  21  472.0574
  22  476.4038
  23  362.0012
  24  318.8329
  25  335.4751
  26  305.2724
  27  228.5112
  28  167.5129
  29  278.682
  30  461.0859
  31  468.0916
  32  383.9143
  33  290.2853
  34  269.5567
  35  335.1802
  36  384.8954
  37  350.9788
  38  297.0104
  39  262.6604
  40  363.7568
  41  333.4252
  42  214.3728
  43  284.4046
  44  323.2951
  45  324.7751
  46  326.1325
  47  297.7187
  48  270.0264
  49  268.0649
  50  435.9072
  51  407.8524
  52  283.9773
  53  343.5258
  54  306.9808
  55  343.8728
  56  328.9541
  57  353.703
  58  375.9235
  59  260.8663
  60  205.3448
  61  241.2894
  62  428.3973
  63  453.3275
  64  400.8513
  65  413.5141
  66  323.2171
  67  327.4392
  68  300.2767
  69  383.5534
  70  300.5509
  71  305.0275
  72  375.468
  73  524.5829
  74  478.0265
  75  385.1787
  76  340.7702
  77  234.0858
  78  292.0754
  79  286.4005
  80  343.4195
  81  368.9372
  82  351.2755
  83  265.6049
  84  328.4152
  85  408.4977
  86  323.9596
  87  357.5776
  88  405.1418
  89  341.0902
  90  274.0542
  91  359.5898
  92  290.0035
  93  357.7845
  94  375.7046
  95  291.4231
  96  335.1988
  97  372.7023
  98  335.4743
  99  397.3592
 100  356.6571
 101  326.3917
 102  312.5978
 103  389.7817
 104  429.7703
 105  382.7503
 106  309.519
 107  326.1705
 108  381.8206
 109  305.865
 110  247.7896
 111  328.3904
 112  346.3619
 113  449.4741
 114  436.2855
 115  444.6011
 116  288.9242
 117  305.8503
 118  352.9548
 119  393.2478
 120  501.5659
 121  445.4927
 122  451.3442
 123  370.6191
 124  365.3883
 125  398.3664
 126  573.3949
 127  492.7412
 128  334.2808
 129  337.8952
 130  297.8898
 131  376.4097
 132  402.3606
 133  366.7393
 134  463.6273
 135  440.2959
 136  513.9064
 137  458.8173
 138  424.8703
 139  400.6212
 140  463.7453
 141  444.456
 142  424.2452
 143  382.7109
 144  302.949
 145  363.7271
 146  450.9742
 147  381.1821
 148  528.8961
 149  439.0019
 150  385.5523
 151  368.5397
 152  332.2743
 153  369.793
 154  349.4091
 155  402.4601
 156  352.1422
 157  289.7437
 158  416.7371
 159  446.4541
 160  405.4979
 161  433.2169
 162  320.0024
 163  401.6848
 164  405.538
 165  495.431
 166  326.1352
 167  277.188
 168  341.0145
 169  306.1842
 170  397.9413
 171  242.0138
 172  338.1768
 173  393.745
 174  333.8427
 175  225.651
 176  405.051
 177  413.9801
 178  317.1807
 179  271.2908
 180  184.4902
 181  290.6416
 182  364.8109
 183  406.8782
 184  391.2771
 185  331.551
 186  360.1529
 187  240.3004
 188  332.777
 189  382.1208
 190  280.6314
 191  386.4573
 192  361.3093
 193  353.8258
 194  358.5814
 195  294.4726
 196  318.8082
 197  330.5522
 198  326.7238
 199  404.8434
 200  344.7924
 201  329.5279
 202  484.8727
 203  399.5159
 204  396.2313
 205  449.4362
 206  495.2637
 207  463.022
 208  291.2356
 209  301.3077
 210  330.8306
 211  262.362
 212  287.7485
 213  243.2205
 214  303.6175
 215  377.7517
 216  295.465
 217  223.6469
 218  154.1178
 219  241.0324
 220  278.2523
 221  393.5512
 222  388.6158
 223  276.1657
 224  358.7152
 225  400.0295
 226  329.6924
 227  335.928
 228  228.4053
 229  341.0489
 230  342.3007
 231  314.3779
 232  269.4598
 233  285.638
 234  333.8687
 235  396.4524
 236  434.2358
 237  337.8587
 238  317.6655
 239  322.8681
 240  270.9337
 241  320.4009
 242  285.5013
 243  442.7218
 244  372.1417
 245  259.3124
 246  284.9975
 247  266.2066
 248  335.059
 249  335.586
 250  282.3238
 251  358.6451
 252  531.9572
 253  472.2894
 254  380.8784
 255  337.5411
 256  351.4323
 257  410.6972
 258  403.8523
 259  332.9687
 260  300.6952
 261  363.0304
 262  411.0849
 263  423.4916
 264  308.2307
 265  356.8693
 266  445.6662
 267  302.2867
 268  192.5763
 269  284.5558
 270  338.8237
 271  317.307
 272  348.5214
 273  233.1726
 274  230.7639
 275  376.0505
 276  436.1156
 277  394.2522
 278  280.2983
 279  329.9979
 280  307.4717
 281  438.9614
 282  422.6767
 283  374.4253
 284  369.4004
 285  362.8401
 286  354.4402
 287  418.1665
 288  288.8716
 289  314.5743
 290  325.5241
 291  288.2418
 292  322.2565
 293  356.2624
 294  347.3688
 295  455.3791
 296  267.3628
 297  166.2899
 298  277.7559
 299  359.8777
 300  335.6185
 301  369.1868
 302  355.5635
 303  371.9652
 304  245.1875
 305  284.5589
 306  293.2332
 307  371.293
 308  352.3067
 309  377.1936
 310  256.8688
 311  317.0426
 312  167.5891
 313  239.2162
 314  330.4936
 315  345.1203
 316  355.025
 317  316.8077
 318  341.6089
 319  346.0266
 320  219.0748
 321  262.8076
 322  307.5315
 323  377.8466
 324  403.0919
 325  445.6471
 326  415.4116
 327  407.9001
 328  273.8784
 329  304.1896
 330  221.114
 331  276.8553
 332  264.4622
 333  366.5162
 334  392.5367
 335  288.997
 336  345.0988
 337  328.735
 338  332.9424
 339  268.7732
 340  295.786
 341  233.6283
 342  281.4872
 343  321.6971
 344  264.9529
 345  322.5252
 346  419.5365
 347  439.3482
 348  368.963
 349  342.7491
 350  403.7271
 351  397.1635
 352  303.7157
 353  347.4259
 354  455.1786
 355  501.894
 356  492.7095
 357  345.7356
 358  337.7496
 359  347.2545
 360  271.5996
 361  239.9166
 362  300.8593
 363  326.5979
 364  343.8024
 365  345.5636
 366  264.7601
 367  241.9238
 368  333.522
 369  380.8982
 370  368.665
 371  301.3703
 372  304.6692
 373  309.3369
 374  132.2946
 375  123.1213
 376  226.7462
 377  409.4509
 378  427.0801
 379  346.2029
 380  420.1485
 381  328.166
 382  333.8171
 383  345.0362
 384  389.695
 385  506.8208
 386  433.6702
 387  349.1458
 388  252.1017
 389  303.771
 390  328.101
 391  451.6851
 392  495.057
 393  350.6741
 394  289.4133
 395  397.2589
 396  485.8657
 397  501.3437
 398  496.4504
 399  469.07
 400  376.806
 401  382.4989
 402  400.2939
 403  353.8339
 404  442.8277
 405  432.2432
 406  393.958
 407  413.5614
 408  438.2644
 409  460.5384
 410  453.9959
 411  456.0254
 412  311.213
 413  292.6845
 414  412.7584
 415  417.2188
 416  333.9692
 417  384.2611
 418  329.3688
 419  333.0741
 420  353.4518
 421  345.6663
 422  392.7753
 423  373.7233
 424  283.0063
 425  300.4641
 426  342.9771
 427  269.3397
 428  318.3102
 429  352.5514
 430  380.1001
 431  437.1143
 432  385.9965
 433  359.947
 434  418.3645
 435  362.669
 436  342.6384
 437  427.0035
 438  504.8596
 439  436.1122
 440  353.4709
 441  424.0895
 442  348.6444
 443  367.0885
 444  392.165
 445  292.8054
 446  275.7261
 447  293.1719
 448  285.6877
 449  306.6057
 450  424.971
 451  420.7778
 452  346.7494
 453  361.8714
 454  414.1554
 455  297.5729
 456  334.5796
 457  331.7715
 458  302.2725
 459  331.6136
 460  408.0504
 461  266.7585
 462  293.3345
 463  354.3531
 464  362.4922
 465  341.0548
 466  475.9452
 467  463.0309
 468  341.8836
 469  392.7072
 470  433.3099
 471  375.9228
 472  354.386
 473  392.5941
 474  286.1125
 475  224.5303
 476  226.4095
 477  246.6827
 478  213.4902
 479  328.08
 480  369.0584
 481  255.9496
 482  278.5564
 483  394.6913
 484  371.6516
 485  314.4644
 486  297.6952
 487  245.8781
 488  93.57375
 489  121.6991
 490  323.2188
 491  400.0055
 492  300.9438
 493  284.8658
 494  334.0056
 495  351.1862
 496  340.5983
 497  328.5651
 498  330.9467
 499  215.9241
 500  215.6346
 501  243.3504
 502  237.4671
 503  311.6915
 504  270.2234
 505  321.0089
 506  302.3542
 507  434.1939
 508  390.8739
 509  482.5599
 510  603.0864
 511  847.5362
