# Input file       =  1197727347.096942_cleaned.dat
# Candidate        =  PSR_0332+5434
# Telescope        =  AR
# Epoch_topo       =  58106.585255751641
# Epoch_bary       =  N/A
# T_sample         =  0.002
# Data Folded      =  7143424
# Data Avg         =  0.0206193611158675
# Data StdDev      =  1.00019380968458 
# Profile Bins     =  512
# Profile Avg      =  287.71740105116  
# Profile StdDev   =  118.141477007469 
# Reduced chi-sqr  =  1.231
# Prob(Noise)      <  0.000266   (~3.5 sigma)
# P_topo (ms)      =  714.544433289446  +/- 9.58e-05
# P'_topo (s/s)    =  -0                +/- 5.19e-11
# P''_topo (s/s^2) =  0                 +/- 2.36e-14
# P_bary (ms)      =  N/A
# P'_bary (s/s)    =  N/A
# P''_bary (s/s^2) =  N/A
# P_orb (s)        =  N/A
# asin(i)/c (s)    =  N/A
# eccentricity     =  N/A
# w (rad)          =  N/A
# T_peri           =  N/A
######################################################
   0  218.0765
   1  220.017
   2  199.8428
   3  257.0924
   4  313.0514
   5  283.2954
   6  311.2365
   7  334.4131
   8  235.3541
   9  211.1506
  10  365.8485
  11  321.7366
  12  218.217
  13  264.5652
  14  431.0099
  15  463.9601
  16  329.0204
  17  263.3913
  18  242.7287
  19  292.6193
  20  149.0626
  21  193.6577
  22  338.6786
  23  425.5519
  24  375.9072
  25  289.2251
  26  218.8305
  27  104.4543
  28  127.7801
  29  278.8317
  30  269.2683
  31  306.6713
  32  345.0645
  33  312.2672
  34  208.5463
  35  186.8997
  36  209.3353
  37  273.894
  38  107.412
  39  208.6918
  40  422.7399
  41  421.6886
  42  357.6377
  43  262.3056
  44  248.3532
  45  249.3415
  46  209.9774
  47  223.7187
  48  243.7649
  49  309.9641
  50  258.5377
  51  315.3388
  52  376.4389
  53  256.6829
  54  268.7109
  55  358.6069
  56  397.6413
  57  321.6261
  58  409.2194
  59  376.5371
  60  284.7182
  61  196.0998
  62  181.8472
  63  143.4165
  64  136.9194
  65  235.5894
  66  226.0163
  67  245.3777
  68  173.7041
  69  235.2723
  70  360.9684
  71  302.9643
  72  317.0922
  73  256.7568
  74  327.8383
  75  332.2884
  76  353.914
  77  342.2244
  78  273.0464
  79  195.611
  80  132.4406
  81  308.6917
  82  245.2615
  83  273.0808
  84  324.1467
  85  267.4803
  86  294.6962
  87  237.503
  88  347.6269
  89  449.9016
  90  433.3949
  91  275.7484
  92  185.1026
  93  212.3057
  94  311.9591
  95  329.672
  96  211.8541
  97  215.6879
  98  308.7222
  99  395.5297
 100  409.2809
 101  314.3661
 102  436.8124
 103  448.9443
 104  343.6493
 105  400.565
 106  380.0385
 107  385.7659
 108  333.2395
 109  138.3357
 110  168.3537
 111  251.018
 112  277.365
 113  185.0857
 114  260.4815
 115  292.1086
 116  193.4992
 117  186.3343
 118  258.735
 119  244.8464
 120  328.6887
 121  239.647
 122  245.0071
 123  280.7691
 124  357.2637
 125  282.3739
 126  140.3555
 127  164.382
 128  191.6251
 129  247.9169
 130  210.0757
 131  333.079
 132  323.9586
 133  209.9763
 134  242.5855
 135  283.4842
 136  296.8973
 137  233.1458
 138  262.8745
 139  376.8909
 140  290.2376
 141  187.4803
 142  175.3873
 143  158.9632
 144  147.3373
 145  190.5501
 146  244.4692
 147  288.1115
 148  360.1113
 149  289.5308
 150  238.392
 151  215.581
 152  143.2122
 153  266.6971
 154  321.7098
 155  349.5451
 156  437.2305
 157  322.7564
 158  275.5341
 159  310.4487
 160  338.3393
 161  326.79
 162  214.8024
 163  205.7355
 164  306.8531
 165  306.8339
 166  219.2814
 167  243.3399
 168  328.9423
 169  317.7113
 170  367.9939
 171  337.7413
 172  440.1938
 173  497.3192
 174  317.6275
 175  252.4495
 176  273.1534
 177  265.5522
 178  227.6449
 179  180.3601
 180  230.8672
 181  333.581
 182  374.4209
 183  320.6078
 184  354.6038
 185  387.2981
 186  307.1584
 187  330.5594
 188  359.3573
 189  420.4229
 190  317.412
 191  123.9384
 192  264.9443
 193  263.98
 194  304.5635
 195  239.5139
 196  276.359
 197  304.4289
 198  214.8651
 199  214.4476
 200  220.6383
 201  309.2254
 202  228.9207
 203  129.999
 204  121.2627
 205  239.33
 206  298.3062
 207  277.9194
 208  257.9451
 209  152.0783
 210  180.4711
 211  157.3193
 212  253.858
 213  368.5567
 214  405.8191
 215  385.3876
 216  157.049
 217  221.1661
 218  227.306
 219  322.4238
 220  343.9458
 221  394.2875
 222  362.8379
 223  175.6657
 224  168.2561
 225  270.1833
 226  206.9746
 227  127.5295
 228  170.1902
 229  245.4712
 230  286.3741
 231  255.5775
 232  212.8634
 233  182.61
 234  241.7245
 235  273.9014
 236  259.5582
 237  170.92
 238  306.8024
 239  283.3321
 240  327.6564
 241  191.2715
 242  214.5157
 243  158.1435
 244  258.9315
 245  207.9691
 246  201.986
 247  201.0666
 248  174.7495
 249  208.0452
 250  251.1188
 251  329.4086
 252  264.8051
 253  225.6655
 254  258.7166
 255  192.7508
 256  327.2948
 257  215.4096
 258  278.4503
 259  236.4264
 260  256.698
 261  372.2997
 262  338.9012
 263  190.8379
 264  92.6307
 265  148.2384
 266  145.8222
 267  277.5971
 268  299.3767
 269  249.9235
 270  214.9088
 271  246.5785
 272  373.0107
 273  366.0809
 274  336.1257
 275  340.7823
 276  283.8739
 277  251.0626
 278  220.7664
 279  261.4933
 280  240.7056
 281  381.6308
 282  330.1757
 283  389.1263
 284  252.0804
 285  211.5935
 286  174.4144
 287  382.1248
 288  477.9006
 289  432.424
 290  416.5319
 291  405.5389
 292  317.4801
 293  202.5939
 294  342.7278
 295  395.0667
 296  440.1464
 297  468.4621
 298  369.7961
 299  358.6711
 300  491.1351
 301  503.5569
 302  529.3521
 303  601.3551
 304  793.3567
 305  821.9124
 306  855.9243
 307  790.7305
 308  482.552
 309  275.0852
 310  284.6812
 311  336.1637
 312  447.7601
 313  458.598
 314  394.618
 315  326.8898
 316  312.5325
 317  255.994
 318  335.5967
 319  294.8789
 320  402.8672
 321  493.5536
 322  388.2817
 323  331.7415
 324  224.8084
 325  266.4641
 326  290.1088
 327  233.2958
 328  292.0012
 329  286.7205
 330  304.9226
 331  202.2641
 332  142.6378
 333  329.6343
 334  403.3549
 335  342.7465
 336  279.6463
 337  462.3247
 338  497.7485
 339  226.4826
 340  246.1077
 341  322.7643
 342  342.0721
 343  272.9284
 344  314.2059
 345  250.2971
 346  370.5542
 347  305.1139
 348  228.6356
 349  332.054
 350  444.6289
 351  384.6953
 352  129.6525
 353  255.4302
 354  198.16
 355  113.5899
 356  244.2767
 357  152.577
 358  318.7108
 359  347.3954
 360  160.3732
 361  248.5365
 362  412.5853
 363  305.9722
 364  253.8557
 365  184.0537
 366  289.8969
 367  254.6413
 368  251.5892
 369  440.9504
 370  367.8723
 371  389.0184
 372  298.3709
 373  261.4967
 374  351.9788
 375  441.1948
 376  502.0417
 377  377.1772
 378  218.4124
 379  280.8948
 380  333.7834
 381  318.8186
 382  318.1733
 383  304.5967
 384  260.2882
 385  307.3169
 386  292.4513
 387  332.6139
 388  293.0182
 389  312.6926
 390  353.5781
 391  311.1053
 392  259.9358
 393  161.9239
 394  249.2381
 395  430.1728
 396  344.9342
 397  286.5683
 398  271.5966
 399  155.4757
 400  225.1492
 401  273.7524
 402  294.5739
 403  393.9671
 404  335.0098
 405  330.4035
 406  267.9715
 407  154.3046
 408  251.744
 409  280.72
 410  322.8385
 411  349.1421
 412  256.298
 413  178.6685
 414  205.7953
 415  184.6348
 416  223.6592
 417  257.4945
 418  252.3815
 419  241.2102
 420  290.3367
 421  354.3523
 422  328.3022
 423  360.7234
 424  373.9695
 425  422.6624
 426  307.9783
 427  204.1682
 428  324.222
 429  335.9601
 430  423.3507
 431  256.1636
 432  297.4206
 433  371.4402
 434  301.3877
 435  287.0322
 436  342.8762
 437  402.0428
 438  333.9774
 439  255.022
 440  280.666
 441  316.6953
 442  351.7741
 443  260.8361
 444  180.0797
 445  247.3678
 446  273.5959
 447  212.8592
 448  263.3672
 449  165.2554
 450  266.9223
 451  330.8683
 452  302.3289
 453  305.61
 454  229.5831
 455  323.4435
 456  317.2963
 457  286.6861
 458  391.8431
 459  490.5739
 460  262.5841
 461  253.7903
 462  386.9487
 463  258.5615
 464  162.9946
 465  263.6104
 466  382.4851
 467  293.6433
 468  264.7433
 469  272.5723
 470  244.3475
 471  330.0373
 472  195.5404
 473  223.9059
 474  66.47079
 475  78.87854
 476  200.9517
 477  215.5369
 478  246.4938
 479  254.4979
 480  266.7463
 481  232.9525
 482  170.2934
 483  211.9771
 484  194.7192
 485  238.8513
 486  309.7048
 487  213.0536
 488  220.8327
 489  195.066
 490  379.7543
 491  210.0328
 492  118.0182
 493  265.378
 494  343.6863
 495  196.8301
 496  254.2193
 497  288.1658
 498  177.4313
 499  147.279
 500  259.8622
 501  294.1819
 502  328.9906
 503  285.7219
 504  310.6223
 505  299.3113
 506  259.2004
 507  287.7012
 508  327.4593
 509  280.9046
 510  262.0049
 511  216.0503
