# Input file       =  1197914847.107016_cleaned.dat
# Candidate        =  PSR_0332+5434
# Telescope        =  AR
# Epoch_topo       =  58108.755394757129
# Epoch_bary       =  N/A
# T_sample         =  0.002
# Data Folded      =  7340032
# Data Avg         =  0.182591794140795
# Data StdDev      =  4.28612055921581 
# Profile Bins     =  512
# Profile Avg      =  2617.60381400973 
# Profile StdDev   =  513.190228831792 
# Reduced chi-sqr  =  0.427
# Prob(Noise)      <  1   (~0.0 sigma)
# P_topo (ms)      =  714.546534062254  +/- 0.00172
# P'_topo (s/s)    =  -0                +/- 9.09e-10
# P''_topo (s/s^2) =  0                 +/- 4.01e-13
# P_bary (ms)      =  N/A
# P'_bary (s/s)    =  N/A
# P''_bary (s/s^2) =  N/A
# P_orb (s)        =  N/A
# asin(i)/c (s)    =  N/A
# eccentricity     =  N/A
# w (rad)          =  N/A
# T_peri           =  N/A
######################################################
   0  1984.856
   1  2239.252
   2  2581.418
   3  2799.623
   4  2507.402
   5  2588.052
   6  2663.533
   7  2612.53
   8  2229.222
   9  2485.762
  10  2454.203
  11  2789.456
  12  2862.773
  13  2713.624
  14  2618.318
  15  2643.83
  16  2686.998
  17  2665.801
  18  2544.242
  19  2369.661
  20  2372.702
  21  2411.622
  22  2561.759
  23  2601.535
  24  2321.168
  25  2586.187
  26  2653.8
  27  2612.466
  28  2573.14
  29  2625.586
  30  2662.764
  31  2861.801
  32  3032.902
  33  2880.812
  34  2910.352
  35  2673.924
  36  2614.711
  37  2712.75
  38  2818.895
  39  2745.776
  40  2634.88
  41  2736.541
  42  2767.119
  43  2575.03
  44  2612.268
  45  2610.252
  46  2778.539
  47  3089.881
  48  3106.369
  49  2878.764
  50  2615.29
  51  2643.016
  52  2264.187
  53  2286.158
  54  2612.024
  55  2786.431
  56  2580.374
  57  2503.264
  58  2605.818
  59  2453.112
  60  2491.105
  61  2619.446
  62  2746.706
  63  2650.814
  64  2753.737
  65  2451.879
  66  2098.359
  67  2324.083
  68  2216.792
  69  2281.946
  70  2100.743
  71  2589.784
  72  2674.976
  73  2396.627
  74  2484.318
  75  2362.686
  76  2229.991
  77  2229.485
  78  2380.353
  79  2724.856
  80  2434.661
  81  2354.793
  82  2539.702
  83  2540.262
  84  2594.84
  85  2545.446
  86  2569.882
  87  2428.474
  88  2469.734
  89  2723.067
  90  2642.931
  91  2675.157
  92  2656.301
  93  2898.086
  94  2685.547
  95  2674.539
  96  2399.793
  97  2731.64
  98  2798.02
  99  2597.083
 100  2827.973
 101  2951.865
 102  3268.849
 103  2886.223
 104  2504.148
 105  2662.624
 106  2895.485
 107  2581.483
 108  2838.165
 109  2690.575
 110  2643.652
 111  2837.618
 112  2823.191
 113  2700.926
 114  2511.337
 115  2521.799
 116  2598.567
 117  2622.777
 118  2599.694
 119  2781.365
 120  2738.528
 121  3060.11
 122  2691.894
 123  2773.755
 124  2995.385
 125  2851.542
 126  2471.601
 127  2424.596
 128  2639.016
 129  2658.952
 130  2556.41
 131  2292.916
 132  2621.415
 133  2648.677
 134  2560.764
 135  2411.312
 136  2475.316
 137  2554.648
 138  2839.023
 139  2753.41
 140  2985.06
 141  2999.035
 142  2780.699
 143  2449.84
 144  2412.199
 145  2862.856
 146  2937.582
 147  2548.38
 148  2496.328
 149  2900.721
 150  2825.38
 151  2796.912
 152  2671.744
 153  2374.555
 154  2456.015
 155  2419.024
 156  2657.566
 157  2514.27
 158  2794.596
 159  2931.094
 160  2650.831
 161  2447.149
 162  2666.347
 163  2972.292
 164  2532.999
 165  2545.059
 166  2775.43
 167  2723.696
 168  2683.446
 169  2632.723
 170  2866.069
 171  2699.042
 172  2684.179
 173  2428.619
 174  2650.607
 175  2618.733
 176  2450.899
 177  2619.855
 178  2775.094
 179  2658.288
 180  2509.365
 181  2805.675
 182  2983.328
 183  2683.607
 184  2701.547
 185  2608.149
 186  2511.903
 187  2842.511
 188  2843.557
 189  2683.587
 190  2493.333
 191  2589.337
 192  2484.894
 193  2667.492
 194  2520.253
 195  2765.224
 196  2931.032
 197  2775.651
 198  3042.398
 199  3069.266
 200  2987.05
 201  3013.994
 202  2918.227
 203  2871.536
 204  2727.759
 205  2358.113
 206  2892.105
 207  2890.897
 208  2916.503
 209  2972.134
 210  2716.612
 211  2196.466
 212  2174.132
 213  2623.65
 214  3069.839
 215  3198.497
 216  2911.758
 217  2596.684
 218  2376.695
 219  2327.028
 220  2557.033
 221  2842.821
 222  2832.89
 223  2387.442
 224  2599.36
 225  2438.109
 226  2816.626
 227  3208.93
 228  3400.023
 229  2989.675
 230  2808.452
 231  2469.801
 232  2836.089
 233  2879.353
 234  2869.012
 235  2793.644
 236  2645.279
 237  2386.031
 238  2353.726
 239  2439.606
 240  2748.918
 241  2870.255
 242  2967.995
 243  3209.137
 244  2801.584
 245  2434.746
 246  2397.76
 247  2607.233
 248  2787.295
 249  3016.859
 250  2931.612
 251  2735.823
 252  2262.092
 253  2421.738
 254  2481.156
 255  2362.373
 256  2448.43
 257  2521.17
 258  2416.008
 259  2358.938
 260  2341.661
 261  2396.654
 262  2391.336
 263  2581.702
 264  2781.174
 265  2902.935
 266  2502.203
 267  2532.92
 268  2639.252
 269  2673.736
 270  2579.728
 271  2527.164
 272  2479.042
 273  2333.458
 274  2496.733
 275  2387.761
 276  2144.809
 277  1978.784
 278  2481.233
 279  2682.725
 280  2537.959
 281  2796.033
 282  2727.379
 283  2694.606
 284  2497.871
 285  2295.248
 286  2395.047
 287  2643.272
 288  2762.302
 289  2910.279
 290  2415.606
 291  2407.206
 292  2738.888
 293  2480.483
 294  2693.671
 295  2877.942
 296  2798.308
 297  2595.659
 298  2696.395
 299  2583.558
 300  2516.109
 301  2740
 302  2875.096
 303  2510.448
 304  2604.489
 305  2487.261
 306  2566.57
 307  2953.659
 308  3310.403
 309  3370.848
 310  3312.27
 311  3369.091
 312  3348.796
 313  3111.425
 314  3258.101
 315  3181.794
 316  3042.913
 317  2884.126
 318  2624.639
 319  2604.813
 320  2980.645
 321  2979.857
 322  2970.219
 323  2240.527
 324  2268.269
 325  2770.138
 326  2360.864
 327  2365.029
 328  2802.605
 329  2934.397
 330  2900.667
 331  2803.234
 332  2865.527
 333  2460.24
 334  2334.571
 335  2614.41
 336  3031.61
 337  2892.767
 338  2728.252
 339  2798.465
 340  2753.902
 341  2764.73
 342  2744.999
 343  2586.266
 344  2396.025
 345  2638.203
 346  3056.953
 347  2975.949
 348  2974.77
 349  2960.827
 350  2895.079
 351  2817.929
 352  2804.153
 353  2953.367
 354  2521.602
 355  2534.741
 356  2345.627
 357  2721.323
 358  2630.559
 359  2707.665
 360  2323.154
 361  2456.103
 362  2428.106
 363  2548.128
 364  2636.219
 365  2597.929
 366  2829.305
 367  2696.003
 368  2744.623
 369  2601.715
 370  2836.706
 371  2776.956
 372  2751.078
 373  2842.615
 374  2650.656
 375  2571.424
 376  2563.415
 377  2626.635
 378  2683.545
 379  2414.054
 380  2367.108
 381  2589.13
 382  2350.337
 383  2302.816
 384  2465.283
 385  2556.792
 386  2499.28
 387  2178.336
 388  2359.343
 389  2558.109
 390  2917.064
 391  2545.78
 392  2411.943
 393  2289.569
 394  2254.848
 395  2075.359
 396  2210.859
 397  2037.387
 398  2010.082
 399  2408.746
 400  2565.883
 401  2404.317
 402  2374.999
 403  2468.712
 404  2230.211
 405  2397.5
 406  2646.862
 407  2695.24
 408  2632.156
 409  2455.558
 410  2481.868
 411  2626.04
 412  2407.022
 413  2502.78
 414  3058.074
 415  2803.028
 416  2731.751
 417  2625.194
 418  2781.416
 419  2963.284
 420  2760.529
 421  2555.449
 422  2509.871
 423  2422.321
 424  2290.121
 425  2090.271
 426  2608.125
 427  2691.689
 428  2490.478
 429  2435.517
 430  2056.423
 431  2444.099
 432  2698.281
 433  2473.668
 434  2415.171
 435  2616.659
 436  2305.277
 437  2707.597
 438  2823.155
 439  2824.505
 440  2691.437
 441  2396.439
 442  2413.955
 443  2559.691
 444  2687.141
 445  2543.943
 446  2380.759
 447  2692.671
 448  2679.368
 449  2371.954
 450  2465.376
 451  2710.429
 452  2712.125
 453  2315.54
 454  2240.04
 455  2159.729
 456  2181.916
 457  2457.425
 458  2405.08
 459  2332.395
 460  2346.067
 461  2054.254
 462  2210.649
 463  2451.805
 464  2536.555
 465  2967.967
 466  2628.534
 467  2268.07
 468  2657.289
 469  2692.957
 470  2624.542
 471  2861.554
 472  2523.16
 473  2455.557
 474  2621.988
 475  2232.34
 476  2305.775
 477  2491.067
 478  2174.762
 479  2326.324
 480  2676.535
 481  2565.955
 482  2670.156
 483  2106.18
 484  2117.184
 485  2246.271
 486  2268.759
 487  2718.328
 488  2520.078
 489  2452.128
 490  2608.045
 491  2516.265
 492  2486.044
 493  2802.166
 494  2606.584
 495  2438.372
 496  2618.91
 497  2818.735
 498  2513.83
 499  2552.365
 500  2449.06
 501  2190.957
 502  2307.889
 503  2325.852
 504  2376.178
 505  2400.168
 506  2339.11
 507  2792.258
 508  2846.122
 509  2651.156
 510  2575.189
 511  2414.74
