# Input file       =  1197670746.104753-PSRB0329-2ms-sampling-dd.dat
# Candidate        =  PSR_0332+5434
# Telescope        =  AR
# Epoch_topo       =  58105.930151675384
# Epoch_bary       =  N/A
# T_sample         =  0.002
# Data Folded      =  7340032
# Data Avg         =  -4.13682079097416e-10
# Data StdDev      =  6.47301150346141 
# Profile Bins     =  512
# Profile Avg      =  0.181770407578524
# Profile StdDev   =  775.033321811171 
# Reduced chi-sqr  =  0.548
# Prob(Noise)      <  1   (~0.0 sigma)
# P_topo (ms)      =  714.544142806383  +/- 0.000469
# P'_topo (s/s)    =  -0                +/- 2.47e-10
# P''_topo (s/s^2) =  0                 +/- 1.09e-13
# P_bary (ms)      =  N/A
# P'_bary (s/s)    =  N/A
# P''_bary (s/s^2) =  N/A
# P_orb (s)        =  N/A
# asin(i)/c (s)    =  N/A
# eccentricity     =  N/A
# w (rad)          =  N/A
# T_peri           =  N/A
######################################################
   0  -373.5993
   1  -435.8356
   2  -380.32
   3  -573.5572
   4  -493.4393
   5  -653.0119
   6  -940.3782
   7  -734.4588
   8  -402.8621
   9  59.59336
  10  -142.3766
  11  -261.8546
  12  -212.0297
  13  -609.9603
  14  -493.8528
  15  -337.3248
  16  136.3192
  17  261.3076
  18  157.4551
  19  -100.4598
  20  -328.3787
  21  -49.48402
  22  -45.75039
  23  404.9594
  24  134.9594
  25  -210.9647
  26  -255.5636
  27  127.7767
  28  285.4492
  29  411.439
  30  443.1146
  31  351.8185
  32  233.4687
  33  134.0665
  34  -43.22158
  35  -334.7381
  36  235.396
  37  275.1708
  38  518.2712
  39  624.7754
  40  517.6441
  41  437.0949
  42  14.10294
  43  127.8316
  44  -360.488
  45  35.83887
  46  634.292
  47  909.4823
  48  1400.219
  49  1465.202
  50  1233.451
  51  755.3159
  52  459.2545
  53  302.7352
  54  850.202
  55  726.2864
  56  517.8526
  57  234.7473
  58  140.3718
  59  -135.2485
  60  99.15982
  61  165.0802
  62  146.0682
  63  210.8867
  64  -151.21
  65  71.42315
  66  241.4756
  67  163.1831
  68  241.6477
  69  501.259
  70  571.0298
  71  62.95245
  72  4.671665
  73  73.78403
  74  -307.0203
  75  68.70258
  76  -49.97953
  77  -292.8008
  78  -81.6779
  79  4.551195
  80  532.7123
  81  736.011
  82  961.4094
  83  764.2344
  84  121.6635
  85  260.415
  86  285.4886
  87  105.0919
  88  274.1553
  89  109.5597
  90  155.2473
  91  -15.77669
  92  49.57287
  93  -34.43218
  94  618.0446
  95  1079.708
  96  1312.937
  97  1307.916
  98  1391.005
  99  732.0325
 100  568.1135
 101  701.481
 102  945.7269
 103  920.5975
 104  785.3216
 105  937.1259
 106  -54.33951
 107  -59.29382
 108  3.745855
 109  -95.91259
 110  -299.6575
 111  -131.7346
 112  -219.083
 113  -552.3474
 114  -315.3022
 115  -144.3973
 116  -259.3286
 117  -329.2851
 118  -326.8023
 119  -462.6941
 120  -811.7798
 121  -734.5913
 122  39.82447
 123  -7.321137
 124  -375.9395
 125  -84.63161
 126  113.794
 127  141.1089
 128  -131.7943
 129  -149.3741
 130  -276.7479
 131  -615.5961
 132  -528.8466
 133  -626.045
 134  -332.6288
 135  -429.8788
 136  -623.6441
 137  -426.6195
 138  -356.0852
 139  182.8286
 140  -62.12288
 141  371.53
 142  813.7609
 143  1313.225
 144  757.4998
 145  825.4413
 146  522.9174
 147  463.5738
 148  438.1871
 149  101.3613
 150  161.1452
 151  252.6644
 152  -35.97659
 153  -212.1218
 154  -124.2686
 155  -44.9996
 156  -91.30482
 157  -66.50177
 158  311.9438
 159  274.6982
 160  383.9763
 161  614.2182
 162  -117.2912
 163  -211.2602
 164  11.80145
 165  221.8822
 166  -75.08076
 167  -493.5017
 168  -447.8386
 169  -312.7986
 170  -573.2869
 171  -606.5563
 172  -569.8213
 173  8.421693
 174  318.9986
 175  65.34525
 176  -113.765
 177  -470.1421
 178  -516.3931
 179  -185.7793
 180  -118.5322
 181  -26.91485
 182  -356.2146
 183  -346.8313
 184  -237.4791
 185  -296.8146
 186  -443.5142
 187  -187.0837
 188  -83.09276
 189  72.53671
 190  -163.6303
 191  -123.1354
 192  -200.4682
 193  41.64763
 194  441.769
 195  157.6205
 196  -76.44373
 197  -165.4067
 198  -443.6856
 199  -290.1942
 200  -407.5157
 201  -62.14666
 202  -183.8519
 203  -611.2773
 204  -553.5542
 205  -447.1742
 206  32.55758
 207  -165.6879
 208  278.4641
 209  200.3806
 210  -17.77041
 211  35.76981
 212  88.58922
 213  332.266
 214  -96.76322
 215  333.8168
 216  618.5023
 217  1160.007
 218  1122.298
 219  1339.972
 220  801.7736
 221  273.3083
 222  559.0069
 223  514.6004
 224  852.8469
 225  1205.338
 226  1253.285
 227  425.0508
 228  599.4927
 229  237.02
 230  65.75175
 231  -30.77137
 232  -126.4657
 233  -248.4177
 234  -273.5745
 235  -149.5317
 236  -403.3628
 237  -9.529309
 238  189.5424
 239  -69.59677
 240  237.6853
 241  210.977
 242  38.03572
 243  21.82686
 244  -102.3974
 245  -158.9604
 246  -32.36121
 247  414.8434
 248  509.1679
 249  4.124867
 250  -265.9608
 251  -186.5163
 252  -169.7118
 253  -532.1969
 254  -116.8136
 255  180.4612
 256  449.2432
 257  606.6271
 258  677.0516
 259  493.1787
 260  -204.9772
 261  -179.1506
 262  -357.0224
 263  88.8931
 264  495.6451
 265  380.508
 266  267.4124
 267  76.69181
 268  -207.3871
 269  -198.1332
 270  468.5089
 271  235.9814
 272  -159.4048
 273  -66.37225
 274  -90.61435
 275  405.5618
 276  8.465215
 277  -79.4327
 278  251.2952
 279  117.8873
 280  372.4539
 281  185.6059
 282  347.7659
 283  366.3598
 284  536.3082
 285  277.0351
 286  467.0341
 287  288.4012
 288  217.5201
 289  417.1581
 290  417.5406
 291  444.6367
 292  772.1662
 293  243.0874
 294  149.1256
 295  -18.18845
 296  90.07622
 297  -42.47197
 298  -19.08335
 299  256.6422
 300  183.3615
 301  -23.9112
 302  204.4988
 303  54.54443
 304  277.2118
 305  327.3605
 306  123.1957
 307  427.5876
 308  326.9478
 309  336.0673
 310  -459.3017
 311  -385.6845
 312  73.78245
 313  118.8913
 314  266.6172
 315  -333.4957
 316  156.0791
 317  70.14285
 318  -336.1263
 319  -241.8628
 320  463.4017
 321  384.1076
 322  -90.25658
 323  -455.0313
 324  -240.0006
 325  -48.63195
 326  44.84602
 327  -36.21948
 328  -146.9873
 329  -268.5182
 330  -326.7889
 331  -451.7915
 332  -161.2523
 333  -121.6461
 334  -379.1437
 335  100.1459
 336  -361.1865
 337  -81.18597
 338  -180.7421
 339  -269.5987
 340  -93.66822
 341  -93.56435
 342  -119.1141
 343  -180.5694
 344  -418.5815
 345  -349.6202
 346  213.2954
 347  -24.1541
 348  -64.60421
 349  66.44312
 350  96.20836
 351  -62.64537
 352  -456.1595
 353  -115.5942
 354  -331.1828
 355  -381.5417
 356  -722.7963
 357  -825.3401
 358  -474.5739
 359  -307.7755
 360  -724.0981
 361  -782.9019
 362  -726.6578
 363  -180.0742
 364  -273.8122
 365  -85.82153
 366  -216.6964
 367  -508.5187
 368  -256.6909
 369  -161.7506
 370  -340.1697
 371  -295.4971
 372  -556.7492
 373  -175.152
 374  -326.2444
 375  -534.583
 376  -569.9694
 377  -626.6893
 378  -513.9879
 379  -127.9956
 380  -61.45412
 381  -227.1367
 382  -303.4558
 383  -311.4317
 384  -631.6992
 385  -548.6794
 386  -575.4572
 387  -92.80362
 388  -544.9556
 389  -990.1893
 390  -630.1331
 391  -560.7261
 392  -387.7798
 393  -687.3078
 394  -728.8545
 395  -257.337
 396  32.30076
 397  -73.89958
 398  -42.75991
 399  -232.0694
 400  -228.3925
 401  -133.5104
 402  -384.3398
 403  -358.8452
 404  -331.9922
 405  -2.254519
 406  -109.5806
 407  -48.84803
 408  -316.3763
 409  -262.0718
 410  -412.3308
 411  -942.0228
 412  -1049.534
 413  -570.496
 414  -329.7871
 415  16.46201
 416  89.54898
 417  -336.2685
 418  -541.2115
 419  -143.1772
 420  141.2777
 421  -248.697
 422  -326.7841
 423  -64.45471
 424  179.0527
 425  762.8807
 426  373.957
 427  -68.44839
 428  -82.65235
 429  -276.5851
 430  90.64196
 431  168.422
 432  -54.1443
 433  -40.19506
 434  -200.3809
 435  -237.0946
 436  -113.7967
 437  19.82189
 438  -139.6381
 439  -134.6234
 440  -609.6715
 441  -366.0385
 442  23.80177
 443  15.15718
 444  26.47788
 445  214.3079
 446  -64.24213
 447  -260.8758
 448  -372.4443
 449  -173.0937
 450  -95.89393
 451  12.20496
 452  91.51884
 453  48.55421
 454  -435.9016
 455  -353.0267
 456  -447.391
 457  96.24165
 458  267.0056
 459  426.307
 460  315.3716
 461  33.62548
 462  430.9993
 463  417.2047
 464  -52.3281
 465  219.7173
 466  325.3393
 467  546.2435
 468  229.6656
 469  552.2139
 470  139.1771
 471  -192.8316
 472  -682.0625
 473  -633.8712
 474  -599.1384
 475  -372.7851
 476  -165.9544
 477  241.783
 478  165.1726
 479  -132.864
 480  -124.4273
 481  -76.78314
 482  -112.7633
 483  58.07538
 484  171.6517
 485  -87.98112
 486  58.38369
 487  -330.147
 488  -441.8524
 489  -126.9984
 490  354.0818
 491  433.7522
 492  296.4681
 493  133.8237
 494  263.1953
 495  148.2873
 496  38.32707
 497  -93.57838
 498  195.5921
 499  277.542
 500  12.09315
 501  -356.1114
 502  -244.905
 503  -19.18758
 504  -490.5312
 505  -517.0535
 506  -202.6426
 507  -140.1175
 508  -287.9535
 509  -421.3468
 510  -651.7794
 511  -593.9035
