# Input file       =  1197038256.128744-PSRB0329-2ms-sampling-dd.dat
# Candidate        =  PSR_0332+5434
# Telescope        =  AR
# Epoch_topo       =  58098.609665841941
# Epoch_bary       =  N/A
# T_sample         =  0.002
# Data Folded      =  7208960
# Data Avg         =  3.98205708689068e-10
# Data StdDev      =  8.37512738828878 
# Profile Bins     =  512
# Profile Avg      =  -0.00365961709297752
# Profile StdDev   =  993.785713060171 
# Reduced chi-sqr  =  0.689
# Prob(Noise)      <  1   (~0.0 sigma)
# P_topo (ms)      =  714.536516240192  +/- 0.000124
# P'_topo (s/s)    =  -0                +/- 6.66e-11
# P''_topo (s/s^2) =  0                 +/- 3e-14
# P_bary (ms)      =  N/A
# P'_bary (s/s)    =  N/A
# P''_bary (s/s^2) =  N/A
# P_orb (s)        =  N/A
# asin(i)/c (s)    =  N/A
# eccentricity     =  N/A
# w (rad)          =  N/A
# T_peri           =  N/A
######################################################
   0  348.9836
   1  134.5574
   2  435.7664
   3  574.2085
   4  -330.0199
   5  -711.3276
   6  -668.9194
   7  497.5998
   8  432.5576
   9  368.884
  10  572.3758
  11  243.1369
  12  98.7896
  13  -262.2678
  14  -655.9119
  15  -675.8506
  16  -97.26036
  17  335.442
  18  231.9635
  19  310.5334
  20  145.8363
  21  7.317238
  22  -342.8289
  23  -160.0157
  24  -444.5016
  25  -413.5745
  26  -340.5488
  27  661.6962
  28  167.501
  29  346.6756
  30  -190.4559
  31  -68.92845
  32  398.538
  33  878.9735
  34  877.783
  35  -46.71619
  36  304.2552
  37  489.2525
  38  -50.8097
  39  -137.644
  40  230.0472
  41  79.86568
  42  -355.5702
  43  241.4431
  44  168.8483
  45  307.367
  46  1349.583
  47  1510.878
  48  1824.027
  49  952.845
  50  323.1515
  51  26.1403
  52  687.2758
  53  638.327
  54  1654.533
  55  1915.589
  56  1855.595
  57  1209.802
  58  716.8118
  59  269.4996
  60  212.7237
  61  -72.53326
  62  270.729
  63  251.0623
  64  19.34785
  65  69.06684
  66  -478.3275
  67  -736.9747
  68  -877.496
  69  -1210.679
  70  -838.4985
  71  -815.0107
  72  -771.2668
  73  -1268.744
  74  -1045.625
  75  -408.9847
  76  -316.9561
  77  421.2476
  78  421.4463
  79  165.8431
  80  -308.0877
  81  -234.9116
  82  -202.6974
  83  -208.834
  84  497.61
  85  123.9609
  86  -177.1533
  87  -622.9101
  88  -1190.621
  89  -592.8619
  90  -463.5139
  91  -383.3513
  92  89.13073
  93  368.6052
  94  477.0308
  95  61.31171
  96  -377.2936
  97  -467.4609
  98  175.2637
  99  300.9596
 100  286.7583
 101  9.527539
 102  -135.0679
 103  -341.5535
 104  -62.28799
 105  -390.4598
 106  -905.0822
 107  -919.6143
 108  -716.6166
 109  -678.1735
 110  -747.7449
 111  -818.4749
 112  36.95744
 113  7.413523
 114  -195.1474
 115  763.762
 116  981.8488
 117  1140.768
 118  46.31213
 119  -590.3231
 120  -296.2116
 121  -464.6258
 122  -350.5356
 123  -375.8651
 124  492.9826
 125  124.8434
 126  -310.6782
 127  -813.4776
 128  -1106.449
 129  -955.5541
 130  -710.3677
 131  -535.9304
 132  76.00577
 133  83.48964
 134  634.6243
 135  8.189148
 136  -686.0335
 137  -398.0677
 138  11.78055
 139  -281.0396
 140  -315.1117
 141  -289.7944
 142  728.2338
 143  195.3167
 144  2.391834
 145  -741.4943
 146  -1027.905
 147  -1623.206
 148  -1002.366
 149  340.3962
 150  252.9231
 151  321.4084
 152  58.35949
 153  -390.403
 154  -521.5772
 155  -968.8016
 156  -504.8911
 157  -407.3862
 158  -134.1187
 159  -411.768
 160  34.32091
 161  162.6155
 162  195.2192
 163  7.782669
 164  139.94
 165  384.2106
 166  98.44166
 167  940.4473
 168  614.0598
 169  -586.8296
 170  -395.3487
 171  -144.9361
 172  182.1469
 173  826.3911
 174  772.4642
 175  419.6872
 176  648.7773
 177  916.908
 178  246.5946
 179  -445.983
 180  -626.3199
 181  -45.37425
 182  310.3318
 183  226.2045
 184  -130.0138
 185  -1118.803
 186  -962.478
 187  -1230.027
 188  -1230.632
 189  -545.2755
 190  106.6647
 191  -79.55785
 192  -275.0173
 193  -494.9654
 194  -266.0327
 195  66.39009
 196  303.2625
 197  -21.53753
 198  -353.5242
 199  148.5527
 200  -234.1984
 201  -201.8993
 202  -93.98051
 203  -97.88649
 204  -514.2719
 205  -211.4695
 206  -421.5291
 207  -486.6791
 208  -590.5344
 209  254.6544
 210  539.6119
 211  596.3293
 212  194.8484
 213  -60.64622
 214  -887.5706
 215  -299.9096
 216  98.25175
 217  186.4973
 218  805.6032
 219  85.74498
 220  149.557
 221  -109.8546
 222  -16.56011
 223  -408.246
 224  -422.0954
 225  -160.3268
 226  80.89508
 227  340.4501
 228  811.5421
 229  1011.847
 230  815.4399
 231  109.9311
 232  625.3725
 233  444.5925
 234  401.4252
 235  -118.0963
 236  -823.1349
 237  -411.5302
 238  -375.897
 239  165.8548
 240  -389.7333
 241  -224.0637
 242  -144.0757
 243  -153.3614
 244  -727.2902
 245  -1472.864
 246  -1308.262
 247  -1311.475
 248  -829.3452
 249  41.7255
 250  -508.5799
 251  -392.5888
 252  251.0083
 253  -22.0526
 254  -58.78408
 255  232.1978
 256  54.95587
 257  222.3023
 258  599.3307
 259  830.1491
 260  558.1896
 261  852.7572
 262  824.4668
 263  945.7597
 264  1086.467
 265  934.066
 266  461.6818
 267  773.371
 268  876.5555
 269  1573.254
 270  1001.749
 271  833.3607
 272  872.4458
 273  871.2338
 274  313.4749
 275  426.6799
 276  416.6775
 277  401.8928
 278  28.69435
 279  -95.26147
 280  -412.4276
 281  -729.4933
 282  -562.8148
 283  -307.4468
 284  202.0372
 285  133.1451
 286  -517.5884
 287  -259.7387
 288  -18.62716
 289  717.5378
 290  892.1981
 291  127.7866
 292  458.8195
 293  930.1781
 294  606.1615
 295  330.1425
 296  568.7897
 297  1198.751
 298  815.0642
 299  -125.2392
 300  -202.7211
 301  -481.4494
 302  -513.4962
 303  -646.0942
 304  69.56143
 305  205.0007
 306  1172.534
 307  963.9147
 308  554.2479
 309  186.011
 310  96.42877
 311  -130.2771
 312  105.4183
 313  420.0699
 314  934.6652
 315  1412.453
 316  154.9188
 317  -5.467482
 318  708.8875
 319  44.80018
 320  -555.0811
 321  -863.571
 322  -457.4236
 323  7.348432
 324  195.5908
 325  23.61446
 326  -15.3074
 327  -614.5424
 328  -913.055
 329  -711.9373
 330  -577.3964
 331  -132.1833
 332  -59.92661
 333  72.56895
 334  -827.0645
 335  -962.8259
 336  -834.9719
 337  -496.0944
 338  -371.5034
 339  -58.07244
 340  885.6069
 341  760.4643
 342  6.237508
 343  -184.8072
 344  -262.6728
 345  222.8908
 346  324.3309
 347  290.7003
 348  535.0933
 349  958.546
 350  601.8973
 351  -189.0156
 352  -768.932
 353  -736.8274
 354  -626.9175
 355  18.76061
 356  432.1562
 357  712.6365
 358  582.1804
 359  693.551
 360  -99.78545
 361  38.43415
 362  516.2844
 363  811.1034
 364  1456.329
 365  898.9003
 366  620.9865
 367  273.118
 368  173.5283
 369  -238.9992
 370  -537.7234
 371  -56.0709
 372  413.8289
 373  760.4228
 374  -118.7643
 375  444.6817
 376  -175.714
 377  -638.2242
 378  -54.99879
 379  19.4455
 380  250.5836
 381  369.741
 382  235.6232
 383  194.5841
 384  145.3541
 385  -144.577
 386  -419.9037
 387  -287.3487
 388  -1.305109
 389  315.6757
 390  779.9972
 391  398.4045
 392  186.0842
 393  118.4693
 394  -279.8051
 395  -251.1018
 396  -586.4331
 397  -305.0769
 398  -466.5598
 399  -684.803
 400  -621.3614
 401  -231.521
 402  -284.4345
 403  -688.639
 404  -966.9855
 405  -388.3611
 406  239.6609
 407  486.8804
 408  15.68059
 409  603.6022
 410  -41.12423
 411  -409.7754
 412  162.3862
 413  -68.36954
 414  362.7646
 415  -239.6704
 416  -598.1194
 417  -851.0086
 418  -835.674
 419  -1206.968
 420  -1301.695
 421  -541.3535
 422  -557.8716
 423  -1122.805
 424  -1374.635
 425  -356.0222
 426  57.38787
 427  -432.062
 428  -915.7273
 429  -1379.476
 430  -1308.206
 431  -922.9119
 432  -331.0308
 433  261.9475
 434  77.10701
 435  -317.6834
 436  -291.8948
 437  -156.9189
 438  217.3302
 439  707.9033
 440  1324.812
 441  1275.883
 442  576.8988
 443  -630.1721
 444  -236.1848
 445  594.4271
 446  499.2714
 447  442.5516
 448  -254.6247
 449  -495.8186
 450  -157.3298
 451  77.69221
 452  -913.2751
 453  -858.0468
 454  -920.2827
 455  -449.2545
 456  -1003.221
 457  -887.3711
 458  -580.6761
 459  -370.8521
 460  447.419
 461  953.092
 462  715.0303
 463  478.6461
 464  34.83094
 465  -78.75866
 466  -621.9786
 467  -22.66627
 468  -349.9208
 469  -396.5977
 470  -575.7103
 471  -209.7203
 472  -111.7211
 473  39.68349
 474  766.3336
 475  24.4438
 476  -217.9914
 477  -40.03413
 478  838.9084
 479  442.4761
 480  798.7095
 481  734.954
 482  437.8392
 483  942.1122
 484  587.4808
 485  -368.8544
 486  -280.2676
 487  107.0379
 488  786.5052
 489  412.7821
 490  408.1612
 491  105.3477
 492  -443.2275
 493  -700.696
 494  -1175.382
 495  -207.1988
 496  272.7584
 497  870.8487
 498  757.173
 499  326.964
 500  212.7607
 501  -621.3673
 502  -740.5364
 503  -849.8531
 504  -244.7877
 505  378.729
 506  1206.003
 507  1108.797
 508  332.0836
 509  -55.49383
 510  53.72633
 511  546.0697
