# Input file       =  1197900169.093376_cleaned.dat
# Candidate        =  PSR_0332+5434
# Telescope        =  AR
# Epoch_topo       =  58108.585510340003
# Epoch_bary       =  N/A
# T_sample         =  0.002
# Data Folded      =  7208960
# Data Avg         =  0.160823882012416
# Data StdDev      =  4.95573811313422 
# Profile Bins     =  256
# Profile Avg      =  4528.8720248772  
# Profile StdDev   =  831.619517163075 
# Reduced chi-sqr  =  0.819
# Prob(Noise)      <  0.984   (~0.0 sigma)
# P_topo (ms)      =  714.546347630017  +/- 8.85e-05
# P'_topo (s/s)    =  -0                +/- 4.75e-11
# P''_topo (s/s^2) =  0                 +/- 2.14e-14
# P_bary (ms)      =  N/A
# P'_bary (s/s)    =  N/A
# P''_bary (s/s^2) =  N/A
# P_orb (s)        =  N/A
# asin(i)/c (s)    =  N/A
# eccentricity     =  N/A
# w (rad)          =  N/A
# T_peri           =  N/A
######################################################
   0  5226.82
   1  4765.927
   2  5210.452
   3  4530.18
   4  4086.527
   5  4111.725
   6  4632.638
   7  4798.415
   8  4516.155
   9  3571.731
  10  2753.984
  11  4196.026
  12  4110.396
  13  3869.917
  14  3199.595
  15  4585.595
  16  4181.202
  17  3441.937
  18  3159.443
  19  3770.23
  20  3813.767
  21  4306.545
  22  4190.904
  23  4279.302
  24  3880.174
  25  4651.123
  26  4827.403
  27  4322.812
  28  5268.495
  29  5213.015
  30  4688.702
  31  4255.113
  32  5002.194
  33  5563.215
  34  4150.616
  35  4688.186
  36  4767.523
  37  4629.481
  38  4135.177
  39  4088.014
  40  4294.016
  41  4939.898
  42  4477.512
  43  3965.756
  44  3556.54
  45  3669.792
  46  3861.905
  47  4772.315
  48  4001.84
  49  4290.142
  50  5062.004
  51  5300.206
  52  4575.54
  53  4813.541
  54  4405.04
  55  4650.985
  56  5521.781
  57  5339.859
  58  5100.869
  59  5164.396
  60  4829.973
  61  4217.437
  62  4706.852
  63  4125.195
  64  4631.101
  65  4555.699
  66  4240.467
  67  3746.229
  68  3599.015
  69  4877.129
  70  4377.428
  71  4498.668
  72  3845.222
  73  4536.086
  74  3936.756
  75  4045.831
  76  4350.27
  77  3569.169
  78  3935.887
  79  2965.522
  80  4253.858
  81  4368.57
  82  4016.373
  83  4725.308
  84  4296.288
  85  4326.237
  86  3944.988
  87  5107.092
  88  4276.328
  89  4312.554
  90  3722.841
  91  4683.534
  92  5362.866
  93  3513.766
  94  5127.893
  95  3661.458
  96  4195.762
  97  4409.08
  98  4727.417
  99  4302.224
 100  4069.553
 101  4743.869
 102  4316.782
 103  4309.264
 104  3924.859
 105  5030.973
 106  4332.753
 107  4722.945
 108  4149.878
 109  4693.806
 110  4662.122
 111  4532.983
 112  5056.872
 113  3900.146
 114  5483.646
 115  4415.028
 116  4334.901
 117  5157.919
 118  5268.203
 119  5348.427
 120  4736.506
 121  5481.119
 122  4971.48
 123  5117.584
 124  5484.205
 125  5330.073
 126  5286.881
 127  4320.081
 128  4913.546
 129  4240.235
 130  4985.67
 131  4428.114
 132  5132.908
 133  5810.115
 134  5853.001
 135  6130.515
 136  5409.367
 137  5178.942
 138  4586.797
 139  5787.723
 140  5647.174
 141  5377.515
 142  4895.461
 143  4843.797
 144  4866.934
 145  4278.427
 146  4721.956
 147  4293.529
 148  4197.002
 149  5101.24
 150  5040.021
 151  5164.536
 152  5140.317
 153  6523.789
 154  6327.169
 155  6656.662
 156  7164.542
 157  5965.606
 158  4826.562
 159  4209.435
 160  3770.513
 161  4877.823
 162  4767.743
 163  3789.645
 164  5070.262
 165  4718.118
 166  5330.573
 167  5171.381
 168  4858.102
 169  4686.997
 170  4180.263
 171  4577.184
 172  4504.684
 173  4371.065
 174  3771.533
 175  5049.871
 176  5062.576
 177  4370.322
 178  4894.293
 179  4771.352
 180  4196.521
 181  4563.816
 182  5658.239
 183  4342.171
 184  4708.798
 185  5177.376
 186  4638.792
 187  5393.398
 188  5437.438
 189  6039.708
 190  5328.913
 191  4954.88
 192  4793.007
 193  4724.652
 194  3874.584
 195  4152.111
 196  5141.515
 197  4917.22
 198  4891.084
 199  4155.363
 200  4240.919
 201  4165.436
 202  4666.483
 203  3595.612
 204  2996.976
 205  4701.918
 206  3956.028
 207  4556.439
 208  4155.501
 209  4285.975
 210  4915.398
 211  4506.161
 212  4359.855
 213  3859.396
 214  4641.14
 215  4452.114
 216  3852.848
 217  3602.512
 218  3564.646
 219  4541.306
 220  4202.667
 221  4762.099
 222  4358.427
 223  4458.28
 224  4436.075
 225  5009.089
 226  4491.477
 227  4020.682
 228  4355.515
 229  3364.9
 230  4566.174
 231  4006.238
 232  4200.759
 233  3418.993
 234  4770.086
 235  4105.355
 236  3940.654
 237  3868.974
 238  4485.661
 239  3789.379
 240  3454.085
 241  4278.209
 242  4173.265
 243  4216.789
 244  3972.093
 245  4045.917
 246  3983.78
 247  4119.2
 248  3895.926
 249  3059.089
 250  3829.44
 251  4005.755
 252  3924.522
 253  3759.576
 254  4426.432
 255  5324.701
