# Input file       =  1197741965.100548_cleaned.dat
# Candidate        =  PSR_0332+5434
# Telescope        =  AR
# Epoch_topo       =  58106.754445608196
# Epoch_bary       =  N/A
# T_sample         =  0.002
# Data Folded      =  7340032
# Data Avg         =  0.0286191013555688
# Data StdDev      =  0.999991716920318
# Profile Bins     =  512
# Profile Avg      =  410.282038597519 
# Profile StdDev   =  119.732044618485 
# Reduced chi-sqr  =  0.844
# Prob(Noise)      <  0.996   (~0.0 sigma)
# P_topo (ms)      =  714.544606673881  +/- 0.000392
# P'_topo (s/s)    =  -0                +/- 2.07e-10
# P''_topo (s/s^2) =  0                 +/- 9.14e-14
# P_bary (ms)      =  N/A
# P'_bary (s/s)    =  N/A
# P''_bary (s/s^2) =  N/A
# P_orb (s)        =  N/A
# asin(i)/c (s)    =  N/A
# eccentricity     =  N/A
# w (rad)          =  N/A
# T_peri           =  N/A
######################################################
   0  922.8405
   1  797.649
   2  583.4958
   3  487.8607
   4  463.7113
   5  417.255
   6  479.6694
   7  632.0958
   8  523.2767
   9  509.7013
  10  406.0452
  11  408.3204
  12  412.4322
  13  442.8657
  14  481.7715
  15  579.3032
  16  524.2455
  17  403.2546
  18  315.5608
  19  331.578
  20  411.0484
  21  441.3429
  22  536.0948
  23  443.2537
  24  421.6702
  25  320.5976
  26  295.1649
  27  392.5663
  28  506.3164
  29  462.2646
  30  553.9438
  31  593.1406
  32  449.0686
  33  457.1626
  34  465.6945
  35  351.6732
  36  320.7586
  37  234.9835
  38  330.8974
  39  345.3088
  40  384.7612
  41  358.3919
  42  357.3641
  43  367.2006
  44  415.183
  45  334.3799
  46  403.3549
  47  347.1012
  48  485.6839
  49  554.8077
  50  552.8983
  51  516.4982
  52  492.9242
  53  378.1314
  54  362.395
  55  535.6691
  56  566.2966
  57  490.6362
  58  476.9733
  59  465.4447
  60  457.9486
  61  456.831
  62  370.9118
  63  379.8343
  64  531.7413
  65  521.588
  66  406.3636
  67  427.4298
  68  399.3198
  69  354.8481
  70  442.1638
  71  447.5729
  72  458.9081
  73  463.3252
  74  473.8639
  75  444.4606
  76  370.459
  77  424.0841
  78  331.9471
  79  356.6223
  80  495.4795
  81  476.191
  82  366.4878
  83  415.0016
  84  414.9055
  85  439.196
  86  425.2279
  87  440.054
  88  424.567
  89  474.1077
  90  428.7569
  91  286.6213
  92  320.3868
  93  376.519
  94  407.5444
  95  406.7577
  96  361.3095
  97  345.2696
  98  400.7089
  99  462.2444
 100  332.1533
 101  305.6638
 102  363.6891
 103  393.9646
 104  323.3749
 105  384.5246
 106  403.7188
 107  414.2258
 108  330.7162
 109  292.1695
 110  401.2068
 111  469.4557
 112  407.9626
 113  381.9447
 114  488.3802
 115  428.3362
 116  376.0287
 117  278.3069
 118  350.4919
 119  349.096
 120  374.9709
 121  384.004
 122  285.0157
 123  428.5265
 124  423.9821
 125  459.4077
 126  507.7015
 127  459.8438
 128  374.161
 129  321.0278
 130  363.3098
 131  481.5874
 132  546.4952
 133  486.4329
 134  452.6507
 135  360.3921
 136  306.2472
 137  339.4194
 138  409.5447
 139  477.004
 140  411.1204
 141  381.2422
 142  278.5752
 143  280.9878
 144  344.1502
 145  415.3815
 146  401.3609
 147  449.0742
 148  452.2887
 149  304.995
 150  386.4879
 151  494.2328
 152  425.2218
 153  347.6319
 154  332.3005
 155  344.592
 156  411.4351
 157  536.7688
 158  338.6353
 159  355.1853
 160  356.2741
 161  366.135
 162  281.0586
 163  367.6892
 164  465.3316
 165  439.8627
 166  525.7732
 167  521.5023
 168  359.9999
 169  371.583
 170  375.2955
 171  448.2219
 172  483.5237
 173  409.9518
 174  317.8453
 175  499.7314
 176  473.3078
 177  425.6963
 178  460.4839
 179  544.1719
 180  523.2331
 181  469.224
 182  425.5372
 183  409.6293
 184  443.9769
 185  393.0711
 186  420.5173
 187  409.4875
 188  519.8517
 189  501.8103
 190  261.3808
 191  374.3438
 192  358.5098
 193  355.8376
 194  441.5085
 195  464.7545
 196  441.1088
 197  388.8865
 198  518.845
 199  395.2151
 200  356.6314
 201  441.9646
 202  516.1676
 203  441.8978
 204  401.7157
 205  492.9109
 206  414.1117
 207  504.7889
 208  512.1473
 209  426.2115
 210  392.7611
 211  373.6721
 212  494.7327
 213  498.639
 214  358.6093
 215  417.2065
 216  366.0895
 217  492.0817
 218  469.7007
 219  420.4506
 220  330.6993
 221  513.1119
 222  499.6542
 223  487.5099
 224  434.5643
 225  347.2052
 226  362.1588
 227  403.3744
 228  407.0899
 229  374.2147
 230  405.2898
 231  455.1461
 232  435.517
 233  469.0038
 234  540.3333
 235  390.8116
 236  485.8598
 237  450.3532
 238  393.94
 239  401.5222
 240  474.7458
 241  517.8604
 242  431.1647
 243  303.4139
 244  291.0878
 245  403.4385
 246  461.1865
 247  401.816
 248  356.9441
 249  402.8477
 250  379.5129
 251  396.646
 252  398.5361
 253  249.3939
 254  222.243
 255  199.7322
 256  281.499
 257  202.7605
 258  310.2496
 259  381.1169
 260  369.7175
 261  436.0994
 262  382.7702
 263  369.8477
 264  444.2726
 265  255.8762
 266  251.8164
 267  283.2838
 268  278.4175
 269  343.4059
 270  456.4908
 271  443.3206
 272  421.4604
 273  577.4431
 274  421.5898
 275  284.3195
 276  344.7612
 277  392.7543
 278  365.4789
 279  465.5076
 280  560.9783
 281  491.7918
 282  383.4632
 283  412.2164
 284  337.5706
 285  386.4714
 286  404.3415
 287  431.5035
 288  426.8118
 289  433.8992
 290  400.6072
 291  387.9622
 292  390.0193
 293  370.1104
 294  429.3478
 295  467.0564
 296  457.1815
 297  473.8308
 298  506.7358
 299  439.3636
 300  463.0815
 301  478.8071
 302  463.3401
 303  452.0972
 304  389.2559
 305  401.9348
 306  280.0534
 307  385.9349
 308  467.9952
 309  364.0829
 310  335.0046
 311  378.6768
 312  389.968
 313  414.8381
 314  432.0547
 315  394.6995
 316  446.1879
 317  446.653
 318  431.7948
 319  511.1474
 320  401.5221
 321  401.2119
 322  352.1704
 323  460.8159
 324  577.591
 325  455.9618
 326  298.6844
 327  364.9882
 328  437.4547
 329  426.4174
 330  477.6762
 331  381.2242
 332  354.0032
 333  355.3488
 334  361.6057
 335  464.6034
 336  335.2451
 337  306.0331
 338  460.8439
 339  414.8663
 340  419.2828
 341  449.5233
 342  358.6813
 343  403.5531
 344  526.7637
 345  437.9522
 346  453.6317
 347  381.8048
 348  407.7556
 349  436.2595
 350  496.5829
 351  581.7966
 352  486.7034
 353  377.5812
 354  356.6646
 355  361.372
 356  391.565
 357  408.3233
 358  455.844
 359  473.5298
 360  392.9739
 361  353.8704
 362  286.5659
 363  416.6169
 364  449.5324
 365  400.9798
 366  409.1847
 367  357.0768
 368  314.6378
 369  237.1254
 370  322.6307
 371  392.5648
 372  274.0475
 373  265.0416
 374  397.9359
 375  450.1609
 376  262.5629
 377  308.2515
 378  399.5445
 379  506.4648
 380  410.5721
 381  424.323
 382  449.7131
 383  300.2776
 384  360.9771
 385  401.2567
 386  381.7879
 387  424.192
 388  534.3525
 389  412.0589
 390  287.4347
 391  366.9993
 392  331.6315
 393  338.6992
 394  255.173
 395  362.4583
 396  366.7267
 397  484.4793
 398  536.0194
 399  332.3478
 400  441.746
 401  312.0172
 402  354.1797
 403  297.8483
 404  250.7482
 405  343.8294
 406  308.3202
 407  375.237
 408  371.3083
 409  356.9058
 410  289.2027
 411  301.644
 412  385.873
 413  439.5376
 414  498.0725
 415  426.5507
 416  325.7826
 417  391.0343
 418  429.3577
 419  411.7013
 420  520.1733
 421  423.9041
 422  406.6526
 423  405.8009
 424  501.0367
 425  457.8329
 426  497.2992
 427  500.9206
 428  460.5105
 429  487.7815
 430  460.6911
 431  457.7541
 432  432.6975
 433  409.8618
 434  429.3785
 435  356.2118
 436  272.3692
 437  348.9647
 438  434.139
 439  428.8281
 440  370.0709
 441  348.213
 442  421.1371
 443  404.9068
 444  406.3708
 445  419.611
 446  442.8307
 447  455.1806
 448  572.4494
 449  432.138
 450  333.701
 451  320.3982
 452  347.3284
 453  309.2612
 454  428.945
 455  376.2116
 456  448.7929
 457  482.3133
 458  393.5299
 459  296.4241
 460  406.6671
 461  441.7738
 462  360.8661
 463  377.2444
 464  425.8573
 465  447.8057
 466  354.1902
 467  422.6231
 468  422.7831
 469  294.8739
 470  362.8883
 471  363.6444
 472  307.2912
 473  379.8235
 474  350.8073
 475  315.8736
 476  419.1419
 477  426.9553
 478  323.6434
 479  323.4048
 480  475.5363
 481  418.1841
 482  417.013
 483  399.2871
 484  345.5371
 485  351.5069
 486  379.8845
 487  299.8463
 488  372.2489
 489  394.2621
 490  358.922
 491  188.8732
 492  344.1842
 493  398.2032
 494  386.7026
 495  372.7985
 496  352.1897
 497  367.0737
 498  359.5446
 499  318.6411
 500  497.7167
 501  429.602
 502  435.5112
 503  373.7394
 504  366.2647
 505  441.1042
 506  519.7924
 507  541.1071
 508  512.2896
 509  589.8114
 510  700.5919
 511  740.0106
