# Input file       =  1197052844.123184-PSRB0329-2ms-sampling-dd.dat
# Candidate        =  PSR_0332+5434
# Telescope        =  AR
# Epoch_topo       =  58098.778508370182
# Epoch_bary       =  N/A
# T_sample         =  0.002
# Data Folded      =  7340032
# Data Avg         =  1.93467693036385e-09
# Data StdDev      =  6.16968893380191 
# Profile Bins     =  512
# Profile Avg      =  -4.10525398055777
# Profile StdDev   =  738.715589544236 
# Reduced chi-sqr  =  0.367
# Prob(Noise)      <  1   (~0.0 sigma)
# P_topo (ms)      =  714.536703005238  +/- 0.000104
# P'_topo (s/s)    =  -0                +/- 5.49e-11
# P''_topo (s/s^2) =  0                 +/- 2.42e-14
# P_bary (ms)      =  N/A
# P'_bary (s/s)    =  N/A
# P''_bary (s/s^2) =  N/A
# P_orb (s)        =  N/A
# asin(i)/c (s)    =  N/A
# eccentricity     =  N/A
# w (rad)          =  N/A
# T_peri           =  N/A
######################################################
   0  224.5398
   1  206.0257
   2  -189.8229
   3  -81.07501
   4  170.8418
   5  -42.24823
   6  434.1338
   7  37.62969
   8  -198.9283
   9  -396.1614
  10  112.5491
  11  52.30075
  12  55.05018
  13  243.7226
  14  489.4608
  15  614.8328
  16  309.5325
  17  222.0082
  18  2.77902
  19  46.08466
  20  74.46811
  21  64.32771
  22  331.3485
  23  538.4959
  24  194.6982
  25  145.6768
  26  4.248187
  27  -98.35749
  28  -74.62093
  29  322.8481
  30  201.6148
  31  -129.2065
  32  -311.8484
  33  -564.2572
  34  -310.6755
  35  77.39497
  36  338.3448
  37  106.5705
  38  37.70334
  39  104.6022
  40  257.5914
  41  252.2104
  42  83.13953
  43  -15.73586
  44  449.3898
  45  488.9463
  46  94.78189
  47  338.1893
  48  135.2388
  49  69.88078
  50  68.46181
  51  -71.01141
  52  -264.2056
  53  -443.1022
  54  -44.98344
  55  -190.7925
  56  -182.0146
  57  -44.3503
  58  12.32468
  59  -240.9956
  60  -189.5296
  61  -158.45
  62  -138.9066
  63  244.0367
  64  149.5987
  65  348.5272
  66  -102.5492
  67  -289.9622
  68  -67.29642
  69  -69.42379
  70  194.2326
  71  110.3852
  72  347.8722
  73  79.03143
  74  -335.7024
  75  -131.1648
  76  280.1682
  77  -111.6043
  78  -247.7708
  79  80.65854
  80  -85.67615
  81  -219.0665
  82  -328.2934
  83  -409.2779
  84  -79.96857
  85  -94.31802
  86  186.0054
  87  -66.58836
  88  54.83552
  89  63.38048
  90  -141.5651
  91  -251.6953
  92  224.2352
  93  307.4316
  94  -101.8661
  95  -371.209
  96  -253.1346
  97  20.80114
  98  281.1041
  99  -149.3116
 100  -513.8153
 101  -213.7634
 102  -247.9922
 103  -164.1444
 104  -92.75635
 105  -142.7724
 106  -423.7272
 107  -24.98201
 108  -242.361
 109  -933.643
 110  -941.4667
 111  -580.3267
 112  -287.0053
 113  -325.4715
 114  102.1999
 115  -191.503
 116  -379.7796
 117  -540.922
 118  -733.337
 119  -422.6547
 120  -447.1158
 121  -157.2619
 122  -249.5177
 123  -805.4473
 124  -994.6508
 125  -597.5197
 126  -240.7487
 127  -411.0643
 128  -374.2086
 129  -365.2617
 130  -283.4635
 131  -119.1389
 132  -251.8313
 133  -340.581
 134  -112.6848
 135  15.2662
 136  34.76286
 137  -139.9781
 138  -345.5472
 139  -466.6631
 140  -317.2873
 141  -396.3323
 142  -323.0156
 143  59.36963
 144  -113.3611
 145  -173.6579
 146  -454.5931
 147  -632.2181
 148  -807.6834
 149  -652.4439
 150  -151.6335
 151  -20.23953
 152  72.1166
 153  -151.4023
 154  28.38881
 155  -20.8338
 156  63.3256
 157  190.0113
 158  148.0075
 159  -172.5348
 160  -237.2014
 161  38.93933
 162  -27.07553
 163  118.792
 164  169.519
 165  213.9161
 166  -117.1825
 167  -194.8389
 168  -204.7469
 169  -7.681231
 170  75.22554
 171  22.38561
 172  137.3244
 173  -171.2613
 174  -501.3058
 175  -463.9182
 176  -437.9576
 177  -428.2477
 178  -521.8906
 179  -348.5264
 180  -346.6791
 181  -554.4578
 182  -579.6185
 183  -125.649
 184  -189.229
 185  -244.0406
 186  -191.9527
 187  69.09534
 188  403.3163
 189  450.3636
 190  185.1885
 191  -237.9488
 192  165.9833
 193  133.106
 194  374.6349
 195  313.4969
 196  -283.9151
 197  -487.6242
 198  -322.0837
 199  -170.8966
 200  -303.3271
 201  -460.4626
 202  -359.7229
 203  -364.7765
 204  -296.9101
 205  -686.2925
 206  -1083.727
 207  -735.8912
 208  -250.8319
 209  -236.8358
 210  -544.2271
 211  -374.6824
 212  -587.4029
 213  -853.6719
 214  -425.3301
 215  -141.298
 216  25.01318
 217  -74.82967
 218  -320.5802
 219  53.00111
 220  -185.2179
 221  81.62852
 222  221.5182
 223  415.6351
 224  194.8994
 225  -3.788446
 226  445.3804
 227  526.8115
 228  182.2941
 229  182.5772
 230  223.1761
 231  54.94292
 232  -255.3741
 233  86.7422
 234  46.16913
 235  443.4551
 236  286.9635
 237  337.6469
 238  234.0583
 239  406.4925
 240  491.5175
 241  270.7171
 242  75.14709
 243  211.5636
 244  424.7072
 245  175.681
 246  147.8968
 247  30.5164
 248  -9.32223
 249  2.246053
 250  166.1887
 251  555.1265
 252  239.616
 253  424.3809
 254  417.3577
 255  494.6939
 256  721.1371
 257  757.7074
 258  1256.767
 259  890.1008
 260  208.3818
 261  -66.50562
 262  -424.8262
 263  -788.669
 264  -408.1559
 265  165.9823
 266  119.5297
 267  -440.3224
 268  -601.8273
 269  -100.5976
 270  -167.591
 271  23.50909
 272  336.2308
 273  346.6299
 274  339.8906
 275  -37.0261
 276  -169.3226
 277  -168.74
 278  101.1081
 279  -13.39035
 280  -37.9801
 281  -159.854
 282  -399.0695
 283  -412.7675
 284  -582.439
 285  -373.1025
 286  -196.1552
 287  -193.7369
 288  -238.4887
 289  -246.2477
 290  -239.1646
 291  -209.6933
 292  -148.8762
 293  114.0738
 294  164.6422
 295  -186.4647
 296  -424.6171
 297  -413.1754
 298  -253.7545
 299  -209.8756
 300  160.9065
 301  190.1745
 302  -214.1897
 303  -430.332
 304  -266.6184
 305  165.4309
 306  -239.4688
 307  -133.9909
 308  390.0785
 309  462.0329
 310  246.5063
 311  -352.5057
 312  -308.8035
 313  -426.4336
 314  340.4937
 315  175.479
 316  218.5586
 317  55.12064
 318  256.2235
 319  146.8705
 320  -18.90365
 321  36.37802
 322  -49.21497
 323  195.5382
 324  34.06153
 325  -1.917209
 326  -229.7017
 327  -91.56497
 328  -325.6328
 329  67.41194
 330  333.2906
 331  217.2325
 332  -22.40025
 333  -93.37057
 334  -443.7108
 335  -418.8702
 336  -377.012
 337  -316.6307
 338  -267.061
 339  -60.57869
 340  -343.988
 341  -26.83776
 342  6.470035
 343  322.0536
 344  -24.34041
 345  -12.38825
 346  258.9249
 347  247.6353
 348  372.2288
 349  42.58727
 350  380.3499
 351  424.7815
 352  113.8
 353  -43.85299
 354  174.4465
 355  322.4727
 356  -91.10275
 357  76.00485
 358  -203.3997
 359  -283.2572
 360  -212.2492
 361  -148.1501
 362  -32.30245
 363  -63.46834
 364  156.1648
 365  237.2954
 366  213.9091
 367  -238.2694
 368  -211.7481
 369  176.5571
 370  305.8071
 371  237.9711
 372  467.0855
 373  387.1185
 374  338.2573
 375  581.2284
 376  369.2667
 377  -69.52747
 378  152.6231
 379  371.5657
 380  552.1263
 381  234.5485
 382  83.50509
 383  34.73095
 384  146.2929
 385  324.4015
 386  507.6208
 387  425.9614
 388  76.30289
 389  17.9241
 390  -113.2718
 391  152.7001
 392  205.7561
 393  192.9502
 394  432.9544
 395  398.1408
 396  539.3853
 397  141.1342
 398  -102.0277
 399  229.7587
 400  194.5993
 401  490.968
 402  509.5952
 403  -205.6702
 404  -165.6326
 405  -150.778
 406  -417.3854
 407  -69.04988
 408  65.23785
 409  5.060068
 410  -238.1328
 411  -487.2836
 412  -603.6342
 413  -435.8469
 414  -322.407
 415  -86.24709
 416  -79.73877
 417  -83.74736
 418  132.7235
 419  502.6767
 420  154.8972
 421  -151.9877
 422  -38.4067
 423  305.3379
 424  355.2719
 425  84.60004
 426  187.891
 427  -288.3256
 428  -190.8526
 429  -208.8437
 430  156.2702
 431  15.8582
 432  176.9417
 433  304.4257
 434  349.9762
 435  70.78709
 436  -91.43256
 437  148.9943
 438  161.5145
 439  -111.7648
 440  -243.4969
 441  -74.78758
 442  -513.3215
 443  -282.7954
 444  -258.6326
 445  -69.79048
 446  134.1707
 447  -139.9322
 448  -0.6241955
 449  -73.31654
 450  -136.4034
 451  21.55305
 452  371.8275
 453  557.673
 454  143.4199
 455  -121.3198
 456  31.67026
 457  434.9604
 458  554.9968
 459  424.5111
 460  368.9993
 461  48.57278
 462  -179.9964
 463  -207.4274
 464  -31.57735
 465  -42.31701
 466  286.9238
 467  571.945
 468  518.4411
 469  -108.1306
 470  -74.26991
 471  164.4068
 472  400.888
 473  560.7294
 474  387.5264
 475  429.7364
 476  327.3153
 477  121.472
 478  -203.2969
 479  -152.8303
 480  298.4046
 481  624.5458
 482  443.2917
 483  900.471
 484  733.9993
 485  277.0282
 486  451.882
 487  568.7436
 488  846.8751
 489  672.5728
 490  631.2698
 491  301.1308
 492  -519.5093
 493  -449.364
 494  -39.98804
 495  403.4518
 496  456.781
 497  19.80484
 498  -144.8019
 499  -490.7342
 500  -248.6078
 501  113.9069
 502  318.3146
 503  125.9857
 504  53.51142
 505  356.286
 506  375.5381
 507  329.9609
 508  294.2119
 509  487.6722
 510  247.2088
 511  100.2973
