# Input file       =  1197570344.120679_cleaned.dat
# Candidate        =  PSR_0332+5434
# Telescope        =  AR
# Epoch_topo       =  58104.768091674523
# Epoch_bary       =  N/A
# T_sample         =  0.002
# Data Folded      =  7340032
# Data Avg         =  0.163015067801878
# Data StdDev      =  4.28140493535002 
# Profile Bins     =  256
# Profile Avg      =  4673.90013414412 
# Profile StdDev   =  724.962094137646 
# Reduced chi-sqr  =  0.633
# Prob(Noise)      <  1   (~0.0 sigma)
# P_topo (ms)      =  714.542684073616  +/- 0.000397
# P'_topo (s/s)    =  -0                +/- 2.09e-10
# P''_topo (s/s^2) =  0                 +/- 9.24e-14
# P_bary (ms)      =  N/A
# P'_bary (s/s)    =  N/A
# P''_bary (s/s^2) =  N/A
# P_orb (s)        =  N/A
# asin(i)/c (s)    =  N/A
# eccentricity     =  N/A
# w (rad)          =  N/A
# T_peri           =  N/A
######################################################
   0  5242.469
   1  4299.455
   2  3954.072
   3  5033.425
   4  4690.453
   5  4435.915
   6  4592.774
   7  4669.89
   8  4558.296
   9  4615.933
  10  5385.438
  11  4838.13
  12  4632.308
  13  4958.236
  14  4930.667
  15  4884.213
  16  5587.599
  17  4493.765
  18  4683.324
  19  4182.941
  20  4791.657
  21  4699.288
  22  5203.534
  23  5037.705
  24  5083.218
  25  4882.013
  26  5160.198
  27  5640.108
  28  4717.901
  29  3993.799
  30  3711.298
  31  4547.562
  32  3774.081
  33  4069.287
  34  3437.51
  35  4558.495
  36  4922.63
  37  4922.983
  38  4346.632
  39  3801.382
  40  3860.411
  41  4286.477
  42  4619.374
  43  4716.987
  44  4815.803
  45  4883.048
  46  4622.217
  47  5442.217
  48  4539.733
  49  4685.096
  50  4589.974
  51  4794.203
  52  5311.87
  53  4856.119
  54  4705.128
  55  4404.046
  56  4438.965
  57  4306.363
  58  4656.315
  59  4509.562
  60  4551.789
  61  4347.806
  62  4692.179
  63  4933.888
  64  5210.266
  65  4539.638
  66  4105.014
  67  4496.764
  68  4851.718
  69  5119.236
  70  4990.032
  71  4496.074
  72  4102.103
  73  4520.622
  74  3751.88
  75  4417.836
  76  4187.438
  77  4130.88
  78  4093.083
  79  4054.73
  80  4344.42
  81  4161.028
  82  3999.782
  83  5174.871
  84  5475.356
  85  5018.767
  86  4709.491
  87  4517.951
  88  4269.295
  89  4551.37
  90  4659.894
  91  5488.175
  92  4899.296
  93  4575.113
  94  5308.75
  95  5425.989
  96  4932.263
  97  4833.129
  98  5214.288
  99  4351.348
 100  4210.834
 101  3586.745
 102  3981.628
 103  3838.9
 104  3974.529
 105  4440.613
 106  4007.764
 107  4729.434
 108  4390.355
 109  4534.143
 110  4058.358
 111  4040.239
 112  4611.405
 113  4025.064
 114  3891.904
 115  3711.878
 116  3980.432
 117  4383.722
 118  4644.004
 119  4601.087
 120  4804.499
 121  5573.876
 122  5316.77
 123  5040.056
 124  4708.08
 125  4610.921
 126  4466.633
 127  4548.565
 128  4387.318
 129  4305.67
 130  4747.006
 131  4988.712
 132  4712.632
 133  4823.343
 134  3988.648
 135  4674.018
 136  4337.57
 137  5053.849
 138  4739.965
 139  3985.42
 140  3832.798
 141  4625.963
 142  4386.106
 143  4747.456
 144  4834.835
 145  5442.93
 146  4891.654
 147  4765.568
 148  4730.824
 149  4634.073
 150  4044.685
 151  4205.571
 152  4322.335
 153  4951.708
 154  4682.029
 155  6736.483
 156  7369.525
 157  6528.09
 158  6003.791
 159  5467.953
 160  4381.182
 161  4276.251
 162  4938.395
 163  5061.402
 164  5144.475
 165  4841.064
 166  5194.046
 167  4996.772
 168  5610.941
 169  4956.44
 170  5022.53
 171  4977.868
 172  5011.943
 173  5093.083
 174  4594.054
 175  4508.461
 176  4109.212
 177  4127.614
 178  4960.712
 179  4728.688
 180  4589.196
 181  4722.561
 182  4814.134
 183  5315.624
 184  4991.084
 185  4621.164
 186  4430.266
 187  4473.122
 188  4793.899
 189  4204.133
 190  4607.864
 191  4153.905
 192  4203.01
 193  4738.542
 194  4397.761
 195  4248.81
 196  4817.542
 197  4487.236
 198  5395.559
 199  5520.468
 200  4651.445
 201  4081.773
 202  5045.052
 203  4876.669
 204  4838.498
 205  5068.553
 206  4911.339
 207  4797.851
 208  4470.485
 209  5039.921
 210  5359.153
 211  4355.985
 212  4568.48
 213  4254.613
 214  4019.853
 215  4666.717
 216  4968.627
 217  4994.007
 218  3971.347
 219  4527.373
 220  4734.333
 221  4304.659
 222  4645.001
 223  4801.696
 224  4833.478
 225  5259.355
 226  5233.686
 227  4412.575
 228  4624.838
 229  4780.287
 230  4559.814
 231  4543.752
 232  5083.38
 233  4489.477
 234  4864.825
 235  5044.881
 236  4732.483
 237  4418.656
 238  5458.637
 239  4585.295
 240  5046.724
 241  4722.262
 242  4758.036
 243  4249.42
 244  3671.661
 245  4238.824
 246  4241.272
 247  4466.973
 248  5244.628
 249  4877.541
 250  4547.006
 251  4709.932
 252  4692.893
 253  4733.286
 254  4575.02
 255  5624.077
