# Input file       =  1197655838.099764_cleaned.dat
# Candidate        =  PSR_0332+5434
# Telescope        =  AR
# Epoch_topo       =  58105.757605321342
# Epoch_bary       =  N/A
# T_sample         =  0.002
# Data Folded      =  7340032
# Data Avg         =  0.0337840936642743
# Data StdDev      =  1.00011302184235 
# Profile Bins     =  512
# Profile Avg      =  484.681816822519 
# Profile StdDev   =  119.746568825127 
# Reduced chi-sqr  =  0.869
# Prob(Noise)      <  0.985   (~0.0 sigma)
# P_topo (ms)      =  714.543639972208  +/- 0.000148
# P'_topo (s/s)    =  -0                +/- 7.83e-11
# P''_topo (s/s^2) =  0                 +/- 3.46e-14
# P_bary (ms)      =  N/A
# P'_bary (s/s)    =  N/A
# P''_bary (s/s^2) =  N/A
# P_orb (s)        =  N/A
# asin(i)/c (s)    =  N/A
# eccentricity     =  N/A
# w (rad)          =  N/A
# T_peri           =  N/A
######################################################
   0  809.8715
   1  733.0712
   2  699.941
   3  559.3436
   4  578.9824
   5  518.9641
   6  490.7726
   7  580.8273
   8  576.7878
   9  616.7163
  10  547.5799
  11  519.4919
  12  539.971
  13  597.0734
  14  389.7329
  15  402.2722
  16  503.2062
  17  401.3578
  18  554.317
  19  506.2311
  20  486.7303
  21  548.4492
  22  528.7734
  23  561.619
  24  553.0394
  25  561.0748
  26  570.8666
  27  486.7321
  28  457.8052
  29  492.5397
  30  475.6137
  31  550.1077
  32  494.3259
  33  457.2528
  34  486.69
  35  404.8618
  36  429.3452
  37  534.3103
  38  541.3035
  39  453.2901
  40  511.655
  41  507.7078
  42  385.6999
  43  447.4666
  44  521.2778
  45  446.8905
  46  365.8549
  47  364.8781
  48  440.0057
  49  475.7407
  50  552.0724
  51  509.6521
  52  611.0344
  53  618.8215
  54  385.6517
  55  282.249
  56  268.4341
  57  419.5378
  58  483.7019
  59  477.8565
  60  456.0822
  61  343.9317
  62  391.5385
  63  533.5283
  64  575.6574
  65  617.6979
  66  510.6516
  67  428.5716
  68  381.4854
  69  256.341
  70  382.3394
  71  449.1092
  72  492.6873
  73  537.3832
  74  509.4037
  75  579.9912
  76  461.425
  77  473.8743
  78  476.2325
  79  435.5569
  80  460.6142
  81  385.5616
  82  464.112
  83  359.7668
  84  437.4944
  85  486.0012
  86  452.8102
  87  401.4901
  88  419.2705
  89  422.2693
  90  498.7927
  91  417.9781
  92  490.3655
  93  481.9432
  94  443.1502
  95  482.2141
  96  355.4805
  97  311.4672
  98  456.5467
  99  556.3239
 100  510.7773
 101  538.3284
 102  473.9944
 103  468.7665
 104  398.7454
 105  372.4247
 106  418.9924
 107  397.1695
 108  462.4458
 109  465.9254
 110  436.0305
 111  529.4807
 112  474.4621
 113  548.9694
 114  619.7292
 115  462.3654
 116  398.8678
 117  505.0641
 118  447.3995
 119  424.2863
 120  502.4217
 121  482.3933
 122  321.2157
 123  373.026
 124  475.6341
 125  519.4282
 126  403.016
 127  459.6957
 128  458.6706
 129  443.8716
 130  427.7969
 131  371.6454
 132  428.9634
 133  604.0636
 134  621.1921
 135  565.4668
 136  473.8669
 137  464.9491
 138  522.4365
 139  483.1308
 140  529.8479
 141  387.2088
 142  431.8071
 143  475.4144
 144  469.9958
 145  507.6858
 146  433.2156
 147  547.9492
 148  580.5067
 149  497.1211
 150  442.1361
 151  444.4987
 152  523.388
 153  536.4413
 154  408.3842
 155  504.7869
 156  575.9113
 157  451.3407
 158  551.662
 159  601.3314
 160  632.5943
 161  615.7042
 162  491.2641
 163  555.8327
 164  697.3221
 165  693.8386
 166  525.455
 167  536.7217
 168  519.5242
 169  557.8115
 170  454.1182
 171  483.5175
 172  443.3738
 173  453.656
 174  635.23
 175  612.3762
 176  592.4812
 177  462.07
 178  411.823
 179  324.719
 180  431.4371
 181  483.8726
 182  507.0678
 183  470.8972
 184  386.8622
 185  449.1729
 186  580.3503
 187  497.6843
 188  532.4344
 189  477.8353
 190  374.7986
 191  505.9384
 192  499.4289
 193  473.1894
 194  411.083
 195  469.0855
 196  365.0326
 197  415.833
 198  561.1313
 199  492.9872
 200  494.0694
 201  532.0859
 202  618.5685
 203  538.1597
 204  435.2361
 205  456.7033
 206  484.3682
 207  539.5497
 208  546.5064
 209  545.4611
 210  570.9908
 211  538.0054
 212  523.5402
 213  663.7172
 214  564.1086
 215  629.329
 216  628.6786
 217  527.7907
 218  494.9709
 219  530.9442
 220  562.386
 221  507.1012
 222  602.886
 223  626.5312
 224  565.3981
 225  533.9103
 226  488.2258
 227  575.8137
 228  533.6945
 229  641.31
 230  626.8629
 231  530.7102
 232  490.8262
 233  445.4235
 234  547.5266
 235  609.4063
 236  517.4464
 237  470.519
 238  551.7734
 239  542.7878
 240  663.5211
 241  686.1549
 242  555.5751
 243  524.5836
 244  476.552
 245  488.1363
 246  494.0629
 247  452.6597
 248  553.8105
 249  535.6118
 250  487.2498
 251  548.9391
 252  639.8809
 253  545.4263
 254  523.561
 255  523.45
 256  552.708
 257  536.8541
 258  452.3759
 259  538.292
 260  406.0711
 261  411.8777
 262  563.3172
 263  600.0917
 264  503.6289
 265  453.9661
 266  565.5737
 267  561.0514
 268  452.3167
 269  375.9523
 270  414.236
 271  459.6912
 272  515.7087
 273  509.2306
 274  520.5375
 275  520.2616
 276  419.9051
 277  505.4897
 278  500.7012
 279  599.9952
 280  568.3627
 281  427.184
 282  420.753
 283  342.0833
 284  345.3721
 285  480.1832
 286  522.8499
 287  545.6898
 288  592.9946
 289  607.6509
 290  556.924
 291  472.909
 292  460.9988
 293  507.7224
 294  478.4288
 295  520.6357
 296  512.0139
 297  519.246
 298  433.3586
 299  393.8906
 300  458.0832
 301  521.1273
 302  601.3255
 303  529.5811
 304  508.2083
 305  539.8422
 306  540.0464
 307  604.6844
 308  528.3585
 309  537.0317
 310  470.9654
 311  405.7065
 312  437.7214
 313  476.5998
 314  444.1079
 315  365.5338
 316  357.7618
 317  455.136
 318  442.5898
 319  363.2267
 320  453.2249
 321  465.4853
 322  478.8733
 323  415.6743
 324  470.9223
 325  466.7408
 326  527.9695
 327  643.5172
 328  510.2567
 329  477.2181
 330  491.1655
 331  541.9326
 332  533.0751
 333  541.4446
 334  463.772
 335  344.8762
 336  480.2219
 337  538.8223
 338  516.5644
 339  452.4517
 340  478.5382
 341  376.1535
 342  509.4658
 343  617.1685
 344  546.708
 345  431.1759
 346  490.5788
 347  472.0042
 348  318.9106
 349  414.1479
 350  509.8471
 351  453.8972
 352  427.9467
 353  574.7368
 354  485.4461
 355  389.5743
 356  416.3257
 357  393.8651
 358  392.0312
 359  541.1331
 360  568.9639
 361  564.2441
 362  456.3279
 363  457.6166
 364  513.4333
 365  468.3984
 366  388.8704
 367  524.0558
 368  513.2644
 369  448.2927
 370  423.4147
 371  463.0816
 372  514.644
 373  485.1685
 374  481.8385
 375  453.6493
 376  465.6211
 377  483.809
 378  393.4521
 379  317.2997
 380  361.8861
 381  454.3597
 382  531.4743
 383  423.9792
 384  450.849
 385  540.3538
 386  521.9025
 387  450.0169
 388  567.5839
 389  564.0058
 390  526.4174
 391  418.1423
 392  440.9506
 393  456.441
 394  406.5603
 395  499.6335
 396  592.1838
 397  573.3267
 398  472.953
 399  307.1369
 400  383.8459
 401  359.6989
 402  514.3411
 403  656.2888
 404  527.0247
 405  377.288
 406  362.3425
 407  476.0869
 408  497.5652
 409  385.4974
 410  432.7344
 411  469.6522
 412  367.429
 413  324.5626
 414  491.1462
 415  542.6227
 416  517.6867
 417  478.5458
 418  441.6373
 419  394.8083
 420  407.1427
 421  326.3492
 422  411.3029
 423  297.8313
 424  415.0155
 425  465.2827
 426  360.4018
 427  367.8263
 428  407.1717
 429  432.4275
 430  394.6781
 431  446.3595
 432  498.3603
 433  488.4514
 434  448.6059
 435  494.4437
 436  403.8456
 437  468.3564
 438  451.7039
 439  400.6622
 440  388.4312
 441  366.5596
 442  396.6528
 443  474.0363
 444  401.3661
 445  390.5182
 446  521.1757
 447  527.4902
 448  441.9991
 449  453.7515
 450  451.0216
 451  448.9435
 452  392.3931
 453  465.7994
 454  416.8602
 455  515.3569
 456  514.6933
 457  408.0126
 458  388.8457
 459  460.6356
 460  559.0223
 461  425.6017
 462  396.8323
 463  365.1063
 464  462.588
 465  437.6426
 466  423.7864
 467  452.5476
 468  424.5372
 469  487.6242
 470  585.0088
 471  504.1794
 472  488.1625
 473  484.4063
 474  494.7054
 475  458.0644
 476  533.053
 477  534.886
 478  453.3592
 479  464.6146
 480  443.0713
 481  363.6098
 482  413.6026
 483  400.6057
 484  418.9631
 485  333.4453
 486  337.0329
 487  372.977
 488  489.3795
 489  414.8192
 490  384.3269
 491  452.0479
 492  412.6664
 493  436.3203
 494  500.312
 495  516.7686
 496  552.8665
 497  524.722
 498  599.7392
 499  456.2661
 500  332.9782
 501  395.782
 502  379.813
 503  494.5959
 504  411.508
 505  611.6956
 506  642.5746
 507  575.9854
 508  662.5032
 509  729.0212
 510  763.6616
 511  819.5804
