# Input file       =  1197813510.105772_cleaned.dat
# Candidate        =  PSR_0332+5434
# Telescope        =  AR
# Epoch_topo       =  58107.582512798290
# Epoch_bary       =  N/A
# T_sample         =  0.002
# Data Folded      =  7143424
# Data Avg         =  0.186773699245826
# Data StdDev      =  4.62012632335509 
# Profile Bins     =  256
# Profile Avg      =  5211.81605837338 
# Profile StdDev   =  771.76855881141  
# Reduced chi-sqr  =  0.869
# Prob(Noise)      <  0.935   (~0.0 sigma)
# P_topo (ms)      =  714.545394646552  +/- 0.000129
# P'_topo (s/s)    =  -0                +/- 6.98e-11
# P''_topo (s/s^2) =  0                 +/- 3.17e-14
# P_bary (ms)      =  N/A
# P'_bary (s/s)    =  N/A
# P''_bary (s/s^2) =  N/A
# P_orb (s)        =  N/A
# asin(i)/c (s)    =  N/A
# eccentricity     =  N/A
# w (rad)          =  N/A
# T_peri           =  N/A
######################################################
   0  5763.022
   1  4804.878
   2  5155.529
   3  4780.321
   4  4742.224
   5  4124.16
   6  4682.241
   7  4338.764
   8  4808.593
   9  5370.053
  10  4705.833
  11  4523.447
  12  4624.123
  13  5031.895
  14  4801.848
  15  5360.258
  16  5330.659
  17  5954.047
  18  4528.832
  19  4251.162
  20  4638.035
  21  5182.305
  22  5597.537
  23  5059.485
  24  5627.238
  25  5657.366
  26  5016.41
  27  4765.985
  28  4640.498
  29  5009.502
  30  4339.613
  31  4775.549
  32  5656.4
  33  5956.822
  34  4488.958
  35  5029.398
  36  4746.309
  37  4485.013
  38  5800.351
  39  5371.229
  40  5910.32
  41  5413.955
  42  4807.413
  43  5161.384
  44  5135.889
  45  5421.832
  46  4802.255
  47  4532.739
  48  5697.51
  49  6246.645
  50  5331.709
  51  5081.69
  52  4831.744
  53  5094.413
  54  5038.249
  55  4467.034
  56  5302.624
  57  5656.709
  58  5296.594
  59  4596.916
  60  4832.716
  61  5103.585
  62  4859.615
  63  5190.037
  64  5891.837
  65  5984.272
  66  5796.736
  67  5592.749
  68  5701.173
  69  6023.689
  70  5984.504
  71  6509.431
  72  5318.218
  73  6738.087
  74  7240.706
  75  5698.587
  76  5104.443
  77  5515.171
  78  5412.197
  79  5261.037
  80  5335.606
  81  6257.046
  82  5756.811
  83  5387.801
  84  4315.096
  85  4925.688
  86  6065.856
  87  5745.542
  88  5574.971
  89  6384.702
  90  6037.084
  91  5402.666
  92  5627.729
  93  5340.479
  94  5060.717
  95  6104.269
  96  4929.313
  97  5835.759
  98  6125.826
  99  5564.873
 100  5253.975
 101  6448.707
 102  6420.017
 103  6558.178
 104  4957.796
 105  4969.192
 106  6192.116
 107  5942.552
 108  5779.584
 109  6094.495
 110  5350.542
 111  5361.334
 112  4945.515
 113  5317.444
 114  5714.463
 115  5158.796
 116  5593.953
 117  5290.783
 118  4812.034
 119  5467.112
 120  5108.867
 121  5665.593
 122  5937.25
 123  5410.776
 124  5755.078
 125  5061.813
 126  4949.427
 127  4761.395
 128  5043.087
 129  4841.234
 130  5192.085
 131  5422.648
 132  5420.076
 133  4855.173
 134  4199.302
 135  4288.805
 136  5118.961
 137  4289.26
 138  4535.79
 139  4670.83
 140  5869.554
 141  4824.755
 142  4760.584
 143  4801.15
 144  5145.747
 145  4721.665
 146  4909.469
 147  5246.976
 148  6264.4
 149  6465.798
 150  5546.322
 151  5049.677
 152  5656.009
 153  5646.674
 154  6292.396
 155  6766.725
 156  7617.418
 157  6221.394
 158  5337.061
 159  4577.071
 160  4855.533
 161  5014.744
 162  4800.4
 163  4167.042
 164  4772.985
 165  5255.453
 166  4715.523
 167  4876.788
 168  4239.042
 169  5229.961
 170  4823.259
 171  4759.886
 172  5662.122
 173  4977.819
 174  5835.611
 175  4795.302
 176  5508.909
 177  5314.573
 178  4937.466
 179  4967.997
 180  4942.459
 181  5671.641
 182  4729.716
 183  4461.16
 184  4824.654
 185  4954.724
 186  4946.884
 187  4364.78
 188  4718.838
 189  5123.302
 190  6024.941
 191  4780.59
 192  4501.853
 193  4555.2
 194  5066.059
 195  4733.509
 196  4313.893
 197  5102.928
 198  5517.325
 199  4690.302
 200  4099.437
 201  5274.215
 202  5278.156
 203  5488.658
 204  5630.475
 205  5111.403
 206  5914.057
 207  5997.749
 208  5380.826
 209  4905.114
 210  4985.747
 211  4986.508
 212  5141.183
 213  5803.851
 214  6602.569
 215  5734.229
 216  4317.793
 217  5311.433
 218  4381.076
 219  4040.169
 220  4423.747
 221  4259.582
 222  3896.192
 223  4800.509
 224  4733.408
 225  3682.342
 226  4602.361
 227  3537.001
 228  3998.76
 229  5623.94
 230  5484.188
 231  5259.503
 232  4668.639
 233  5190.823
 234  4639.754
 235  5321.897
 236  4818.106
 237  4410.791
 238  4373.196
 239  5303.351
 240  5984.85
 241  5813.222
 242  4870.804
 243  4897.607
 244  5485.312
 245  5482.389
 246  5128.789
 247  6038.237
 248  5417.372
 249  5205.004
 250  5367.815
 251  6208
 252  4956.056
 253  4582.755
 254  5058.879
 255  6012.891
