# Input file       =  1197570344.120679_cleaned.dat
# Candidate        =  PSR_0332+5434
# Telescope        =  AR
# Epoch_topo       =  58104.768091674523
# Epoch_bary       =  N/A
# T_sample         =  0.002
# Data Folded      =  7340032
# Data Avg         =  0.163015067801878
# Data StdDev      =  4.28140493535002 
# Profile Bins     =  512
# Profile Avg      =  2336.95006704304 
# Profile StdDev   =  512.625612867929 
# Reduced chi-sqr  =  0.536
# Prob(Noise)      <  1   (~0.0 sigma)
# P_topo (ms)      =  714.54268384622   +/- 0.000392
# P'_topo (s/s)    =  -0                +/- 2.07e-10
# P''_topo (s/s^2) =  0                 +/- 9.13e-14
# P_bary (ms)      =  N/A
# P'_bary (s/s)    =  N/A
# P''_bary (s/s^2) =  N/A
# P_orb (s)        =  N/A
# asin(i)/c (s)    =  N/A
# eccentricity     =  N/A
# w (rad)          =  N/A
# T_peri           =  N/A
######################################################
   0  2502.948
   1  2537.982
   2  2580.311
   3  2528.724
   4  2471.318
   5  2545.643
   6  2042.459
   7  2007.106
   8  2099.11
   9  2153.028
  10  2345.835
  11  1882.71
  12  1869.964
  13  2227.651
  14  2176.469
  15  2042.452
  16  2146.946
  17  2087.441
  18  2045.019
  19  1969.186
  20  2126.328
  21  2002.554
  22  2042.984
  23  2107.023
  24  2212.318
  25  2210.668
  26  2026.379
  27  1751.903
  28  2149.691
  29  2672.534
  30  2512.089
  31  2696.391
  32  2752.025
  33  2620.323
  34  2430.14
  35  2402.579
  36  2299.489
  37  2377.16
  38  2191.541
  39  2054.447
  40  2206.684
  41  2048.611
  42  2445.666
  43  2349.334
  44  2327.038
  45  2615.03
  46  2829.768
  47  2625.763
  48  2347.397
  49  2317.528
  50  2259.493
  51  2343.232
  52  2837.711
  53  2922.604
  54  2595.091
  55  2468.128
  56  2453.213
  57  2430.336
  58  2397.169
  59  2654.258
  60  2601.046
  61  2156.732
  62  2202.432
  63  2149.993
  64  2099.329
  65  1857.055
  66  1769.677
  67  1799.396
  68  2124.323
  69  1968.324
  70  1905.234
  71  1765.433
  72  2139.953
  73  2202.081
  74  2261.334
  75  2034.833
  76  1983.82
  77  2368.565
  78  2331.932
  79  2316.662
  80  2119.843
  81  2127.55
  82  2336.219
  83  2262.215
  84  1912.713
  85  1782.172
  86  2158.926
  87  2393.327
  88  2246.535
  89  2170.179
  90  1895.126
  91  2033.882
  92  1875.49
  93  1772.487
  94  1905.47
  95  1869.124
  96  2068.812
  97  2179.008
  98  2203.921
  99  2329.259
 100  2320.355
 101  2258.483
 102  2315.001
 103  2409.115
 104  2349.463
 105  2778.127
 106  2787.99
 107  2753.044
 108  2634.05
 109  2360.211
 110  2637.415
 111  2559.272
 112  2241.614
 113  2243.494
 114  2359.064
 115  2209.896
 116  2235.593
 117  2231.248
 118  2301.707
 119  2255.875
 120  2127.393
 121  2152.528
 122  2115.303
 123  2508.331
 124  2248.906
 125  2504.969
 126  2471.233
 127  2476.495
 128  2285.8
 129  2310.911
 130  2507.853
 131  2057.713
 132  1955.986
 133  2238.158
 134  2395.959
 135  2417.882
 136  1972.172
 137  2354.451
 138  2621.384
 139  2571.612
 140  2242.983
 141  2011.865
 142  2001.695
 143  1796.899
 144  1993.46
 145  2242.391
 146  2337.808
 147  2348.746
 148  2069.825
 149  2429.676
 150  2346.817
 151  2236.594
 152  2513.327
 153  2638.467
 154  2772.586
 155  2549.24
 156  2381.682
 157  2529.132
 158  2280.26
 159  2262.36
 160  2427.101
 161  2419.708
 162  2274.109
 163  2153.723
 164  1963.935
 165  1844.526
 166  2276.918
 167  2253.256
 168  2086.942
 169  2531.596
 170  2423.526
 171  2073.946
 172  2493.643
 173  3107.306
 174  3536.36
 175  3525.514
 176  3806.064
 177  3541.019
 178  3111.597
 179  2997.804
 180  3008.058
 181  2823.11
 182  2697.471
 183  2428.344
 184  2032.716
 185  2142.953
 186  2114.938
 187  2228.904
 188  2609.392
 189  2778.107
 190  2354.727
 191  2603.517
 192  2521.077
 193  2377.963
 194  2453.865
 195  2594.152
 196  2609.652
 197  2360.584
 198  2586.028
 199  2859.632
 200  2775.882
 201  2484.283
 202  2470.609
 203  2661.519
 204  2399.694
 205  2375.292
 206  2549.289
 207  2692.286
 208  2378.166
 209  2488.489
 210  2552.272
 211  2492.951
 212  2155.152
 213  2354.61
 214  2180.374
 215  2106.278
 216  2047.546
 217  1967.073
 218  2111.855
 219  2370.825
 220  2556.208
 221  2462.762
 222  2285.753
 223  2229.36
 224  2343.189
 225  2529.816
 226  2232.202
 227  2176.24
 228  2551.832
 229  2615.289
 230  2690.52
 231  2575.278
 232  2473.047
 233  2150.412
 234  2451.219
 235  2357.538
 236  2125.874
 237  2223.083
 238  2219.695
 239  2497.219
 240  2319.835
 241  2151.035
 242  2043.875
 243  2260.592
 244  2354.182
 245  2102.378
 246  2065.774
 247  1987.55
 248  2184.385
 249  2238.945
 250  2463.019
 251  2401.98
 252  2107.938
 253  1953.237
 254  2221.738
 255  2485.045
 256  2355.722
 257  2210.278
 258  2249
 259  2458.162
 260  2879.555
 261  2797.926
 262  2744.453
 263  2472.821
 264  2221.548
 265  2164.058
 266  1952.044
 267  2205.656
 268  2731.612
 269  2618.441
 270  2315.143
 271  2557.856
 272  2305.291
 273  2559.236
 274  2492.12
 275  2399.958
 276  2479.739
 277  2458.334
 278  2376.909
 279  2156.799
 280  2267.966
 281  2520.02
 282  2548.743
 283  2574.364
 284  2817.253
 285  1980.86
 286  2336.215
 287  2413.873
 288  2194.598
 289  2250.462
 290  2048.196
 291  2043.551
 292  1960.737
 293  2128.916
 294  2453.652
 295  2525.427
 296  2424.938
 297  2653.506
 298  2397.688
 299  2026.498
 300  1982.207
 301  2199.293
 302  2298.053
 303  2378.549
 304  2367.767
 305  2110.077
 306  2238.607
 307  2084.218
 308  2474.263
 309  2508.201
 310  2316.514
 311  2466.553
 312  2337.724
 313  2476.645
 314  2704.692
 315  2878.928
 316  2465.087
 317  2157.217
 318  2250.698
 319  2157.331
 320  2417.474
 321  2605.714
 322  2252.461
 323  2330.013
 324  2229.398
 325  2312.991
 326  2212.795
 327  2555.823
 328  2491.292
 329  2414.379
 330  2126.56
 331  2317.763
 332  2489.925
 333  2533.005
 334  2514.356
 335  2351.643
 336  2397.641
 337  2225.764
 338  2178.981
 339  2756.603
 340  2679.852
 341  2556.513
 342  2099.055
 343  2525.873
 344  2499.423
 345  2317.706
 346  2376.006
 347  2542.126
 348  2249.467
 349  2198.208
 350  2094.655
 351  1896.082
 352  1778.631
 353  1959.471
 354  2246.047
 355  2143.469
 356  2134.567
 357  2080.832
 358  2347.332
 359  2497.207
 360  2709.512
 361  2387.224
 362  2486.094
 363  2387.911
 364  2189.379
 365  2344.298
 366  2363.71
 367  2161.554
 368  2483.235
 369  2355.02
 370  2423.524
 371  2288.636
 372  2288.63
 373  2504.907
 374  3001.016
 375  2996.112
 376  2391.517
 377  2182.563
 378  2108.85
 379  2182.231
 380  1789.077
 381  2423.536
 382  2567.939
 383  2292.902
 384  2380.241
 385  2373.952
 386  2118.617
 387  2099.318
 388  2429.869
 389  2403.355
 390  2328.324
 391  2126.686
 392  2386.994
 393  2329.162
 394  2297.711
 395  2595.431
 396  2737.005
 397  2557.957
 398  2342.824
 399  2176.343
 400  2414.775
 401  2462.726
 402  2488.666
 403  2501.346
 404  2456.718
 405  2286.179
 406  2561.287
 407  2785.202
 408  2815.672
 409  2325.288
 410  2196.067
 411  2493.768
 412  2254.214
 413  1928.292
 414  2196.876
 415  2323.094
 416  2448.737
 417  2419.548
 418  2280.957
 419  2520.166
 420  2643.447
 421  2580.811
 422  2494.047
 423  2352.349
 424  2689.918
 425  2564.132
 426  2393.23
 427  2337.129
 428  2729.38
 429  2861.042
 430  2806.754
 431  2530.109
 432  2268.326
 433  2103.592
 434  1934.619
 435  1723.039
 436  1937.33
 437  2187.367
 438  2351.735
 439  1885.85
 440  1912.895
 441  2008.35
 442  2085.547
 443  1650.361
 444  1799.682
 445  2055.6
 446  2381.097
 447  2563.407
 448  2384.236
 449  2525.259
 450  2407.456
 451  2250.86
 452  2144.434
 453  1924.029
 454  1907.683
 455  1828.233
 456  1979.796
 457  2209.808
 458  2115.535
 459  1930.067
 460  2558.207
 461  2636.801
 462  2206.818
 463  2096.237
 464  2622.695
 465  2551.801
 466  2375.644
 467  2256.17
 468  2334.719
 469  2797.732
 470  2674.282
 471  2243.852
 472  2283.458
 473  2373.089
 474  2338.133
 475  2329.568
 476  2257.186
 477  2309.803
 478  2469.613
 479  2396.844
 480  2891.545
 481  2299.103
 482  2560.251
 483  2358.596
 484  2357.623
 485  2270.359
 486  2164.12
 487  2306.199
 488  2161.79
 489  2115.515
 490  2186.957
 491  2122.576
 492  2450.216
 493  2357.749
 494  2210.236
 495  2350.036
 496  2185.932
 497  2310.463
 498  2055.189
 499  2412.809
 500  2290.737
 501  2185.093
 502  2663.308
 503  2626.787
 504  2617.766
 505  2381.704
 506  2209.444
 507  1983.05
 508  2126.286
 509  2255.373
 510  2236.825
 511  2277.535
