# Input file       =  1197469409.100829_cleaned.dat
# Candidate        =  PSR_0332+5434
# Telescope        =  AR
# Epoch_topo       =  58103.599862278112
# Epoch_bary       =  N/A
# T_sample         =  0.002
# Data Folded      =  7340032
# Data Avg         =  1.22583669433308 
# Data StdDev      =  11.1925205892649 
# Profile Bins     =  512
# Profile Avg      =  17573.6058952736 
# Profile StdDev   =  1340.11447486215 
# Reduced chi-sqr  =  0.751
# Prob(Noise)      <  1   (~0.0 sigma)
# P_topo (ms)      =  714.541506076875  +/- 7.43e-05
# P'_topo (s/s)    =  -0                +/- 3.92e-11
# P''_topo (s/s^2) =  0                 +/- 1.73e-14
# P_bary (ms)      =  N/A
# P'_bary (s/s)    =  N/A
# P''_bary (s/s^2) =  N/A
# P_orb (s)        =  N/A
# asin(i)/c (s)    =  N/A
# eccentricity     =  N/A
# w (rad)          =  N/A
# T_peri           =  N/A
######################################################
   0  16824.52
   1  17368.56
   2  16444.4
   3  17413
   4  17796.79
   5  17233.25
   6  17527.23
   7  18883.86
   8  18949
   9  17615.7
  10  17176.75
  11  17268.6
  12  17809.93
  13  18442.26
  14  19134.27
  15  18387.17
  16  17554.34
  17  17751.76
  18  17048.88
  19  17463.06
  20  17951.04
  21  18244.07
  22  18424.2
  23  17590.39
  24  17312.93
  25  18273.91
  26  17967.97
  27  17086.33
  28  18829.39
  29  18768.15
  30  18570.42
  31  18709.62
  32  18102.55
  33  18374.01
  34  17503.79
  35  19040.32
  36  19374.96
  37  19043.21
  38  17224.07
  39  17379.49
  40  16918.77
  41  16889.32
  42  16481.76
  43  16167.97
  44  17205.22
  45  17467.72
  46  18198.82
  47  18555.64
  48  17863.15
  49  17949.84
  50  18399.3
  51  17864.23
  52  17523.62
  53  18267.52
  54  18109.77
  55  16999.08
  56  17076
  57  17240.13
  58  17532.32
  59  18363.9
  60  19099.48
  61  18953.89
  62  19134.63
  63  18860.85
  64  19111.71
  65  18540.42
  66  18303.19
  67  17121.12
  68  17848.03
  69  17882.36
  70  16904.41
  71  17083.14
  72  17054.54
  73  17468.4
  74  17288.43
  75  16984.63
  76  17235.02
  77  17676.1
  78  18497.05
  79  18249.18
  80  18648.29
  81  17494.05
  82  17735.65
  83  17091.44
  84  15678.94
  85  16209.39
  86  16902.71
  87  18499.84
  88  17737.86
  89  18259.26
  90  17792.56
  91  17440.29
  92  17018.57
  93  18154.08
  94  18383.93
  95  17550.31
  96  18472.66
  97  18272.94
  98  18625.48
  99  17795.62
 100  18101.71
 101  18134.66
 102  18929.06
 103  18120.42
 104  17750.29
 105  17825.89
 106  17740.44
 107  18524.76
 108  17558.74
 109  17574.42
 110  17316.42
 111  17810.48
 112  17826.11
 113  17923.96
 114  18851.25
 115  17396.29
 116  16569.86
 117  16306.12
 118  16562.63
 119  17859.11
 120  17956.85
 121  18564.7
 122  18496.04
 123  18146.38
 124  16226.15
 125  15710.6
 126  16063.29
 127  17295.29
 128  18333.26
 129  18531
 130  18367
 131  17609.1
 132  17847.6
 133  18163.28
 134  18823.18
 135  19386.42
 136  19190.22
 137  18513.81
 138  16465.79
 139  17421.43
 140  17985.81
 141  17996.75
 142  17709.35
 143  17364.07
 144  18045.63
 145  17972.22
 146  18959.94
 147  18836.81
 148  18881.61
 149  17585.59
 150  18203.03
 151  17525.98
 152  17284.91
 153  17856.12
 154  18222.03
 155  17919.11
 156  16973.82
 157  16471.21
 158  17129.64
 159  17574.51
 160  17240.87
 161  17714.32
 162  18598.28
 163  17513.3
 164  18722.46
 165  17904.21
 166  16649.65
 167  16532.23
 168  17567.02
 169  17947.12
 170  18311.36
 171  18103.76
 172  18078.22
 173  17917.29
 174  17439.61
 175  17349.88
 176  17468.06
 177  17583.81
 178  17592.82
 179  17912.56
 180  17570.55
 181  17096.58
 182  17879.46
 183  17836.24
 184  17686.29
 185  17684.61
 186  18124.21
 187  17982.8
 188  17984.43
 189  17322.26
 190  17351.96
 191  17658.05
 192  17106.12
 193  16972.28
 194  17809
 195  17595.14
 196  18482.94
 197  18958.8
 198  18799.24
 199  17188.27
 200  17563.04
 201  18266.65
 202  18219.57
 203  18833.81
 204  19102.07
 205  19077.26
 206  18204.93
 207  19170.11
 208  19058.02
 209  18430.06
 210  18290.46
 211  19283.75
 212  19861.24
 213  19112.65
 214  18254
 215  18557.83
 216  18051.67
 217  18112.58
 218  18284.34
 219  18277.03
 220  18103.39
 221  17191.72
 222  17093.73
 223  15980.59
 224  16197.76
 225  17298.1
 226  18688.53
 227  17792.94
 228  17389.79
 229  17900.7
 230  17466.27
 231  17091.71
 232  17450.16
 233  18268.8
 234  16918.94
 235  16097.16
 236  15606.94
 237  15958.54
 238  15759.47
 239  16152.04
 240  16224.81
 241  16646.61
 242  15967.63
 243  16462.15
 244  17063.12
 245  17926.4
 246  18091.15
 247  18098.87
 248  17253.59
 249  15283.34
 250  16545.33
 251  16921.36
 252  16900.75
 253  16925.2
 254  17374.54
 255  17272.45
 256  15690.52
 257  16251.47
 258  17212.39
 259  17560
 260  17050.64
 261  17745.57
 262  17879.46
 263  17689.19
 264  18492.7
 265  18136.51
 266  17025.78
 267  16889.25
 268  17342.37
 269  17484.9
 270  16763.97
 271  17458.48
 272  16995.17
 273  16461.47
 274  16420.95
 275  17113.35
 276  16701.63
 277  17142.95
 278  17289.36
 279  17179.75
 280  16112.27
 281  15554.08
 282  15907.81
 283  16708.16
 284  17427.23
 285  16432.39
 286  17518.9
 287  17072.06
 288  16493.77
 289  16903.68
 290  17069.24
 291  16399.11
 292  15968.28
 293  18477.26
 294  18721.56
 295  18357.94
 296  17969.65
 297  17665.5
 298  18324.47
 299  17591.66
 300  18313.95
 301  17902.22
 302  17644.8
 303  17160.52
 304  17904.61
 305  17079.26
 306  16763.08
 307  17298.46
 308  17759.6
 309  18157.79
 310  18198.51
 311  18167.57
 312  17671.7
 313  17123.25
 314  16987.66
 315  18092.08
 316  18443.77
 317  18279.65
 318  18814.91
 319  18598.15
 320  17128.93
 321  16379.92
 322  16155.53
 323  16852.99
 324  16845.44
 325  17819.34
 326  19095.75
 327  19474.34
 328  18537.11
 329  18323.15
 330  18307.72
 331  17765.15
 332  18140.91
 333  18080.64
 334  19202.04
 335  18396.29
 336  19182.75
 337  18955.08
 338  18118.96
 339  17821.44
 340  18238.5
 341  19010.28
 342  19203.31
 343  18479.44
 344  18189.86
 345  19079.28
 346  18567.66
 347  18153.62
 348  17207.72
 349  17381.43
 350  17335.73
 351  17159.63
 352  17718.35
 353  17242.7
 354  17399.62
 355  17652.97
 356  17861.95
 357  16862.16
 358  17716.09
 359  17811.45
 360  17485.72
 361  17709.32
 362  17223.93
 363  16945.02
 364  16202.74
 365  15965.65
 366  16362.73
 367  16586.99
 368  17287.47
 369  17759.26
 370  18620.69
 371  18362.85
 372  17718.54
 373  17600.7
 374  17686.5
 375  18753.06
 376  19366.77
 377  18979.87
 378  17485.84
 379  17590.37
 380  17619.92
 381  17113.46
 382  17132.59
 383  17114.55
 384  17571.77
 385  16900.03
 386  16597.64
 387  16148.47
 388  16133.15
 389  16600.82
 390  16750.44
 391  17519.41
 392  17410.79
 393  18060.9
 394  18601.94
 395  18279.41
 396  17325.24
 397  16873.95
 398  17558.79
 399  17434.72
 400  17905.79
 401  17752.26
 402  18009.37
 403  17533.61
 404  17582.58
 405  17417.65
 406  18109.13
 407  17969.85
 408  18765.86
 409  18762.36
 410  17848.43
 411  16220
 412  16402.49
 413  16104.01
 414  15905.08
 415  16151.21
 416  17120.11
 417  16626.53
 418  16143.19
 419  16194.05
 420  16291.38
 421  15980.92
 422  15880.95
 423  16425.43
 424  16917.83
 425  17343.23
 426  17305.36
 427  16417.23
 428  16217.12
 429  17058.13
 430  16256.53
 431  15590.06
 432  16034.67
 433  16340.63
 434  17591.46
 435  16667.96
 436  16740.68
 437  18217.18
 438  17250.59
 439  16033.11
 440  16525.61
 441  16694.58
 442  16824.81
 443  17729.2
 444  18376.04
 445  17988.45
 446  17398.62
 447  17475.41
 448  17163.6
 449  15894.28
 450  16877.65
 451  17476.02
 452  17842.11
 453  17278.95
 454  16253.56
 455  15810.08
 456  15696.8
 457  16248.14
 458  17627.22
 459  17724.59
 460  17277.85
 461  17946.68
 462  17442.02
 463  16303.87
 464  15758.7
 465  17680.02
 466  17997.89
 467  17399.05
 468  17636.93
 469  17039.62
 470  16730.2
 471  17340.25
 472  18191.34
 473  18345.5
 474  18390.89
 475  17877.71
 476  18194.9
 477  18149.9
 478  17874.23
 479  17602.19
 480  16674.24
 481  16782.49
 482  16750.9
 483  17157.02
 484  18645.33
 485  18008.09
 486  18033.89
 487  17615.38
 488  17378.27
 489  17639.4
 490  17999.56
 491  18306.92
 492  18500.89
 493  18165.52
 494  17716.63
 495  18255.98
 496  16619.54
 497  16601.53
 498  16959.25
 499  17616.61
 500  17760.74
 501  17155.51
 502  17147.95
 503  16279.93
 504  17270.89
 505  16773.04
 506  18626.81
 507  18227.17
 508  17849.37
 509  17586
 510  16886.76
 511  16311.01
