# Input file       =  1197499180.084148_cleaned.dat
# Candidate        =  PSR_0332+5434
# Telescope        =  AR
# Epoch_topo       =  58103.944433844306
# Epoch_bary       =  N/A
# T_sample         =  0.002
# Data Folded      =  7340032
# Data Avg         =  0.213645165219662
# Data StdDev      =  4.67481686169751 
# Profile Bins     =  256
# Profile Avg      =  6125.67348311165 
# Profile StdDev   =  791.577781812675 
# Reduced chi-sqr  =  0.860
# Prob(Noise)      <  0.949   (~0.0 sigma)
# P_topo (ms)      =  714.54221778787   +/- 0.00077
# P'_topo (s/s)    =  -0                +/- 4.06e-10
# P''_topo (s/s^2) =  0                 +/- 1.79e-13
# P_bary (ms)      =  N/A
# P'_bary (s/s)    =  N/A
# P''_bary (s/s^2) =  N/A
# P_orb (s)        =  N/A
# asin(i)/c (s)    =  N/A
# eccentricity     =  N/A
# w (rad)          =  N/A
# T_peri           =  N/A
######################################################
   0  5020.267
   1  5600.294
   2  5761.913
   3  5954.386
   4  5649.583
   5  6001.343
   6  5377.917
   7  5786.642
   8  6235.656
   9  5700.137
  10  6186.909
  11  5883.77
  12  5664.535
  13  5928.776
  14  6904.311
  15  5897.366
  16  5868.186
  17  7030.245
  18  5798.568
  19  6365.315
  20  5359.492
  21  5615.95
  22  5646.542
  23  6615.325
  24  5807.924
  25  6292.981
  26  6248.217
  27  6029.181
  28  6542.016
  29  5424.249
  30  5559.767
  31  5549.492
  32  5177.863
  33  5658.706
  34  6067.081
  35  5602.399
  36  5157.002
  37  5262.557
  38  6118.734
  39  5296.4
  40  5629.548
  41  6278.13
  42  6177.204
  43  6226.859
  44  5996.028
  45  6136.4
  46  6188.785
  47  5692.183
  48  6097.717
  49  6534.016
  50  6169.62
  51  6986.596
  52  6625.293
  53  6430.91
  54  6023.279
  55  6539.699
  56  6523.326
  57  6479.108
  58  6497.636
  59  6493.343
  60  5995.336
  61  6321.428
  62  5503.068
  63  4933.299
  64  5889.777
  65  5927.578
  66  5926.378
  67  5975.235
  68  5990.902
  69  6213.357
  70  5422
  71  5793.738
  72  5691.312
  73  5572.612
  74  5358.81
  75  5111.301
  76  5719.546
  77  6393.889
  78  6241.379
  79  5391.43
  80  5027.257
  81  5506.172
  82  6603.302
  83  5679.714
  84  5883.504
  85  6271.535
  86  5371.743
  87  5434.128
  88  5528.121
  89  5952.5
  90  6095.224
  91  5706.394
  92  5768.986
  93  5897.022
  94  6140.793
  95  5999.348
  96  6159.658
  97  6382.653
  98  6416.806
  99  5438.089
 100  4609.975
 101  5668.485
 102  5596.628
 103  5076.747
 104  4687.642
 105  5918.638
 106  5738.678
 107  5432.635
 108  7187.886
 109  6851.574
 110  6918.449
 111  6872.81
 112  7128.91
 113  6261.27
 114  5801.406
 115  6147.181
 116  5722.453
 117  6201.374
 118  5778.826
 119  7195.141
 120  5778.91
 121  5742.392
 122  7286.846
 123  5984.506
 124  6317.758
 125  6942.299
 126  6995.999
 127  7110.546
 128  7562.944
 129  5957.978
 130  6968.129
 131  6838.623
 132  6613.516
 133  6786.012
 134  6265.541
 135  5074.494
 136  5355.809
 137  6941.82
 138  5595.074
 139  5535.952
 140  6244.503
 141  6374.186
 142  6470.278
 143  6346.75
 144  6307.431
 145  6611.585
 146  7138.951
 147  6358.088
 148  6150.503
 149  6919.069
 150  6223.619
 151  6041.342
 152  6185.658
 153  6840.974
 154  6464.051
 155  8081.178
 156  9287.122
 157  8123.309
 158  6578.337
 159  6526.438
 160  6273.97
 161  6204.858
 162  6843.058
 163  6984.184
 164  5812.381
 165  5606.238
 166  5745.987
 167  5721.371
 168  6457.676
 169  6291.411
 170  5276.953
 171  4820.566
 172  5554.582
 173  6669.509
 174  5691.337
 175  6219.418
 176  6682.512
 177  6653.313
 178  6484.893
 179  6080.625
 180  5497.869
 181  5936.666
 182  6772.183
 183  5883.408
 184  6067.056
 185  6906.115
 186  6009.793
 187  6087.869
 188  6439.11
 189  6223.16
 190  5948.817
 191  7368.856
 192  6921.083
 193  6932.221
 194  7494.071
 195  7396.835
 196  6751.728
 197  6476.198
 198  6740.812
 199  6359.736
 200  6466.312
 201  6845.054
 202  6373.908
 203  6145.293
 204  6161.966
 205  6315.723
 206  6654.998
 207  6487.576
 208  6395.905
 209  6335.223
 210  6366.211
 211  5970.421
 212  6703.514
 213  8264.446
 214  6915.836
 215  5953.469
 216  5333.542
 217  6328.971
 218  6405.282
 219  6833.086
 220  6666.194
 221  6002.464
 222  6167.933
 223  6321.639
 224  5878.444
 225  5917.477
 226  6514.203
 227  5809.515
 228  5869.784
 229  5715.934
 230  6207.845
 231  5685.765
 232  5668.511
 233  6005.152
 234  6161.421
 235  6004.276
 236  6483.273
 237  5060.148
 238  5196.089
 239  6088.007
 240  6335.254
 241  7104.816
 242  6273.49
 243  6120.947
 244  6257.049
 245  6313.386
 246  5448.407
 247  5460.027
 248  6000.807
 249  5219.062
 250  4867.048
 251  4791.292
 252  5569.642
 253  5201.455
 254  5301.311
 255  5204.945
