# Input file       =  1197067746.109697_cleaned.dat
# Candidate        =  PSR_0332+5434
# Telescope        =  AR
# Epoch_topo       =  58098.950985065938
# Epoch_bary       =  N/A
# T_sample         =  0.002
# Data Folded      =  7340032
# Data Avg         =  0.285988995203558
# Data StdDev      =  4.92869457241355 
# Profile Bins     =  512
# Profile Avg      =  4099.98930493562 
# Profile StdDev   =  590.127566528762 
# Reduced chi-sqr  =  0.571
# Prob(Noise)      <  1   (~0.0 sigma)
# P_topo (ms)      =  714.537213084829  +/- 0.000436
# P'_topo (s/s)    =  -0                +/- 2.3e-10
# P''_topo (s/s^2) =  0                 +/- 1.02e-13
# P_bary (ms)      =  N/A
# P'_bary (s/s)    =  N/A
# P''_bary (s/s^2) =  N/A
# P_orb (s)        =  N/A
# asin(i)/c (s)    =  N/A
# eccentricity     =  N/A
# w (rad)          =  N/A
# T_peri           =  N/A
######################################################
   0  4201.059
   1  4328.197
   2  4838.63
   3  4659.573
   4  4750.573
   5  4715.279
   6  4219.401
   7  4217.491
   8  4252.018
   9  4112.808
  10  4421.107
  11  4300.807
  12  3682.545
  13  3557.485
  14  3876.442
  15  3676.944
  16  3794.562
  17  3869.395
  18  3997.017
  19  4019.87
  20  3495.448
  21  3643.578
  22  3943.742
  23  3691.094
  24  3814.249
  25  3968.482
  26  3886.365
  27  4213.408
  28  3839.757
  29  3582.732
  30  3780.753
  31  4210.274
  32  4018.96
  33  3771.65
  34  4179.583
  35  4155.967
  36  4071.26
  37  4739.957
  38  4509.221
  39  4366.014
  40  4364.822
  41  4032.958
  42  4021.992
  43  3950.337
  44  4335.568
  45  4232.006
  46  3869.642
  47  4115.675
  48  4127.892
  49  4347.446
  50  3988.505
  51  3975.025
  52  4473.026
  53  3971.757
  54  3707.575
  55  3947.756
  56  4001.44
  57  3967.344
  58  4378.319
  59  4663.671
  60  4434.428
  61  4539.079
  62  4328.224
  63  4156.957
  64  4195.128
  65  4252.947
  66  4341.416
  67  4259.531
  68  4301.387
  69  4232.367
  70  4038.768
  71  4193.612
  72  4413.714
  73  4732.322
  74  4574.897
  75  4448.343
  76  4641.351
  77  4331.035
  78  3978.742
  79  3725.346
  80  3916.407
  81  3762.968
  82  3622.461
  83  3706.124
  84  3888.517
  85  3491.004
  86  3499.711
  87  3438.168
  88  3283.344
  89  4023.133
  90  4250.701
  91  3943.333
  92  4122.237
  93  3889.625
  94  3851.027
  95  4015.501
  96  4056.899
  97  4415.473
  98  4011.06
  99  3964.77
 100  4074.716
 101  4350.269
 102  4459.806
 103  3813.516
 104  3880.483
 105  3885.697
 106  4027.275
 107  3806.523
 108  3852.415
 109  4336.474
 110  4230.483
 111  4270.141
 112  4204.44
 113  4124.709
 114  4474.565
 115  4171.5
 116  3853.718
 117  3836.175
 118  4071.576
 119  4137.981
 120  4051.171
 121  3879.243
 122  3757.908
 123  3850.635
 124  4121.201
 125  3822.563
 126  3916.594
 127  3814.257
 128  3883.006
 129  3997.083
 130  3893.116
 131  4223.536
 132  4418.699
 133  4354.652
 134  4078.393
 135  3963.386
 136  3984.867
 137  4373.94
 138  4136.193
 139  4070.226
 140  4134.638
 141  4141.881
 142  3733.422
 143  4200.625
 144  4244.378
 145  3890.431
 146  4046.12
 147  4513.369
 148  5001.69
 149  4456.441
 150  4210.247
 151  4111.187
 152  3868.717
 153  4124.759
 154  3975.484
 155  4167.492
 156  4549.333
 157  4602.962
 158  4123.396
 159  4398.935
 160  4328.266
 161  4236.476
 162  4373.196
 163  4775.842
 164  4609.928
 165  4295.724
 166  4372.883
 167  4264.381
 168  4222.387
 169  4258.208
 170  4555.402
 171  4461.722
 172  4342.34
 173  4154.117
 174  4227.322
 175  4698.424
 176  4075.48
 177  4015.734
 178  4467.255
 179  4798.088
 180  4885.448
 181  4528.604
 182  4438.705
 183  4262.874
 184  4076.902
 185  4831.63
 186  4501.229
 187  4485.738
 188  4357.808
 189  4151.888
 190  3931.94
 191  3807.08
 192  4287.704
 193  4791.384
 194  4576.562
 195  4726.89
 196  4283.909
 197  4557.783
 198  4618.585
 199  3887.337
 200  3815.565
 201  3924.15
 202  3637.77
 203  3253.507
 204  3818.269
 205  3961.454
 206  4367.449
 207  4382.751
 208  4517.905
 209  4113.178
 210  4018.753
 211  3767.23
 212  3798.73
 213  3965.366
 214  4063.681
 215  4102.935
 216  3599.793
 217  3372.789
 218  3616.4
 219  3823.379
 220  3758.406
 221  3331.126
 222  3605.097
 223  3928.849
 224  4106.626
 225  3800.823
 226  3692.673
 227  3966.756
 228  3821.884
 229  3674.948
 230  3991.861
 231  4173.372
 232  4060.253
 233  4137.332
 234  4375.031
 235  3957.293
 236  3910.423
 237  4244.032
 238  4245.719
 239  4024.409
 240  3946.091
 241  3876.493
 242  4036.585
 243  4126.02
 244  4399.234
 245  4561.747
 246  4249.77
 247  3924.594
 248  3577.091
 249  3433.841
 250  3647.874
 251  4134.588
 252  4151.243
 253  4101.407
 254  4334.279
 255  4581.549
 256  4357.455
 257  4135.192
 258  4008.215
 259  3779.228
 260  3900.257
 261  4140.304
 262  4717.877
 263  4581.114
 264  4025.451
 265  4447.899
 266  4073.726
 267  4192.119
 268  4706.115
 269  4744.342
 270  3904.855
 271  4252.834
 272  4696.444
 273  4489.836
 274  3637.377
 275  3759.696
 276  4492.113
 277  4268.262
 278  3964.373
 279  4427.246
 280  4060.194
 281  3813.276
 282  3750.29
 283  3733.069
 284  3758.152
 285  3903.391
 286  3766.96
 287  3544.853
 288  3433.585
 289  3086.198
 290  3375.284
 291  3454.886
 292  3834.18
 293  3912.14
 294  3797.169
 295  3583.388
 296  3626.811
 297  3547.007
 298  3741.048
 299  3642.035
 300  3851.804
 301  3572.708
 302  3848.468
 303  4035.706
 304  3957.747
 305  4135.502
 306  4635.085
 307  4202.033
 308  4099.24
 309  4597.193
 310  4209.551
 311  4529.283
 312  5013.463
 313  5077.567
 314  5286.216
 315  4583.65
 316  4019.628
 317  3831.661
 318  3866.167
 319  3475.449
 320  3407.47
 321  3485.131
 322  3847.518
 323  3788.026
 324  3931.595
 325  3983.645
 326  4189.789
 327  4002.575
 328  3821.333
 329  4208.545
 330  4384.733
 331  4373.212
 332  4189.848
 333  4069.578
 334  4199.783
 335  4517.516
 336  4501.649
 337  3609.064
 338  3607.153
 339  3869.678
 340  4115.792
 341  4094.101
 342  4096.241
 343  4466.369
 344  4389.688
 345  4410.854
 346  4013.33
 347  4279.069
 348  4829.398
 349  4620.747
 350  4368.593
 351  4071.684
 352  4131.435
 353  3809.788
 354  3881.93
 355  3873.138
 356  4181.099
 357  4257.404
 358  4173.908
 359  4062.106
 360  3815.688
 361  3205.583
 362  3898.311
 363  4220.744
 364  3836.432
 365  3923.769
 366  3934.843
 367  4223.952
 368  3959.676
 369  3900.155
 370  4403.734
 371  4438.02
 372  4033.721
 373  3952.513
 374  4164.3
 375  4328.589
 376  3767.976
 377  4169.691
 378  4314.176
 379  4092.888
 380  4297.624
 381  4102.204
 382  3846.049
 383  3920.887
 384  4190.177
 385  4292.811
 386  4121.545
 387  4050.682
 388  3998.924
 389  4010.853
 390  4039.276
 391  3847.831
 392  4185.008
 393  3451.778
 394  3357.197
 395  3696.583
 396  3926.207
 397  4183.577
 398  4465.856
 399  4483.269
 400  4342.701
 401  4236.748
 402  4184.586
 403  3846.092
 404  4006.801
 405  4493.568
 406  4335.663
 407  4038.588
 408  4205.449
 409  4109.827
 410  3446.197
 411  3670.744
 412  3907.366
 413  4114.35
 414  3873.695
 415  3834.986
 416  4253.772
 417  3894.336
 418  3923.052
 419  4276.095
 420  4535.005
 421  4053.983
 422  3774.266
 423  4065.487
 424  3817.628
 425  3988.866
 426  4657.763
 427  4655.43
 428  4288.252
 429  4190.733
 430  3751.792
 431  3640.185
 432  3770.47
 433  3600.667
 434  3896.563
 435  4146.657
 436  3977.186
 437  4146.527
 438  4295.068
 439  4086.374
 440  4199.432
 441  4398.905
 442  4592.12
 443  4443.456
 444  4153.79
 445  4337.801
 446  3786.951
 447  4208.579
 448  4103.956
 449  4235.311
 450  4121.324
 451  4018.507
 452  3891.713
 453  4104.259
 454  4208.554
 455  4242.44
 456  4058.582
 457  4023.611
 458  3850.94
 459  3721.279
 460  4085.978
 461  4151.952
 462  4215.916
 463  3950.197
 464  4139.742
 465  4166.2
 466  4202.808
 467  4852.762
 468  4085.189
 469  3530.073
 470  3980.373
 471  4139.561
 472  4196.688
 473  4306.144
 474  4329.098
 475  4007.363
 476  4203.127
 477  4183.25
 478  4312.616
 479  4292.102
 480  4451.63
 481  4626.432
 482  4038.953
 483  4050.078
 484  4117.875
 485  3967.971
 486  3719.57
 487  3889.115
 488  4434.031
 489  4110.634
 490  3805.54
 491  3929.732
 492  4041.38
 493  4144.634
 494  4241.595
 495  4581.064
 496  4365.825
 497  4142.233
 498  4001.262
 499  3483.012
 500  3533.617
 501  4357.149
 502  4249.788
 503  3929.67
 504  4153.616
 505  4446.929
 506  4314.737
 507  4358.896
 508  4476.533
 509  4226.022
 510  4170.992
 511  4005.156
