# Input file       =  1197900169.093376_cleaned.dat
# Candidate        =  PSR_0332+5434
# Telescope        =  AR
# Epoch_topo       =  58108.585510340003
# Epoch_bary       =  N/A
# T_sample         =  0.002
# Data Folded      =  7208960
# Data Avg         =  0.160823882012416
# Data StdDev      =  4.95573811313422 
# Profile Bins     =  512
# Profile Avg      =  2264.43601243862 
# Profile StdDev   =  588.043799953093 
# Reduced chi-sqr  =  0.708
# Prob(Noise)      <  1   (~0.0 sigma)
# P_topo (ms)      =  714.546347528837  +/- 4.02e-05
# P'_topo (s/s)    =  -0                +/- 2.16e-11
# P''_topo (s/s^2) =  0                 +/- 9.7e-15
# P_bary (ms)      =  N/A
# P'_bary (s/s)    =  N/A
# P''_bary (s/s^2) =  N/A
# P_orb (s)        =  N/A
# asin(i)/c (s)    =  N/A
# eccentricity     =  N/A
# w (rad)          =  N/A
# T_peri           =  N/A
######################################################
   0  2367.585
   1  2843.84
   2  2326.781
   3  2188.176
   4  2061.057
   5  1929.644
   6  2229.932
   7  1846.608
   8  2182.822
   9  2402.683
  10  2433.274
  11  1910.298
  12  1880.01
  13  1359.703
  14  1486.515
  15  2230.948
  16  2276.286
  17  2371.691
  18  1874.06
  19  1790.93
  20  2409.946
  21  2299.823
  22  2047.579
  23  1979.898
  24  2170.285
  25  2277.685
  26  2530.631
  27  2520.511
  28  2202.435
  29  2195.954
  30  2100.306
  31  2235.387
  32  1821.888
  33  1911.035
  34  2469.924
  35  2301.111
  36  2210.736
  37  2152.75
  38  1860.782
  39  1786.484
  40  1788.878
  41  1914.296
  42  1695.942
  43  1886.984
  44  2457.982
  45  2168.164
  46  2081.64
  47  2154.316
  48  2501.379
  49  2447.892
  50  2075.142
  51  1968.515
  52  2298.644
  53  2478.708
  54  1922.643
  55  2677.978
  56  2441.013
  57  2307.301
  58  2169.739
  59  2274.663
  60  1982.374
  61  1813.469
  62  2242.042
  63  2214.335
  64  1476.343
  65  1972.074
  66  2360.141
  67  2255.578
  68  1962.921
  69  1955.246
  70  2228.58
  71  1668.493
  72  1712.16
  73  2034.923
  74  2488.192
  75  2220.709
  76  1885.982
  77  2469.955
  78  1833.044
  79  1641.36
  80  1891.781
  81  2441.946
  82  2231.433
  83  1932.895
  84  1975.474
  85  1707.468
  86  1703.37
  87  1855.45
  88  2202.928
  89  2259.438
  90  2037.663
  91  2126.212
  92  2155.539
  93  1869.492
  94  2027.432
  95  2061.359
  96  2090.018
  97  1857.787
  98  2106.555
  99  1981.554
 100  2042.124
 101  2247.834
 102  1897.357
 103  1440.894
 104  1433.995
 105  2058.276
 106  1881.188
 107  1736.421
 108  2115.71
 109  2095.675
 110  1869.763
 111  1752.919
 112  1916.935
 113  2156.009
 114  2189.961
 115  2539.33
 116  2645.075
 117  2810.941
 118  2601.515
 119  2198.316
 120  2414.462
 121  2533.004
 122  2705.239
 123  2443.607
 124  2213.534
 125  2097.901
 126  2022.316
 127  2170.185
 128  1944.615
 129  2183.087
 130  2339.676
 131  2460.533
 132  2383.806
 133  2281.63
 134  2340.417
 135  1913.346
 136  1729.016
 137  1592.229
 138  1301.476
 139  1779.526
 140  2135.051
 141  2165.604
 142  2105.544
 143  1879.276
 144  1914.426
 145  1937.483
 146  1479.235
 147  1750.976
 148  2461.472
 149  2359.639
 150  2074.278
 151  1749.443
 152  1765.824
 153  1571.189
 154  1618.959
 155  1627.284
 156  2044.716
 157  1738.831
 158  1998.223
 159  1990.33
 160  2182.145
 161  2141.482
 162  2023.078
 163  2439.666
 164  2065.444
 165  1743.146
 166  1946.845
 167  2334.206
 168  2262.516
 169  2430.658
 170  2476.977
 171  2114.153
 172  2119.344
 173  2633.477
 174  2594.049
 175  2509.154
 176  2687.463
 177  2680.442
 178  2378.334
 179  1656.034
 180  2285.284
 181  2570.097
 182  2448.96
 183  2555.819
 184  2863.304
 185  2515.609
 186  1907.014
 187  2352.791
 188  2261.662
 189  2175.938
 190  2465.815
 191  2573.604
 192  2293.499
 193  1874.674
 194  2143.298
 195  2116.1
 196  1962.283
 197  2210.51
 198  1990.453
 199  2624.515
 200  2397.412
 201  2342.848
 202  2133.164
 203  2376.789
 204  1805.808
 205  1782.887
 206  1700.385
 207  2049.979
 208  1855.46
 209  1342.495
 210  2063.589
 211  2494.329
 212  2459.615
 213  2154.317
 214  1966.078
 215  1872.396
 216  2229.512
 217  2321.042
 218  2543.683
 219  2635.735
 220  2734.725
 221  2471.672
 222  2142.466
 223  2367.678
 224  2527.612
 225  2157.351
 226  2158.515
 227  2438.159
 228  2275.5
 229  2369.704
 230  2823.537
 231  3191.17
 232  2590.016
 233  2223.069
 234  2646.378
 235  2643.584
 236  2630.642
 237  2439.695
 238  2449.987
 239  2173.019
 240  2089.801
 241  2256.85
 242  2423.123
 243  2054.847
 244  2006.304
 245  2355.649
 246  2314.082
 247  2166.968
 248  2283.304
 249  2317.22
 250  2238.146
 251  1666.274
 252  1925.499
 253  1877.452
 254  1691.5
 255  2276.111
 256  2470.929
 257  2442.501
 258  2043.774
 259  2141.746
 260  2297.627
 261  2187.383
 262  1766.552
 263  2262.197
 264  2436.925
 265  1689.487
 266  2128.649
 267  1908.056
 268  2185.932
 269  1875.338
 270  2253.382
 271  2244.62
 272  1574.255
 273  1992.87
 274  1995.407
 275  1603.574
 276  1445.927
 277  1783.182
 278  2164.986
 279  2128.032
 280  2268.786
 281  2245.622
 282  1858.225
 283  2049.982
 284  2443.597
 285  2471.65
 286  2018.71
 287  2142.757
 288  2205.208
 289  1960.162
 290  1978.946
 291  2187.674
 292  2725.17
 293  2196.402
 294  2122.619
 295  2501.881
 296  2095.196
 297  1638.241
 298  1976.989
 299  2057.252
 300  2462.812
 301  2417.271
 302  2919.873
 303  2054.845
 304  1567.844
 305  2413.062
 306  2672.876
 307  2044.118
 308  1616.284
 309  2140.072
 310  2072.335
 311  2077.132
 312  2126.701
 313  2527.018
 314  2372.199
 315  2259.322
 316  2135.946
 317  1898.88
 318  2080.128
 319  2380.833
 320  2266.041
 321  2440.317
 322  2039.844
 323  2232.699
 324  2104.318
 325  1951.354
 326  1844.138
 327  2449.864
 328  2614.716
 329  2089.986
 330  2147.326
 331  2569.066
 332  2308.639
 333  2064.22
 334  2118.148
 335  2087.419
 336  2430.164
 337  2359.681
 338  2391.736
 339  2151.596
 340  2297.271
 341  2458.49
 342  2638.02
 343  2080.975
 344  1782.27
 345  2693.152
 346  2686.267
 347  2522.127
 348  2139.845
 349  2088.843
 350  2243.745
 351  2208.75
 352  2691.798
 353  2772.856
 354  2621.731
 355  2646.417
 356  2593.101
 357  2596.626
 358  2295.891
 359  2471.274
 360  2874.873
 361  2469.4
 362  2468.665
 363  2752.204
 364  2404.726
 365  2576.139
 366  2719.41
 367  3019.14
 368  2607.677
 369  2441.187
 370  2653.356
 371  2731.891
 372  2015.176
 373  2059.625
 374  2664.274
 375  2223.697
 376  2116.153
 377  2220.553
 378  2603.476
 379  2199.982
 380  2137.98
 381  2680.407
 382  2499.339
 383  2605.127
 384  2993.509
 385  3152.608
 386  2842.483
 387  2697.312
 388  3243.125
 389  3037.869
 390  2553.565
 391  2585.337
 392  2631.434
 393  2472.71
 394  2137.688
 395  2620.296
 396  2963.688
 397  3011.955
 398  2754.144
 399  2707.234
 400  2669.95
 401  2613.554
 402  2346.973
 403  2517.75
 404  2437.906
 405  2341.104
 406  2391.456
 407  2530.704
 408  2012.07
 409  2164.027
 410  2396.162
 411  2305.486
 412  2070.745
 413  2192.236
 414  2097.79
 415  2093.086
 416  2626.968
 417  2777.323
 418  2376.854
 419  2640.973
 420  2471.751
 421  2685.781
 422  2460.979
 423  2978.181
 424  3414.613
 425  2908.46
 426  3289.298
 427  3294.277
 428  3310.906
 429  3558.433
 430  3503.252
 431  3607.124
 432  2881.718
 433  2351.832
 434  2469.414
 435  2356.507
 436  2154.998
 437  1550.436
 438  1954.266
 439  2446.474
 440  2431.513
 441  2393.95
 442  2441.004
 443  2041.764
 444  1800.527
 445  2182.528
 446  2646.083
 447  2566.745
 448  2325.904
 449  2409.039
 450  2759.138
 451  2488.352
 452  2543.094
 453  3031.21
 454  2247.492
 455  2019.672
 456  2494.168
 457  2163.939
 458  2086.321
 459  2313.231
 460  2261.029
 461  2076.824
 462  2339.738
 463  2531.528
 464  2107.88
 465  1588.16
 466  1896.305
 467  2564.746
 468  2424.857
 469  2509.96
 470  2591.137
 471  2508.83
 472  2058.971
 473  2065.334
 474  2532.843
 475  2690.79
 476  2299.777
 477  2116.41
 478  2113.8
 479  2189.732
 480  2193.309
 481  2754.426
 482  2995.816
 483  2150.531
 484  2176.075
 485  2378.646
 486  2508.026
 487  2154.221
 488  2725.459
 489  2559.781
 490  2194.16
 491  2711.416
 492  2687.48
 493  2486.443
 494  2679.882
 495  3167.911
 496  3048.707
 497  2674.865
 498  2700.176
 499  2419.272
 500  2558.85
 501  2372.771
 502  2340.483
 503  2584.058
 504  2274.182
 505  2162.01
 506  1888.323
 507  2036.643
 508  2044.154
 509  2221.107
 510  2696.526
 511  2485.17
