# Input file       =  1197813510.105772_cleaned.dat
# Candidate        =  PSR_0332+5434
# Telescope        =  AR
# Epoch_topo       =  58107.582512798290
# Epoch_bary       =  N/A
# T_sample         =  0.002
# Data Folded      =  7143424
# Data Avg         =  0.0373103130308623
# Data StdDev      =  1.00017820022936 
# Profile Bins     =  512
# Profile Avg      =  520.569573506605 
# Profile StdDev   =  118.139633240714 
# Reduced chi-sqr  =  1.165
# Prob(Noise)      <  0.0057   (~2.5 sigma)
# P_topo (ms)      =  714.545394576739  +/- 9.58e-05
# P'_topo (s/s)    =  -0                +/- 5.19e-11
# P''_topo (s/s^2) =  0                 +/- 2.36e-14
# P_bary (ms)      =  N/A
# P'_bary (s/s)    =  N/A
# P''_bary (s/s^2) =  N/A
# P_orb (s)        =  N/A
# asin(i)/c (s)    =  N/A
# eccentricity     =  N/A
# w (rad)          =  N/A
# T_peri           =  N/A
######################################################
   0  536.8939
   1  645.826
   2  576.9429
   3  609.185
   4  529.4672
   5  566.1841
   6  700.2416
   7  554.7165
   8  550.9127
   9  519.285
  10  539.5834
  11  523.1865
  12  504.5724
  13  438.4725
  14  521.9034
  15  556.3307
  16  634.0829
  17  522.5236
  18  367.2763
  19  480.3401
  20  566.0625
  21  514.9218
  22  465.2173
  23  581.2842
  24  495.9961
  25  465.0906
  26  511.0161
  27  561.7827
  28  528.3177
  29  478.0845
  30  570.4542
  31  628.0447
  32  588.0212
  33  551.1637
  34  518.4146
  35  515.6001
  36  621.1981
  37  533.3177
  38  480.9304
  39  507.1964
  40  488.8349
  41  432.4796
  42  409.3448
  43  464.2995
  44  506.7694
  45  468.3324
  46  494.4739
  47  523.3795
  48  478.3891
  49  664.9673
  50  576.1036
  51  542.7176
  52  475.3706
  53  491.6016
  54  477.8195
  55  413.796
  56  474.0557
  57  405.5649
  58  424.6181
  59  376.9823
  60  422.9749
  61  583.1776
  62  456.9509
  63  378.5347
  64  390.8033
  65  452.6151
  66  397.4398
  67  421.2423
  68  509.1733
  69  596.317
  70  553.0009
  71  529.0627
  72  578.4774
  73  532.9617
  74  439.7899
  75  392.5799
  76  511.6825
  77  556.2779
  78  417.9682
  79  560.8613
  80  572.1906
  81  469.8641
  82  461.5526
  83  532.5206
  84  633.4205
  85  617.1765
  86  712.9988
  87  711.5032
  88  581.5096
  89  590.8021
  90  542.3696
  91  492.4586
  92  582.2914
  93  525.2484
  94  651.7522
  95  564.8597
  96  685.687
  97  753.5126
  98  792.1859
  99  819.4154
 100  914.09
 101  950.666
 102  766.4513
 103  656.3307
 104  507.8112
 105  631.4864
 106  461.6764
 107  497.5189
 108  507.7224
 109  476.2743
 110  527.8455
 111  535.5312
 112  541.4979
 113  464.6725
 114  367.9449
 115  401.0728
 116  486.8094
 117  440.3271
 118  467.2477
 119  447.2151
 120  390.4908
 121  494.9226
 122  519.164
 123  468.4573
 124  431.9092
 125  414.632
 126  465.9664
 127  527.3701
 128  552.9716
 129  439.0331
 130  423.0927
 131  578.3772
 132  600.8161
 133  572.8696
 134  461.2597
 135  441.6318
 136  546.9174
 137  718.6897
 138  607.2963
 139  482.7213
 140  521.6495
 141  538.7229
 142  541.5525
 143  603.685
 144  611.4805
 145  560.4819
 146  615.6122
 147  487.2191
 148  457.6646
 149  511.7413
 150  506.0951
 151  486.9739
 152  445.5125
 153  434.4293
 154  442.7966
 155  417.0526
 156  488.5853
 157  494.9348
 158  418.3192
 159  571.8719
 160  508.6986
 161  557.9136
 162  427.8309
 163  410.1252
 164  560.2505
 165  446.0918
 166  533.5993
 167  514.1757
 168  617.7007
 169  590.4332
 170  519.5112
 171  453.7774
 172  520.5049
 173  446.472
 174  373.798
 175  474.2825
 176  528.5794
 177  442.7819
 178  423.6593
 179  460.2423
 180  519.1902
 181  363.1794
 182  421.5699
 183  536.3958
 184  574.4712
 185  524.4059
 186  444.6882
 187  450.4957
 188  340.3462
 189  426.2227
 190  522.5209
 191  560.6443
 192  538.4905
 193  527.3102
 194  575.26
 195  471.4713
 196  517.4659
 197  622.6664
 198  593.2776
 199  410.0323
 200  552.6451
 201  618.1174
 202  633.0969
 203  626.1269
 204  573.7983
 205  540.1213
 206  472.2792
 207  515.9716
 208  512.4552
 209  513.0386
 210  515.3719
 211  553.2361
 212  528.4742
 213  457.7648
 214  532.5043
 215  627.7309
 216  712.4235
 217  624.7343
 218  596.8284
 219  542.2122
 220  344.4075
 221  488.4624
 222  546.5536
 223  437.9433
 224  429.0229
 225  388.3458
 226  347.8035
 227  232.1781
 228  341.9245
 229  481.6569
 230  483.417
 231  322.8758
 232  292.6978
 233  305.8436
 234  438.191
 235  456.6134
 236  485.0532
 237  346.6337
 238  297.2176
 239  345.4376
 240  490.8225
 241  426.0002
 242  300.5338
 243  323.8866
 244  335.4743
 245  298.748
 246  499.5762
 247  608.2525
 248  587.259
 249  453.5256
 250  501.8599
 251  511.708
 252  504.8083
 253  394.5528
 254  545.9447
 255  545.176
 256  407.4266
 257  487.5801
 258  596.9638
 259  475.0117
 260  420.5745
 261  594.8516
 262  520.1705
 263  369.7576
 264  331.5772
 265  451.5345
 266  434.4776
 267  465.7997
 268  634.542
 269  580.7729
 270  614.3459
 271  638.248
 272  477.4409
 273  539.9719
 274  445.3524
 275  503.0594
 276  534.8051
 277  597.4916
 278  614.9871
 279  633.0842
 280  537.7173
 281  500.1271
 282  559.0571
 283  612.5205
 284  571.6086
 285  478.2227
 286  486.7511
 287  623.7866
 288  475.6022
 289  505.1392
 290  630.7428
 291  674.1047
 292  477.1696
 293  574.9666
 294  627.825
 295  417.6304
 296  407.3409
 297  612.4554
 298  682.9827
 299  574.9332
 300  526.2117
 301  525.8867
 302  497.8763
 303  438.7272
 304  464.1351
 305  507.2281
 306  476.857
 307  518.5137
 308  429.3198
 309  509.6954
 310  364.679
 311  430.0052
 312  482.3716
 313  433.1124
 314  370.5951
 315  447.188
 316  402.5594
 317  418.9562
 318  480.3815
 319  464.355
 320  482.3886
 321  403.7119
 322  381.8133
 323  426.8871
 324  445.5354
 325  507.8805
 326  544.8484
 327  511.5
 328  421.4901
 329  534.2117
 330  592.8095
 331  472.3928
 332  456.3108
 333  588.2261
 334  619.2112
 335  599.3058
 336  473.2489
 337  413.0316
 338  454.7239
 339  460.8084
 340  367.2399
 341  435.8998
 342  539.2703
 343  528.7924
 344  621.2809
 345  575.9255
 346  574.47
 347  535.4814
 348  636.7864
 349  475.0517
 350  520.6091
 351  588.621
 352  517.399
 353  507.9066
 354  503.6525
 355  463.1541
 356  447.4308
 357  478.3044
 358  504.5216
 359  532.3199
 360  424.2714
 361  421.6581
 362  415.5842
 363  409.3039
 364  447.1944
 365  606.795
 366  608.3055
 367  634.4441
 368  458.5128
 369  460.387
 370  510.3136
 371  494.936
 372  447.1257
 373  495.5817
 374  446.9011
 375  470.575
 376  568.1455
 377  550.3813
 378  443.6525
 379  549.2062
 380  692.3444
 381  532.3464
 382  527.8591
 383  512.4281
 384  449.2914
 385  492.2027
 386  581.5944
 387  545.7742
 388  470.7031
 389  599.3628
 390  532.317
 391  560.5411
 392  434.1279
 393  548.2787
 394  466.7503
 395  417.3994
 396  584.408
 397  580.9184
 398  628.7647
 399  656.4614
 400  608.179
 401  537.9421
 402  538.6826
 403  473.374
 404  547.5926
 405  452.745
 406  491.8323
 407  549.2758
 408  529.2897
 409  481.7089
 410  416.6882
 411  418.6104
 412  547.4707
 413  534.1138
 414  517.5616
 415  574.8114
 416  517.9162
 417  526.9344
 418  485.093
 419  441.8286
 420  478.815
 421  566.1371
 422  532.049
 423  556.7084
 424  516.4005
 425  514.5312
 426  528.9433
 427  634.461
 428  633.4207
 429  613.9384
 430  549.7429
 431  620.8809
 432  552.0161
 433  528.9014
 434  551.3155
 435  537.764
 436  556.1633
 437  526.0502
 438  669.3014
 439  567.2939
 440  535.9421
 441  701.0645
 442  764.1513
 443  659.2545
 444  529.6284
 445  529.67
 446  631.7668
 447  787.1757
 448  740.5319
 449  719.8276
 450  678.9058
 451  528.5472
 452  509.1382
 453  448.9369
 454  471.3992
 455  562.4825
 456  552.5528
 457  445.5741
 458  488.8444
 459  607.7526
 460  536.8257
 461  558.2899
 462  629.6064
 463  687.2746
 464  551.4788
 465  553.6611
 466  632.3546
 467  471.1959
 468  332.1111
 469  431.1661
 470  490.7276
 471  505.9669
 472  593.565
 473  606.7758
 474  587.2978
 475  643.4597
 476  621.1987
 477  652.0689
 478  568.0204
 479  743.2699
 480  692.1761
 481  484.149
 482  422.5671
 483  607.9219
 484  637.8111
 485  680.6161
 486  563.1983
 487  428.1631
 488  532.0656
 489  459.261
 490  642.1666
 491  646.9714
 492  530.1762
 493  414.2478
 494  514.4149
 495  559.4932
 496  571.962
 497  580.5217
 498  544.7703
 499  418.4958
 500  378.1727
 501  560.4694
 502  738.4165
 503  726.8129
 504  717.3588
 505  665.1595
 506  579.3497
 507  592.6894
 508  395.3984
 509  468.5475
 510  566.2374
 511  474.9611
