# Input file       =  1197038256.128744_cleaned.dat
# Candidate        =  PSR_0332+5434
# Telescope        =  AR
# Epoch_topo       =  58098.609665841941
# Epoch_bary       =  N/A
# T_sample         =  0.002
# Data Folded      =  7143424
# Data Avg         =  0.829681763231087
# Data StdDev      =  7.61716768139351 
# Profile Bins     =  512
# Profile Avg      =  11575.3864933752 
# Profile StdDev   =  899.729064287228 
# Reduced chi-sqr  =  0.661
# Prob(Noise)      <  1   (~0.0 sigma)
# P_topo (ms)      =  714.536516373774  +/- 8.3e-05
# P'_topo (s/s)    =  -0                +/- 4.5e-11
# P''_topo (s/s^2) =  0                 +/- 2.04e-14
# P_bary (ms)      =  N/A
# P'_bary (s/s)    =  N/A
# P''_bary (s/s^2) =  N/A
# P_orb (s)        =  N/A
# asin(i)/c (s)    =  N/A
# eccentricity     =  N/A
# w (rad)          =  N/A
# T_peri           =  N/A
######################################################
   0  11987.36
   1  11947.92
   2  12253.22
   3  12380.4
   4  11289.72
   5  11124.31
   6  11195.78
   7  12304.72
   8  12278.16
   9  12245.29
  10  12643.35
  11  12390.01
  12  11923.87
  13  11717.03
  14  11370.58
  15  11127.84
  16  11356
  17  12132.45
  18  12306.3
  19  12359.82
  20  12351.64
  21  11953.08
  22  11439.11
  23  11807.82
  24  11447.74
  25  11438.35
  26  11342.89
  27  12246.14
  28  11917.67
  29  11711.73
  30  11236.76
  31  11358.38
  32  11845.81
  33  12042.75
  34  12014.41
  35  11491.68
  36  11901.06
  37  12048.97
  38  11486.21
  39  11345.62
  40  12105.58
  41  11974.29
  42  11551.86
  43  12060.38
  44  11850.2
  45  11256.44
  46  11905.31
  47  12421.21
  48  12293.38
  49  12145.47
  50  11762.13
  51  11721.78
  52  11917.33
  53  11693.73
  54  12264.22
  55  12346.36
  56  12473
  57  12158.64
  58  11670.61
  59  11369.86
  60  11690.65
  61  11384.32
  62  11638.35
  63  11651.63
  64  11423.53
  65  11531.64
  66  11306.92
  67  10895.55
  68  10516.73
  69  10147.25
  70  10779.61
  71  10823.65
  72  10646.26
  73  10148.32
  74  10392.11
  75  10872.99
  76  10962.3
  77  11773.94
  78  11888.14
  79  11534.87
  80  11101.08
  81  11258.04
  82  10999.88
  83  11068.87
  84  11700.25
  85  11367.1
  86  11300.31
  87  11046.98
  88  10445.21
  89  10838.14
  90  10923.87
  91  11112.3
  92  11719.9
  93  11994.76
  94  12179.22
  95  11652.89
  96  11256.5
  97  11112.58
  98  11448.28
  99  11640.17
 100  12036.02
 101  12069.65
 102  12096.8
 103  11600.22
 104  11471.4
 105  11192.62
 106  10758.89
 107  10475.11
 108  11011.46
 109  11226.06
 110  11197.99
 111  11257.34
 112  11756.6
 113  11283.22
 114  10765.49
 115  11730.73
 116  12016.66
 117  12246.77
 118  11530.71
 119  11095.29
 120  11289.09
 121  11075.17
 122  11361.62
 123  11399.89
 124  11796.2
 125  11576.79
 126  11009.64
 127  10672.94
 128  10388.08
 129  10738.57
 130  11020.16
 131  11102.25
 132  11958.63
 133  11773.03
 134  11996.49
 135  11436.07
 136  11037.68
 137  11572.44
 138  11972.8
 139  11269.02
 140  11211.28
 141  11258.63
 142  12420.99
 143  11956.36
 144  11747.13
 145  10868.31
 146  10444.42
 147  9847.541
 148  10513.9
 149  12006.04
 150  11836.02
 151  12191.78
 152  12203.09
 153  11749.18
 154  11263.99
 155  10495.8
 156  10799.14
 157  11306.97
 158  11553.01
 159  11414.06
 160  11306.74
 161  11607.08
 162  11828.45
 163  11374.22
 164  11188.74
 165  12026.34
 166  11885.83
 167  12709.24
 168  12395.55
 169  11359.32
 170  11304.28
 171  10922.17
 172  11048.03
 173  11752.57
 174  12137.54
 175  12054.1
 176  12484.37
 177  12539.92
 178  12028.42
 179  11373.03
 180  11206.83
 181  11717.63
 182  12125.39
 183  12113.3
 184  11624.28
 185  10722.27
 186  11062.96
 187  10850.23
 188  10686.41
 189  11307
 190  11875.92
 191  11911.13
 192  11850.33
 193  11539.16
 194  11826.98
 195  12042.47
 196  12108.83
 197  11520.04
 198  11129.31
 199  11619.45
 200  11482.45
 201  11533.16
 202  11656.45
 203  11586.22
 204  11387.13
 205  11337.38
 206  11230.05
 207  11160.26
 208  11127.91
 209  12104.42
 210  12279.41
 211  12307.58
 212  11760.26
 213  11406.43
 214  10868.99
 215  11113.71
 216  11638.78
 217  11451.17
 218  12072.67
 219  11480.65
 220  11493.75
 221  11546.52
 222  11368.77
 223  11243.15
 224  11053.61
 225  11531.27
 226  11762.03
 227  11739.59
 228  12075.38
 229  12424.15
 230  12589.17
 231  11700.4
 232  12003.61
 233  11915.79
 234  11906.3
 235  11467.27
 236  10962.16
 237  11377.11
 238  11210.84
 239  11701.2
 240  11043.65
 241  11118.21
 242  11548.16
 243  11779.89
 244  11683.45
 245  10872.18
 246  10883.12
 247  10600.77
 248  10764.69
 249  11624.25
 250  11443.35
 251  11655.53
 252  12019.73
 253  11555.79
 254  11089.23
 255  11608.63
 256  11550.81
 257  11902.92
 258  12166.74
 259  12275.7
 260  11852.17
 261  11882.03
 262  11415.24
 263  11636.58
 264  12250.85
 265  12222.14
 266  11795.42
 267  12191.31
 268  12251.53
 269  12893.57
 270  12115.95
 271  11771.14
 272  11358.71
 273  11495.8
 274  11452.99
 275  11733.29
 276  12113.51
 277  11677.42
 278  11498.27
 279  11311.14
 280  11037.26
 281  10633.37
 282  11007.1
 283  11330.38
 284  11496.54
 285  11303.75
 286  11061.66
 287  11324.8
 288  11473.76
 289  12156.56
 290  12386.61
 291  11489.92
 292  12023.2
 293  12405.21
 294  11958.56
 295  11723.43
 296  11992.53
 297  12762.66
 298  12430.97
 299  11527.61
 300  11702.15
 301  11454.69
 302  11407.3
 303  11178.55
 304  11778.28
 305  11784.96
 306  12790.4
 307  12519.96
 308  12035.49
 309  11966.66
 310  11651.09
 311  11459.65
 312  11726.22
 313  12166.15
 314  12406.72
 315  12804.4
 316  11732.13
 317  11615.98
 318  12060.05
 319  11683.69
 320  11375.56
 321  11062.57
 322  11215.47
 323  11514.03
 324  11553.42
 325  11280.66
 326  11442.22
 327  11202.51
 328  11084.12
 329  11119.23
 330  11284.33
 331  11312.8
 332  11284.09
 333  11535.01
 334  10732.89
 335  10364.66
 336  10807.15
 337  11242.6
 338  10952.42
 339  11392.6
 340  12116.79
 341  12051.83
 342  11477.39
 343  11528.12
 344  11320.08
 345  11658.03
 346  11685.92
 347  11757.54
 348  11996.99
 349  12488.92
 350  12027.41
 351  11203.2
 352  10523.88
 353  10707.67
 354  10985.6
 355  11834.99
 356  12273.07
 357  12396.29
 358  12059.02
 359  11831.18
 360  10968.37
 361  11462.46
 362  11917.31
 363  12278.56
 364  12709.24
 365  12156
 366  11952.81
 367  11757.39
 368  11895.18
 369  11614.85
 370  11241.11
 371  11593.17
 372  11842.87
 373  12249.21
 374  11742.42
 375  11889.36
 376  11264.5
 377  10980.67
 378  11805.07
 379  11657.25
 380  11647.86
 381  11946.04
 382  11715.86
 383  11604.38
 384  11768.4
 385  11275.52
 386  11091.57
 387  11428.39
 388  11447.41
 389  12004.34
 390  12411.59
 391  11885.36
 392  11740.24
 393  11593.12
 394  11355.01
 395  11304.93
 396  10933.23
 397  11351.64
 398  11384.05
 399  11197.62
 400  10831.42
 401  11415.78
 402  11648.07
 403  11074.16
 404  10648.03
 405  11194.76
 406  11523.14
 407  11795.99
 408  11375.86
 409  11973.3
 410  11555.67
 411  11423.95
 412  11775.63
 413  11484.16
 414  12061.43
 415  11385.55
 416  11090.25
 417  11014.59
 418  11025.96
 419  10771.02
 420  10371.38
 421  10818.92
 422  11177.47
 423  10581.72
 424  10300.72
 425  11429.92
 426  11769.42
 427  11190.19
 428  10506.29
 429  10411.54
 430  10442.01
 431  10674.81
 432  11286.4
 433  11840.15
 434  11890.8
 435  11175.84
 436  11043.3
 437  11347.57
 438  12176.05
 439  12319.08
 440  12862.16
 441  12678.32
 442  11877.86
 443  11108.09
 444  11324.61
 445  11710.08
 446  11667.91
 447  11812.34
 448  11410.71
 449  11030.5
 450  11199.39
 451  11270.51
 452  10458.67
 453  10756.87
 454  10994.12
 455  11254.94
 456  10778.33
 457  11006.67
 458  11169.62
 459  10952.57
 460  11934.36
 461  12247.78
 462  12068.05
 463  11995.96
 464  11831.02
 465  11717.32
 466  11297.04
 467  11811.9
 468  11245.58
 469  11413.59
 470  11240.55
 471  11498.81
 472  11713.17
 473  11417.56
 474  12004.69
 475  11584.41
 476  11359.76
 477  11540.66
 478  12372.1
 479  11958.54
 480  12454.42
 481  12649.27
 482  12446.89
 483  12961.3
 484  12177.67
 485  11155.07
 486  11482.81
 487  11397.9
 488  12011
 489  11605.34
 490  12067.08
 491  12204.8
 492  11527.4
 493  11376.31
 494  10984.17
 495  11945.26
 496  12236.59
 497  12553.97
 498  12594.95
 499  12022.82
 500  12009.11
 501  11420.46
 502  11359.61
 503  10774.6
 504  11561.86
 505  11977.38
 506  12981.36
 507  13024.71
 508  11872.23
 509  11110.95
 510  11352.46
 511  12140.75
