# Input file       =  1197570344.120679-PSRB0329-2ms-sampling-dd.dat
# Candidate        =  PSR_0332+5434
# Telescope        =  AR
# Epoch_topo       =  58104.768091674523
# Epoch_bary       =  N/A
# T_sample         =  0.002
# Data Folded      =  7340032
# Data Avg         =  1.83344406726087e-10
# Data StdDev      =  5.60413509954175 
# Profile Bins     =  512
# Profile Avg      =  0.719699608295662
# Profile StdDev   =  671.000111733744 
# Reduced chi-sqr  =  0.427
# Prob(Noise)      <  1   (~0.0 sigma)
# P_topo (ms)      =  714.54268384622   +/- 0.00169
# P'_topo (s/s)    =  -0                +/- 8.92e-10
# P''_topo (s/s^2) =  0                 +/- 3.94e-13
# P_bary (ms)      =  N/A
# P'_bary (s/s)    =  N/A
# P''_bary (s/s^2) =  N/A
# P_orb (s)        =  N/A
# asin(i)/c (s)    =  N/A
# eccentricity     =  N/A
# w (rad)          =  N/A
# T_peri           =  N/A
######################################################
   0  -71.16139
   1  58.28156
   2  92.76118
   3  164.4795
   4  92.87036
   5  105.7744
   6  -339.1984
   7  -340.6995
   8  -344.9269
   9  -384.4695
  10  -259.4041
  11  -772.4792
  12  -823.4098
  13  -439.8852
  14  -471.815
  15  -552.225
  16  -433.6049
  17  -446.0411
  18  -438.2057
  19  -393.2398
  20  -362.541
  21  -656.257
  22  -573.6439
  23  -488.6151
  24  -236.6327
  25  -170.8097
  26  -331.0251
  27  -627.3533
  28  -374.8572
  29  20.18884
  30  -155.2039
  31  43.79971
  32  60.22652
  33  -66.71323
  34  -181.0389
  35  -90.00662
  36  -227.9935
  37  -72.31564
  38  -125.2799
  39  -182.2303
  40  -36.1232
  41  -324.1614
  42  -70.70341
  43  -95.27039
  44  -32.42891
  45  172.0107
  46  437.661
  47  291.789
  48  63.88791
  49  -37.66856
  50  -242.1076
  51  -147.6819
  52  289.6403
  53  369.8535
  54  -19.83241
  55  -112.143
  56  -108.2658
  57  -60.77839
  58  30.2066
  59  267.9927
  60  137.9839
  61  -339.795
  62  -317.214
  63  -395.1387
  64  -405.8173
  65  -533.5375
  66  -665.2458
  67  -683.683
  68  -382.7736
  69  -435.5505
  70  -509.318
  71  -644.7903
  72  -260.6914
  73  -187.7986
  74  -60.75257
  75  -314.1904
  76  -359.6227
  77  119.0835
  78  144.2288
  79  50.93368
  80  -102.0995
  81  -89.22144
  82  72.12128
  83  -132.6381
  84  -550.011
  85  -594.9344
  86  -287.2214
  87  -78.99727
  88  -143.5462
  89  -9.669039
  90  -200.5242
  91  -86.97562
  92  -439.8407
  93  -708.9393
  94  -580.412
  95  -573.2281
  96  -364.6459
  97  -221.6863
  98  -179.5263
  99  -158.6978
 100  -169.8475
 101  -333.8836
 102  -237.7573
 103  -127.8149
 104  -311.8792
 105  88.98
 106  234.6398
 107  236.0221
 108  156.6111
 109  -41.33396
 110  291.1033
 111  246.1277
 112  -140.3398
 113  -38.49209
 114  98.02172
 115  -145.5911
 116  -311.0448
 117  -349.4496
 118  -94.97432
 119  31.62481
 120  -150.3042
 121  -225.1156
 122  -235.7229
 123  58.0547
 124  -343.085
 125  -162.179
 126  -114.8509
 127  -99.06596
 128  -230.5081
 129  -131.7183
 130  43.57388
 131  -325.6913
 132  -350.9263
 133  -104.1188
 134  -119.6755
 135  -269.33
 136  -671.2047
 137  -212.2816
 138  201.1994
 139  155.4772
 140  -54.1358
 141  -341.2203
 142  -369.0025
 143  -515.501
 144  -407.5881
 145  -260.9278
 146  -225.8344
 147  -195.7122
 148  -388.3018
 149  -58.79929
 150  -130.427
 151  -228.7125
 152  68.73936
 153  285.7381
 154  335.6425
 155  86.33633
 156  -39.36945
 157  95.98305
 158  -192.3992
 159  -233.2499
 160  -19.43685
 161  177.022
 162  144.7034
 163  46.77682
 164  -157.2758
 165  -416.1133
 166  -141.4634
 167  -198.1483
 168  -402.5116
 169  113.1345
 170  113.3123
 171  -117.3524
 172  255.2641
 173  853.7546
 174  1347.502
 175  1362.704
 176  1506.63
 177  1226.204
 178  803.9749
 179  572.3077
 180  520.0253
 181  445.2454
 182  321.2601
 183  193.6407
 184  -78.30265
 185  1.084457
 186  10.74058
 187  89.93639
 188  322.9051
 189  484.3383
 190  9.782493
 191  251.6607
 192  261.4836
 193  261.7278
 194  377.594
 195  443.4428
 196  277.0934
 197  -108.3533
 198  178.3771
 199  363.0626
 200  345.3897
 201  98.13638
 202  256.1865
 203  640.3007
 204  234.0694
 205  158.7222
 206  407.7961
 207  574.308
 208  227.0538
 209  274.0453
 210  347.8077
 211  255.5162
 212  61.46043
 213  295.2395
 214  96.78378
 215  -66.35352
 216  -168.9587
 217  -272.1642
 218  -93.16745
 219  110.8167
 220  352.6628
 221  387.2472
 222  146.1664
 223  162.8666
 224  242.1241
 225  553.5709
 226  322.1551
 227  207.3701
 228  472.0324
 229  399.1137
 230  536.1136
 231  417.8112
 232  286.6143
 233  -85.12013
 234  235.3656
 235  205.7482
 236  -0.5908981
 237  11.52556
 238  -4.76437
 239  189.7799
 240  47.42307
 241  6.920892
 242  -189.9575
 243  64.82555
 244  89.49611
 245  -42.30016
 246  56.85869
 247  -105.0431
 248  -3.4063
 249  66.16504
 250  353.0511
 251  316.5592
 252  -8.281121
 253  -124.0198
 254  120.198
 255  389.4777
 256  363.5259
 257  198.4408
 258  263.4339
 259  387.3144
 260  725.0442
 261  579.2878
 262  636.1219
 263  314.4604
 264  63.81723
 265  -18.30433
 266  -263.6901
 267  28.78035
 268  591.1335
 269  487.0929
 270  141.9186
 271  284.1002
 272  -22.46131
 273  245.0106
 274  167.4707
 275  162.4095
 276  256.8467
 277  173.3529
 278  158.0945
 279  30.51835
 280  72.95378
 281  260.0791
 282  202.7364
 283  290.1302
 284  598.1379
 285  -133.3419
 286  207.9909
 287  301.5505
 288  211.223
 289  321.1042
 290  130.4389
 291  39.80649
 292  -170.0841
 293  -58.37157
 294  214.8794
 295  389.3303
 296  329.5913
 297  665.0852
 298  448.8334
 299  42.82541
 300  -184.0527
 301  -68.92634
 302  16.45438
 303  102.0121
 304  234.5906
 305  -5.770247
 306  89.83722
 307  -177.1101
 308  286.4655
 309  357.6946
 310  205.7482
 311  262.5141
 312  18.83522
 313  69.92282
 314  264.1916
 315  478.969
 316  56.24327
 317  -178.1786
 318  83.51654
 319  -62.7952
 320  117.6513
 321  179.46
 322  -154.1247
 323  -65.23463
 324  -247.6294
 325  -235.4502
 326  -205.6976
 327  260.5736
 328  210.4423
 329  105.9777
 330  -131.3437
 331  102.9839
 332  185.7461
 333  168.3742
 334  242.4884
 335  37.94981
 336  147.0697
 337  35.16433
 338  -21.2954
 339  686.9498
 340  730.0354
 341  478.0432
 342  259.6805
 343  705.65
 344  865.8116
 345  368.3109
 346  508.2667
 347  780.3974
 348  143.3653
 349  56.53067
 350  27.50078
 351  -193.9325
 352  -188.49
 353  -20.82323
 354  92.78188
 355  -8.449665
 356  -214.3
 357  -191.0585
 358  55.53647
 359  215.3141
 360  506.811
 361  148.185
 362  118.0755
 363  -2.077569
 364  -190.7224
 365  -81.34893
 366  -117.0835
 367  -285.2931
 368  10.62715
 369  -69.70111
 370  117.5332
 371  -9.941622
 372  49.66576
 373  203.1861
 374  672.8839
 375  627.1411
 376  17.32075
 377  -269.1171
 378  -315.0248
 379  -145.9465
 380  -504.1671
 381  43.63238
 382  225.8944
 383  -49.55481
 384  -23.23421
 385  7.756455
 386  -216.0234
 387  -268.6207
 388  -32.15658
 389  -30.78384
 390  -11.72589
 391  -160.8086
 392  102.4376
 393  164.9768
 394  125.3354
 395  287.6412
 396  324.8027
 397  29.72969
 398  -141.2236
 399  -296.9522
 400  25.76558
 401  127.4911
 402  265.8142
 403  259.4748
 404  125.9034
 405  29.78052
 406  343.4244
 407  532.6808
 408  525.3245
 409  0.0701893
 410  -187.4829
 411  199.8653
 412  70.06187
 413  -259.6263
 414  -39.28399
 415  192.4343
 416  202.9844
 417  185.6587
 418  2.84437
 419  233.5002
 420  454.1257
 421  341.0374
 422  284.7759
 423  223.6577
 424  400.0182
 425  228.904
 426  80.56975
 427  -103.3533
 428  237.0453
 429  307.8632
 430  264.4813
 431  69.41499
 432  -102.5583
 433  -331.825
 434  -431.5458
 435  -457.7169
 436  -337.7348
 437  -219.1782
 438  -159.7187
 439  -678.7032
 440  -476.0729
 441  -362.9792
 442  -344.6982
 443  -656.6796
 444  -503.6454
 445  -300.7596
 446  -111.4636
 447  50.08227
 448  -101.4944
 449  15.96658
 450  -214.7988
 451  -434.7433
 452  -461.8658
 453  -610.0933
 454  -510.0929
 455  -565.3056
 456  -459.2043
 457  -192.065
 458  -399.0879
 459  -654.1168
 460  -118.3539
 461  -28.18885
 462  -386.1643
 463  -390.2611
 464  191.8902
 465  169.0598
 466  -49.27029
 467  -134.711
 468  -103.25
 469  325.1694
 470  122.6341
 471  -339.0711
 472  -301.0134
 473  -136.2926
 474  -133.5914
 475  6.680467
 476  -95.86375
 477  -274.0525
 478  -139.5826
 479  -184.8006
 480  160.6648
 481  -429.8459
 482  -115.1263
 483  -209.9909
 484  -161.6144
 485  -277.92
 486  -307.7007
 487  -180.3426
 488  -312.5645
 489  -237.9494
 490  -155.2669
 491  -361.039
 492  -102.8407
 493  -244.9599
 494  -319.3308
 495  -94.74809
 496  -154.2719
 497  -16.27682
 498  -300.9073
 499  18.17055
 500  -268.2854
 501  -407.977
 502  48.23893
 503  79.95999
 504  133.5781
 505  25.65541
 506  -61.42339
 507  -298.1328
 508  -213.6026
 509  4.606339
 510  51.05658
 511  -104.1375
