# Input file       =  1197900169.093376_cleaned.dat
# Candidate        =  PSR_0332+5434
# Telescope        =  AR
# Epoch_topo       =  58108.585510340003
# Epoch_bary       =  N/A
# T_sample         =  0.002
# Data Folded      =  7208960
# Data Avg         =  0.0330197361502628
# Data StdDev      =  1.00038300142245 
# Profile Bins     =  512
# Profile Avg      =  464.931646558593 
# Profile StdDev   =  118.704622426646 
# Reduced chi-sqr  =  1.140
# Prob(Noise)      <  0.0153   (~2.2 sigma)
# P_topo (ms)      =  714.54634633734   +/- 9.46e-05
# P'_topo (s/s)    =  -0                +/- 5.08e-11
# P''_topo (s/s^2) =  0                 +/- 2.28e-14
# P_bary (ms)      =  N/A
# P'_bary (s/s)    =  N/A
# P''_bary (s/s^2) =  N/A
# P_orb (s)        =  N/A
# asin(i)/c (s)    =  N/A
# eccentricity     =  N/A
# w (rad)          =  N/A
# T_peri           =  N/A
######################################################
   0  1011.605
   1  964.094
   2  830.9745
   3  633.71
   4  478.4662
   5  479.9849
   6  536.0442
   7  405.359
   8  350.9724
   9  420.7284
  10  487.9773
  11  492.2287
  12  500.5226
  13  397.4435
  14  379.9425
  15  449.5426
  16  448.9878
  17  513.3364
  18  464.5589
  19  542.2713
  20  591.8791
  21  578.8597
  22  539.7985
  23  590.3016
  24  580.9449
  25  368.5248
  26  449.3227
  27  531.2948
  28  462.0544
  29  544.5961
  30  586.3584
  31  447.7273
  32  426.6697
  33  534.5026
  34  514.808
  35  352.0617
  36  368.2009
  37  553.7892
  38  488.6798
  39  449.8921
  40  501.152
  41  535.1025
  42  467.0006
  43  408.3251
  44  492.8343
  45  506.9922
  46  528.9327
  47  481.4792
  48  457.0026
  49  457.8014
  50  410.5663
  51  466.8345
  52  563.7794
  53  591.5519
  54  394.7269
  55  453.7171
  56  529.2972
  57  518.548
  58  478.7747
  59  574.4756
  60  509.4226
  61  501.3862
  62  611.6527
  63  479.7766
  64  404.0913
  65  544.5081
  66  684.6802
  67  591.1175
  68  546.5856
  69  549.6924
  70  466.9913
  71  539.4968
  72  557.8586
  73  561.9601
  74  490.3542
  75  471.7143
  76  406.4973
  77  421.8451
  78  494.2401
  79  512.608
  80  506.218
  81  486.1132
  82  397.8634
  83  500.6645
  84  597.6308
  85  496.9468
  86  523.2121
  87  454.4401
  88  384.9155
  89  430.2184
  90  411.2126
  91  523.8777
  92  590.1779
  93  554.6708
  94  496.0728
  95  353.7808
  96  246.0846
  97  357.3109
  98  507.0369
  99  525.4035
 100  492.8289
 101  344.5863
 102  359.895
 103  560.1633
 104  504.1499
 105  413.8322
 106  361.3556
 107  436.8406
 108  504.7079
 109  507.8687
 110  407.7759
 111  429.7806
 112  432.1711
 113  408.7212
 114  446.2221
 115  361.8769
 116  411.793
 117  504.6866
 118  547.9241
 119  548.7225
 120  515.7207
 121  474.2831
 122  436.6631
 123  365.6755
 124  318.4989
 125  314.2936
 126  419.3557
 127  493.154
 128  468.7891
 129  457.1097
 130  414.8507
 131  442.7926
 132  452.5898
 133  390.4326
 134  369.5459
 135  447.7745
 136  417.1602
 137  415.1375
 138  473.8088
 139  442.9969
 140  430.3254
 141  409.6156
 142  516.993
 143  392.306
 144  399.4332
 145  487.4677
 146  351.0004
 147  236.0826
 148  407.8984
 149  542.0253
 150  428.6488
 151  387.9103
 152  473.1242
 153  457.0163
 154  371.4015
 155  408.7346
 156  491.9628
 157  509.8816
 158  436.5719
 159  462.6829
 160  488.4102
 161  386.589
 162  281.5762
 163  415.2238
 164  469.3595
 165  402.351
 166  356.0412
 167  302.8327
 168  295.7582
 169  316.2304
 170  357.6996
 171  495.837
 172  476.8084
 173  403.8804
 174  403.6554
 175  449.1809
 176  380.9549
 177  482.5209
 178  514.6291
 179  451.6015
 180  406.9288
 181  392.9695
 182  396.0757
 183  438.7273
 184  442.2633
 185  329.2357
 186  270.5897
 187  394.2451
 188  483.4371
 189  266.5598
 190  363.2668
 191  364.8417
 192  374.7071
 193  342.4016
 194  262.115
 195  390.6028
 196  437.3232
 197  548.8476
 198  540.1178
 199  529.3902
 200  582.6566
 201  539.8167
 202  422.7444
 203  480.816
 204  479.0876
 205  497.3116
 206  437.8076
 207  419.176
 208  403.9008
 209  447.7925
 210  416.3864
 211  378.3754
 212  415.2486
 213  496.4464
 214  552.9181
 215  476.8063
 216  510.8698
 217  503.0248
 218  403.5977
 219  385.8012
 220  252.7473
 221  279.0439
 222  447.5495
 223  480.4653
 224  414.6113
 225  345.7357
 226  375.4203
 227  484.6451
 228  422.0039
 229  300.9043
 230  449.9584
 231  539.6269
 232  488.2551
 233  466.4397
 234  355.771
 235  352.7527
 236  382.8093
 237  356.2448
 238  376.9743
 239  336.9731
 240  294.5946
 241  372.8968
 242  464.076
 243  474.8118
 244  383.4698
 245  432.5374
 246  524.8507
 247  473.6273
 248  437.8295
 249  483.403
 250  552.1715
 251  484.56
 252  519.6484
 253  461.8852
 254  376.6231
 255  432.2634
 256  538.0275
 257  520.1772
 258  436.7134
 259  466.4853
 260  455.21
 261  415.5239
 262  349.4185
 263  468.616
 264  597.3378
 265  505.9284
 266  580.4418
 267  536.2888
 268  475.0858
 269  371.0295
 270  463.8833
 271  452.5594
 272  478.383
 273  510.0078
 274  455.062
 275  392.2775
 276  379.4201
 277  444.3059
 278  365.2076
 279  366.2375
 280  428.1844
 281  368.2014
 282  526.5942
 283  484.4865
 284  387.0201
 285  414.9783
 286  436.6053
 287  387.6493
 288  404.1467
 289  375.3766
 290  496.2483
 291  369.8488
 292  335.6689
 293  491.5531
 294  535.9186
 295  411.4069
 296  406.7321
 297  354.0812
 298  447.6514
 299  544.9999
 300  554.9728
 301  597.3209
 302  579.8475
 303  572.7661
 304  591.3067
 305  504.5913
 306  573.927
 307  540.724
 308  431.7786
 309  493.0751
 310  487.908
 311  488.1481
 312  503.5237
 313  656.129
 314  696.293
 315  452.0211
 316  459.1266
 317  458.7676
 318  479.8359
 319  497.2915
 320  534.3486
 321  494.4419
 322  462.1091
 323  446.7459
 324  537.8375
 325  459.9047
 326  413.2247
 327  429.5739
 328  541.14
 329  476.87
 330  390.3597
 331  412.5625
 332  421.9055
 333  431.8703
 334  371.4799
 335  415.3614
 336  345.6017
 337  369.1805
 338  517.8647
 339  532.6202
 340  563.5252
 341  390.0601
 342  407.0639
 343  465.7277
 344  430.1927
 345  289.8228
 346  336.9955
 347  420.2718
 348  446.9042
 349  540.8807
 350  437.5364
 351  406.3126
 352  374.7973
 353  430.5284
 354  348.7013
 355  271.8487
 356  418.7079
 357  361.2489
 358  311.7592
 359  277.28
 360  328.9101
 361  384.7675
 362  436.5912
 363  468.5424
 364  434.0463
 365  392.4856
 366  444.536
 367  476.5515
 368  438.3323
 369  400.9221
 370  442.004
 371  350.8226
 372  340.2889
 373  377.9123
 374  471.1152
 375  489.0024
 376  390.8659
 377  473.611
 378  509.8582
 379  379.0125
 380  359.0685
 381  303.4026
 382  352.0324
 383  504.0726
 384  597.2427
 385  564.4639
 386  334.0198
 387  354.5499
 388  563.3525
 389  533.9667
 390  360.6188
 391  359.7884
 392  378.879
 393  426.6362
 394  427.2815
 395  473.9028
 396  441.0988
 397  430.8469
 398  474.7932
 399  465.4133
 400  406.4483
 401  521.7416
 402  530.2269
 403  473.6809
 404  467.0054
 405  417.2062
 406  423.4966
 407  398.0484
 408  392.7356
 409  417.8077
 410  523.0283
 411  492.7565
 412  413.5136
 413  453.2222
 414  506.3696
 415  432.0612
 416  456.8299
 417  408.0555
 418  489.2144
 419  595.2402
 420  531.2344
 421  530.86
 422  482.531
 423  474.2545
 424  456.9584
 425  472.2834
 426  306.621
 427  394.5599
 428  512.7731
 429  560.6384
 430  490.3957
 431  398.272
 432  363.1453
 433  417.6341
 434  458.7809
 435  503.7895
 436  516.2168
 437  553.191
 438  606.6935
 439  491.7528
 440  529.1049
 441  436.8734
 442  461.5312
 443  509.2284
 444  423.549
 445  574.3849
 446  543.5743
 447  502.3586
 448  548.0364
 449  560.1505
 450  582.6865
 451  513.9828
 452  493.4703
 453  578.1603
 454  515.3576
 455  346.3506
 456  501.8455
 457  603.7339
 458  482.2978
 459  404.3573
 460  508.6894
 461  548.4555
 462  425.2765
 463  458.5951
 464  517.8648
 465  509.9443
 466  592.6203
 467  600.5159
 468  639.5443
 469  560.1613
 470  566.5686
 471  576.493
 472  463.2289
 473  485.7029
 474  555.2281
 475  573.0781
 476  507.55
 477  434.1285
 478  540.7863
 479  625.1442
 480  603.424
 481  599.2786
 482  552.2351
 483  605.9471
 484  526.3279
 485  428.1161
 486  461.5075
 487  430.4394
 488  467.6613
 489  546.0499
 490  468.0306
 491  396.5322
 492  478.0312
 493  566.3085
 494  489.7732
 495  424.956
 496  432.2277
 497  374.6395
 498  418.8253
 499  518.8237
 500  448.2523
 501  423.3029
 502  512.9815
 503  497.1129
 504  532.397
 505  564.7826
 506  788.677
 507  718.1216
 508  641.4413
 509  773.894
 510  769.1772
 511  912.3219
