# Input file       =  1197124404.102007_cleaned.dat
# Candidate        =  PSR_0332+5434
# Telescope        =  AR
# Epoch_topo       =  58099.606748865823
# Epoch_bary       =  N/A
# T_sample         =  0.002
# Data Folded      =  7208960
# Data Avg         =  0.125649732514677
# Data StdDev      =  1.0003197267239  
# Profile Bins     =  512
# Profile Avg      =  1769.04596072065 
# Profile StdDev   =  118.697114303068 
# Reduced chi-sqr  =  0.741
# Prob(Noise)      <  1   (~0.0 sigma)
# P_topo (ms)      =  714.537523003755  +/- 0.000666
# P'_topo (s/s)    =  -0                +/- 3.58e-10
# P''_topo (s/s^2) =  0                 +/- 1.61e-13
# P_bary (ms)      =  N/A
# P'_bary (s/s)    =  N/A
# P''_bary (s/s^2) =  N/A
# P_orb (s)        =  N/A
# asin(i)/c (s)    =  N/A
# eccentricity     =  N/A
# w (rad)          =  N/A
# T_peri           =  N/A
######################################################
   0  1812.281
   1  1790.414
   2  1731.922
   3  1690.751
   4  1662.96
   5  1594.491
   6  1679.651
   7  1717.092
   8  1817.504
   9  1852.013
  10  1795.585
  11  1796.906
  12  1766.581
  13  1829.175
  14  1809.264
  15  1685.804
  16  1810.787
  17  1859.717
  18  1795.733
  19  1688.385
  20  1766.218
  21  1814.861
  22  1700.844
  23  1741.393
  24  1753.667
  25  1649.151
  26  1694.692
  27  1688.462
  28  1750.985
  29  1784.522
  30  1743.781
  31  1756.025
  32  1756.116
  33  1744.916
  34  1789.398
  35  1843.127
  36  1837.974
  37  1855.757
  38  1729.724
  39  1744.664
  40  1725.613
  41  1821.892
  42  1834.155
  43  1824.352
  44  1763.143
  45  1740.959
  46  1685.793
  47  1729.69
  48  1789.888
  49  1845.243
  50  1779.956
  51  1680.963
  52  1668.552
  53  1673.629
  54  1813.426
  55  1864.596
  56  1798.924
  57  1747.856
  58  1787.229
  59  1823.593
  60  1800.744
  61  1638.211
  62  1701.073
  63  1824.389
  64  1935.92
  65  1849.624
  66  1771.378
  67  1740.06
  68  1881.714
  69  1900.649
  70  1914.985
  71  1795.81
  72  1727.768
  73  1732.076
  74  1772.801
  75  1753.239
  76  1736.484
  77  1769.481
  78  1722.937
  79  1680.737
  80  1747.068
  81  1794.37
  82  1815.591
  83  1796.99
  84  1828.273
  85  1841.234
  86  1866.669
  87  1718.724
  88  1757.145
  89  1838.674
  90  1809.567
  91  1786.311
  92  1744.218
  93  1708.714
  94  1643.569
  95  1646.629
  96  1845.647
  97  1835.524
  98  1794.578
  99  1769.534
 100  1758.052
 101  1722.4
 102  1670.914
 103  1799.798
 104  1739.126
 105  1753.649
 106  1822.616
 107  1767.004
 108  1692.643
 109  1676.089
 110  1618.045
 111  1598.438
 112  1653.006
 113  1776.129
 114  1735.093
 115  1738.545
 116  1648.69
 117  1717.251
 118  1736.656
 119  1782.431
 120  1759.92
 121  1758.238
 122  1805.921
 123  1773.387
 124  1815.104
 125  1708.484
 126  1697.684
 127  1855.404
 128  1777.905
 129  1704.181
 130  1706.701
 131  1694.481
 132  1786.746
 133  1855.125
 134  1843.917
 135  1719.058
 136  1686.261
 137  1596.774
 138  1642.428
 139  1695.885
 140  1754.877
 141  1684.693
 142  1655.565
 143  1684.937
 144  1582.382
 145  1644.243
 146  1737.728
 147  1793.197
 148  1870.869
 149  1881.775
 150  1858.452
 151  1699.454
 152  1636.916
 153  1756.641
 154  1803.906
 155  1830.316
 156  1719.28
 157  1744.477
 158  1760.382
 159  1653.345
 160  1789.198
 161  1742.547
 162  1837.174
 163  1768.177
 164  1806.987
 165  1778.864
 166  1768.593
 167  1767.208
 168  1788.879
 169  1688.84
 170  1694.329
 171  1748.01
 172  1763.69
 173  1745.173
 174  1767.51
 175  1727.329
 176  1715.514
 177  1737.507
 178  1823.372
 179  1816.529
 180  1851.653
 181  1902.431
 182  1863.734
 183  1826.932
 184  1806.164
 185  1860.764
 186  1873.296
 187  1851.41
 188  1784.443
 189  1850.758
 190  1845.163
 191  1802.738
 192  1729.131
 193  1833.018
 194  1661.558
 195  1737.74
 196  1817.07
 197  1693.826
 198  1744.588
 199  1819.74
 200  1750.112
 201  1699.72
 202  1551.236
 203  1610.192
 204  1590.829
 205  1650.717
 206  1718.745
 207  1791.913
 208  1739.937
 209  1705.355
 210  1674.135
 211  1654.363
 212  1751.51
 213  1668.222
 214  1630.438
 215  1643.193
 216  1756.348
 217  1815.656
 218  1709.138
 219  1660.222
 220  1766.642
 221  1811.62
 222  1786.366
 223  1760.512
 224  1691.331
 225  1772.388
 226  1848.645
 227  1830.743
 228  1729.97
 229  1766.444
 230  1748.751
 231  1758.438
 232  1939.251
 233  1847.704
 234  1766.271
 235  1760.819
 236  1767.643
 237  1687.076
 238  1745.746
 239  1794.397
 240  1880.289
 241  1834.47
 242  1899.378
 243  1845.541
 244  1683.464
 245  1754.734
 246  1877.61
 247  1856.517
 248  1744.782
 249  1716.129
 250  1775.84
 251  1879.237
 252  1842.59
 253  1837.937
 254  1836.165
 255  1791.028
 256  1746.882
 257  1722.526
 258  1792.479
 259  1778.825
 260  1805.226
 261  1733.303
 262  1721.296
 263  1759.244
 264  1747.081
 265  1686.895
 266  1605.575
 267  1725.413
 268  1653.391
 269  1653.398
 270  1806.858
 271  1736.175
 272  1652.941
 273  1721.803
 274  1667.242
 275  1672.896
 276  1728.813
 277  1762.644
 278  1811.857
 279  1696.083
 280  1751.284
 281  1870.212
 282  1813.275
 283  1666.728
 284  1677.619
 285  1734.737
 286  1800.457
 287  1786.737
 288  1858.062
 289  1934.222
 290  1836.984
 291  1879.001
 292  1861.325
 293  1842.79
 294  1807.726
 295  1829.124
 296  1855.039
 297  1802.303
 298  1732.422
 299  1704.049
 300  1719.626
 301  1741.4
 302  1758.041
 303  1788.163
 304  1736.079
 305  1748.716
 306  1710.764
 307  1655.041
 308  1731.785
 309  1771.816
 310  1942.146
 311  1883.164
 312  1839.49
 313  1742.351
 314  1771.355
 315  1771.306
 316  1672.822
 317  1707.759
 318  1676.376
 319  1667.001
 320  1702.818
 321  1783.252
 322  1798.72
 323  1742.518
 324  1769.187
 325  1695.212
 326  1759.728
 327  1764.249
 328  1816.895
 329  1797.39
 330  1721.032
 331  1607.605
 332  1742.12
 333  1801.475
 334  1852.317
 335  1905.968
 336  1873.339
 337  1902.462
 338  1836.672
 339  1758.625
 340  1639.608
 341  1661.696
 342  1784.942
 343  1701.051
 344  1728.122
 345  1778.491
 346  1725.114
 347  1750.796
 348  1811.692
 349  1733.679
 350  1701.607
 351  1732.374
 352  1729.526
 353  1662.868
 354  1612.443
 355  1725.47
 356  1740.802
 357  1780.246
 358  1816.739
 359  1773.975
 360  1757.25
 361  1858.151
 362  1833.605
 363  1811.265
 364  1838.8
 365  1759.056
 366  1735.928
 367  1778.474
 368  1820.531
 369  1759.692
 370  1792.689
 371  1860.456
 372  1733.905
 373  1667.303
 374  1819.187
 375  1895.511
 376  1673.298
 377  1804.774
 378  1766.502
 379  1760.25
 380  1687.482
 381  1717.951
 382  1811.726
 383  1785.563
 384  1785.075
 385  1774.425
 386  1669.838
 387  1783.677
 388  1785.713
 389  1764.994
 390  1760.872
 391  1644.003
 392  1679.484
 393  1727.14
 394  1658.221
 395  1770.006
 396  1832.515
 397  1760.5
 398  1671.805
 399  1653.52
 400  1748.458
 401  1784.139
 402  1757.003
 403  1746.248
 404  1792.024
 405  1758.464
 406  1669.873
 407  1722.118
 408  1730.196
 409  1771.507
 410  1935.721
 411  1854.155
 412  1837.514
 413  1802.549
 414  1844.619
 415  1711.181
 416  1773.346
 417  1800.714
 418  1896.912
 419  1768.718
 420  1708.079
 421  1764.72
 422  1788.345
 423  1859.134
 424  2005.699
 425  2081.392
 426  2068.333
 427  1967.629
 428  1982.886
 429  1991.639
 430  1863.066
 431  1814.026
 432  1742.894
 433  1741.738
 434  1794.921
 435  1793.879
 436  1744.555
 437  1871.369
 438  1878.644
 439  1844.302
 440  1831.827
 441  1807.433
 442  1803.368
 443  1736.156
 444  1794.408
 445  1750.468
 446  1680.595
 447  1770.914
 448  1771.528
 449  1728.437
 450  1742.447
 451  1808.709
 452  1820.05
 453  1766.828
 454  1768.601
 455  1708.725
 456  1677.943
 457  1818.866
 458  1800.462
 459  1922.01
 460  1800.888
 461  1756.184
 462  1814.857
 463  1784.419
 464  1795.941
 465  1805.088
 466  1899.488
 467  1803.826
 468  1714.349
 469  1754.274
 470  1673.157
 471  1791.895
 472  1865.026
 473  1720.127
 474  1711.042
 475  1787.433
 476  1732.936
 477  1765.862
 478  1821.481
 479  1747.573
 480  1710.727
 481  1820.724
 482  1860.88
 483  1802.382
 484  1755.784
 485  1838.093
 486  1753.027
 487  1841.071
 488  1908.314
 489  1905.376
 490  1792.383
 491  1764.732
 492  1784.47
 493  1817.668
 494  1719.65
 495  1656.472
 496  1725.832
 497  1724.419
 498  1786.166
 499  1735.124
 500  1778.418
 501  1794.043
 502  1771.304
 503  1819.443
 504  1911.408
 505  1844.085
 506  1824.233
 507  1713.345
 508  1826.924
 509  1902.009
 510  1917.636
 511  1879.448
