# Input file       =  1197067746.109697_cleaned.dat
# Candidate        =  PSR_0332+5434
# Telescope        =  AR
# Epoch_topo       =  58098.950985065938
# Epoch_bary       =  N/A
# T_sample         =  0.002
# Data Folded      =  7340032
# Data Avg         =  0.285988995203558
# Data StdDev      =  4.92869457241355 
# Profile Bins     =  512
# Profile Avg      =  4099.98930496002 
# Profile StdDev   =  590.127566528762 
# Reduced chi-sqr  =  0.574
# Prob(Noise)      <  1   (~0.0 sigma)
# P_topo (ms)      =  714.537212903552  +/- 0.000438
# P'_topo (s/s)    =  -0                +/- 2.31e-10
# P''_topo (s/s^2) =  0                 +/- 1.02e-13
# P_bary (ms)      =  N/A
# P'_bary (s/s)    =  N/A
# P''_bary (s/s^2) =  N/A
# P_orb (s)        =  N/A
# asin(i)/c (s)    =  N/A
# eccentricity     =  N/A
# w (rad)          =  N/A
# T_peri           =  N/A
######################################################
   0  3804.568
   1  3832.503
   2  3894.029
   3  3633.583
   4  3464.23
   5  3195.238
   6  3274.199
   7  3420.694
   8  3600.916
   9  3897.933
  10  3887.598
  11  3701.874
  12  3547.592
  13  3597.608
  14  3668.735
  15  3711.698
  16  3728.278
  17  3723.51
  18  3635.065
  19  4040.093
  20  3947.342
  21  4008.555
  22  4425.013
  23  4559.92
  24  3960.641
  25  4440.223
  26  4450.975
  27  4247.529
  28  4824.09
  29  5082.095
  30  5188.606
  31  5031.22
  32  4205.358
  33  3885.126
  34  3875.179
  35  3661.578
  36  3423.46
  37  3422.941
  38  3656.292
  39  3818.311
  40  3845.729
  41  4062.129
  42  4029.35
  43  4192.52
  44  3801.418
  45  4036.159
  46  4282.179
  47  4404.156
  48  4240.764
  49  4164.157
  50  4128.091
  51  4291.799
  52  4663.006
  53  4015.627
  54  3501.626
  55  3726.615
  56  4054.687
  57  4201.632
  58  4012.354
  59  4258.847
  60  4468.163
  61  4447.079
  62  4157.891
  63  4093.148
  64  4491.235
  65  4981.615
  66  4317.164
  67  4282.146
  68  4050.738
  69  4026.468
  70  3825.048
  71  3827.935
  72  3987.702
  73  4242.354
  74  4241.769
  75  4109.929
  76  4009.867
  77  3401.297
  78  3435.544
  79  4323.222
  80  3963.997
  81  3874.214
  82  3855.468
  83  4080.28
  84  4206.775
  85  3805.947
  86  4166.243
  87  4472.581
  88  4291.225
  89  3878.917
  90  4095.317
  91  4309.295
  92  4079.116
  93  3848.629
  94  4315.578
  95  4159.561
  96  4163.582
  97  4321.812
  98  3858.691
  99  3909.12
 100  4054.146
 101  4269.979
 102  4206.065
 103  4020.764
 104  4132.652
 105  3931.677
 106  4080.504
 107  3817.832
 108  4131.019
 109  3878.15
 110  3249.793
 111  3542.091
 112  3842.534
 113  4031.25
 114  4345.376
 115  4522.538
 116  4401.726
 117  4336.105
 118  4166.942
 119  4109.526
 120  3723.635
 121  4341.62
 122  4437.405
 123  4172.776
 124  4112.598
 125  4245.091
 126  3725.893
 127  3477.871
 128  3873.407
 129  3979.449
 130  4029.268
 131  3751.301
 132  4083.456
 133  4157.672
 134  3752.834
 135  4238.329
 136  4410.064
 137  4399.398
 138  3694.675
 139  4010.526
 140  3931.085
 141  3775.652
 142  4333.833
 143  4869.642
 144  4400.627
 145  4278.569
 146  3891.42
 147  3721.889
 148  3671.685
 149  3683.21
 150  3650.997
 151  4128.507
 152  4081.703
 153  3934.819
 154  4405.647
 155  4082.128
 156  4220.398
 157  4164.67
 158  4627.368
 159  4504.244
 160  4252.794
 161  4285.608
 162  4053.794
 163  4002.092
 164  4129.959
 165  4216.859
 166  4109.232
 167  4193.519
 168  3821.495
 169  4027.851
 170  4157.323
 171  4285.569
 172  4105.212
 173  4068.906
 174  3963.584
 175  3733.409
 176  3828.063
 177  4157.246
 178  4242.624
 179  4084.595
 180  3961.938
 181  4207.49
 182  4123.224
 183  4618.733
 184  4604.292
 185  3620.556
 186  3744.584
 187  4115.492
 188  4129.514
 189  4228.707
 190  4460.778
 191  4075.927
 192  4117.102
 193  4150.642
 194  4356.54
 195  4236.993
 196  4333.307
 197  4565.315
 198  4377.938
 199  3993.37
 200  4067.254
 201  4116.174
 202  3797.404
 203  3744.131
 204  4133.431
 205  4469.941
 206  3773.91
 207  3930.261
 208  3896.113
 209  4187.546
 210  4151.454
 211  4476.326
 212  4481.778
 213  4255.185
 214  4082.094
 215  3753.044
 216  3353.225
 217  3953.123
 218  4483.528
 219  4017.807
 220  3943.816
 221  4433.193
 222  4349.9
 223  4314.593
 224  4462.195
 225  4318.179
 226  4193.72
 227  3978.523
 228  4178.079
 229  4229.42
 230  4676.587
 231  4704.578
 232  4703.334
 233  4839.247
 234  4417.727
 235  4134.279
 236  4293.283
 237  4141.036
 238  4241.29
 239  4411.92
 240  4018.434
 241  3499.145
 242  3867.05
 243  3736.113
 244  3764.804
 245  3776.557
 246  3939.535
 247  4040.706
 248  3790.963
 249  3445.898
 250  3796.642
 251  3870.227
 252  3686.283
 253  4009.284
 254  3885.637
 255  4052.202
 256  4100.331
 257  3653.537
 258  3562.346
 259  4090.703
 260  4191.275
 261  3819.919
 262  3910.606
 263  4248.472
 264  4042.961
 265  4439.021
 266  4727.317
 267  4349.989
 268  4479.695
 269  4100.268
 270  4027.671
 271  3911.884
 272  4189.07
 273  4391.434
 274  3962.112
 275  3919.71
 276  4224.121
 277  4191.572
 278  4249.94
 279  3816.196
 280  4381.402
 281  4231.616
 282  3746.424
 283  3789.763
 284  4100.635
 285  3926.857
 286  4099.134
 287  4530.663
 288  4613.503
 289  4474.665
 290  4518.984
 291  4148.09
 292  4202.262
 293  4194.096
 294  4261.546
 295  4352.47
 296  4271.854
 297  4357.876
 298  4023.517
 299  4160.35
 300  4169.528
 301  4703.585
 302  4680.941
 303  4556.465
 304  4495.294
 305  4504.404
 306  4101.198
 307  3804.647
 308  3841.426
 309  3814.466
 310  3752.832
 311  3580.009
 312  3905.402
 313  3670.073
 314  3423.123
 315  3551.227
 316  3270.06
 317  3585.627
 318  4282.444
 319  4096.522
 320  4038.89
 321  4017.633
 322  3788.604
 323  3935.517
 324  4064.965
 325  4234.036
 326  4338.82
 327  3875.013
 328  4053.884
 329  4123.338
 330  4530.65
 331  4081.344
 332  3810.476
 333  3920.515
 334  3948.931
 335  3969.63
 336  3706.538
 337  4152.789
 338  4394.587
 339  4166.007
 340  4282.706
 341  4066.399
 342  4344.388
 343  4364.379
 344  3978.735
 345  3785.677
 346  4030.465
 347  4132.913
 348  4022.825
 349  4003.486
 350  3804.415
 351  3790.49
 352  3948.597
 353  4020.436
 354  3821.14
 355  3945.902
 356  3743.509
 357  3980.442
 358  3987.974
 359  3981.143
 360  4420.505
 361  4317.744
 362  4339.761
 363  3947.968
 364  3944.64
 365  4150.565
 366  4326.474
 367  4035.383
 368  4032.549
 369  4261.929
 370  3897.441
 371  3933.311
 372  4343.411
 373  3995.501
 374  3931.036
 375  4207.241
 376  4907.811
 377  4802.773
 378  4261.665
 379  4118.6
 380  3934.131
 381  4048.497
 382  4073.328
 383  4014.502
 384  4342.51
 385  4748.091
 386  4249.625
 387  4274.595
 388  4302.377
 389  4376.943
 390  4225.244
 391  4677.412
 392  4681.098
 393  4445.633
 394  4308.375
 395  4296.833
 396  4251.563
 397  4192.75
 398  4457.621
 399  4486.128
 400  4417.759
 401  4315.349
 402  4052.271
 403  4559.546
 404  4426.7
 405  3918.138
 406  4258.017
 407  4601.277
 408  4940.161
 409  4717.277
 410  4433.428
 411  4424.934
 412  4072.428
 413  4523.708
 414  4730.889
 415  4410.66
 416  4424.017
 417  4286.109
 418  3994.534
 419  3861.494
 420  3942.732
 421  4719.219
 422  4619.83
 423  4669.874
 424  4565.947
 425  4291.475
 426  4797.99
 427  4169.954
 428  3797.291
 429  3845.323
 430  3871.953
 431  3322.281
 432  3518.961
 433  3955.296
 434  4097.946
 435  4446.221
 436  4491.515
 437  4296.266
 438  3998.872
 439  3917.981
 440  3796.283
 441  3842.232
 442  4048.474
 443  4044.446
 444  4014.082
 445  3335.546
 446  3512.098
 447  3637.15
 448  3962.749
 449  3401.231
 450  3466.221
 451  3772.521
 452  4098.059
 453  3981.976
 454  3611.215
 455  3911.105
 456  3928.74
 457  3735.156
 458  3771.465
 459  4152.627
 460  4090.238
 461  4098.562
 462  4224.424
 463  4294.462
 464  3794.338
 465  4104.464
 466  4244.766
 467  4154.872
 468  3971.331
 469  3944.624
 470  3908.073
 471  4131.194
 472  4183.096
 473  4521.571
 474  4387.018
 475  4199.522
 476  3682.723
 477  3463.907
 478  3406.63
 479  3998.519
 480  4178.788
 481  4114.206
 482  4207.473
 483  4492.195
 484  4552.334
 485  4102.505
 486  4215.059
 487  3794.77
 488  3951.55
 489  3889.363
 490  4414.104
 491  4818.332
 492  4157.766
 493  4286.031
 494  4285.349
 495  4056.566
 496  4418.298
 497  4874.492
 498  4264.058
 499  3970.653
 500  4556.076
 501  4716.078
 502  4006.5
 503  3534.443
 504  4200.74
 505  4493.415
 506  4003.709
 507  4183.1
 508  4346.892
 509  3782.35
 510  3870.233
 511  3676.665
