# Input file       =  1198675532.112296-PSRB0329-2ms-sampling-dd.dat
# Candidate        =  PSR_0332+5434
# Telescope        =  AR
# Epoch_topo       =  58117.559619355277
# Epoch_bary       =  N/A
# T_sample         =  0.002
# Data Folded      =  7208960
# Data Avg         =  1.60540491222359e-09
# Data StdDev      =  44.6518323988784 
# Profile Bins     =  512
# Profile Avg      =  -0.000609214118308048
# Profile StdDev   =  5298.34963012177 
# Reduced chi-sqr  =  1.083
# Prob(Noise)      <  0.0958   (~1.3 sigma)
# P_topo (ms)      =  714.554510622567  +/- 0.000212
# P'_topo (s/s)    =  -0                +/- 1.14e-10
# P''_topo (s/s^2) =  0                 +/- 5.11e-14
# P_bary (ms)      =  N/A
# P'_bary (s/s)    =  N/A
# P''_bary (s/s^2) =  N/A
# P_orb (s)        =  N/A
# asin(i)/c (s)    =  N/A
# eccentricity     =  N/A
# w (rad)          =  N/A
# T_peri           =  N/A
######################################################
   0  -2017.054
   1  -1993.138
   2  -2360.995
   3  -2891.998
   4  -3732.834
   5  -3635.152
   6  -3845.444
   7  -1694.299
   8  -738.9819
   9  173.5856
  10  -93.28452
  11  1064.758
  12  2063.012
  13  3123.569
  14  5818.875
  15  7220.617
  16  5754.142
  17  6968.88
  18  10968.62
  19  11196.14
  20  13688.2
  21  9383.779
  22  4895.377
  23  1661.995
  24  3616.62
  25  5827.527
  26  5131.31
  27  3560.567
  28  1079.391
  29  -1891.777
  30  -2337.451
  31  -2217.667
  32  -2242.034
  33  -3177.354
  34  -3332.917
  35  -3639.18
  36  -2610.161
  37  -2083.835
  38  -1941.345
  39  -2736.979
  40  -2884.241
  41  -3301.422
  42  -3418.705
  43  -3671.137
  44  -3382.797
  45  -3676.336
  46  -3505.558
  47  -3212.124
  48  -3694.012
  49  -2969.359
  50  -2356.452
  51  -2706.682
  52  -3423.279
  53  -4147.436
  54  -4332.92
  55  -4447.651
  56  -4397.02
  57  -4526.853
  58  -4988.129
  59  -4388.82
  60  -4200.581
  61  -4230.684
  62  -4561.039
  63  -4054.983
  64  -4735.457
  65  -4030.059
  66  -2919.392
  67  -2587.347
  68  -2459.962
  69  -2152.514
  70  -3131.434
  71  -3206.69
  72  -3017.31
  73  -2307.689
  74  -1980.943
  75  -2136.329
  76  -1693.518
  77  -2491.607
  78  -3052.584
  79  -3306.893
  80  -3458.253
  81  -3189.001
  82  -3215.327
  83  -3272.649
  84  -2698.661
  85  -2824.634
  86  -3151.407
  87  -3417.882
  88  -3481.84
  89  -3670.927
  90  -4090.666
  91  -3605.359
  92  -3309.176
  93  -3210.23
  94  -3550.358
  95  -3153.548
  96  -2953.41
  97  -2434.13
  98  -2677.18
  99  -2205.24
 100  -1742.245
 101  -1833.045
 102  -1411.201
 103  790.0828
 104  3611.427
 105  4799.333
 106  5589.918
 107  4480.951
 108  2766.587
 109  -35.74187
 110  4092.666
 111  4402.775
 112  4984.855
 113  4015.218
 114  2134.946
 115  1150.754
 116  741.4373
 117  1566.854
 118  883.0804
 119  -670.3742
 120  -2175.866
 121  -2939.029
 122  -2262.367
 123  -1855.353
 124  -1287.032
 125  -1926.599
 126  -1364.352
 127  -2503.408
 128  -3340.485
 129  -2662.854
 130  -1488.305
 131  -718.3821
 132  -413.1316
 133  -1172.667
 134  -1234.398
 135  413.8935
 136  935.7802
 137  1197.455
 138  2510.669
 139  949.5249
 140  -218.1792
 141  1515.233
 142  2237.173
 143  1817.629
 144  632.694
 145  -1242.28
 146  -2446.04
 147  -3250.049
 148  -3311.374
 149  -3219.306
 150  -3157.252
 151  -2600.922
 152  -2367.23
 153  -2230.583
 154  -2372.172
 155  -1822.218
 156  -1005.574
 157  259.0174
 158  2390.755
 159  3939.07
 160  3392.414
 161  1562.914
 162  752.0885
 163  1924.352
 164  3940.967
 165  5346.768
 166  6198.065
 167  4852.345
 168  3806.873
 169  3279.356
 170  4424.427
 171  6464.979
 172  6830.896
 173  6082.077
 174  4620.135
 175  3319.474
 176  2918.961
 177  1660.376
 178  2408.147
 179  2208.895
 180  1168.167
 181  -400.4995
 182  -1946.984
 183  -2760.135
 184  -1640.457
 185  869.2163
 186  2868.329
 187  3461.315
 188  3025.567
 189  -967.3242
 190  -2697.609
 191  -1918.59
 192  2936.152
 193  6494.525
 194  6955.37
 195  6476.329
 196  2175.925
 197  -751.5638
 198  -2261.544
 199  -1810.146
 200  945.0554
 201  2093.645
 202  1985.645
 203  -128.2114
 204  -1319.394
 205  -2061.141
 206  -1461.977
 207  -557.0682
 208  -756.7604
 209  -1085.617
 210  -1036.083
 211  -1574.918
 212  -1178.614
 213  -1306.773
 214  -808.7322
 215  -1052.752
 216  -872.8019
 217  -1337.046
 218  -2260.796
 219  -2754.214
 220  -2753.544
 221  -3149.783
 222  -2927.995
 223  -2201.427
 224  -1488.314
 225  -1924.625
 226  -1887.42
 227  -2687.932
 228  -3491.318
 229  -3559.421
 230  -2632.595
 231  -2011.403
 232  -1376.068
 233  -559.8112
 234  -918.274
 235  -642.1032
 236  -649.9008
 237  -530.7096
 238  465.2057
 239  879.5495
 240  2173.062
 241  2132.669
 242  1866.619
 243  -394.9699
 244  -1533.466
 245  -812.7828
 246  -880.7729
 247  37.40995
 248  39.41405
 249  -1458.148
 250  -2369.917
 251  -2348.948
 252  -1099.082
 253  283.6879
 254  2067.141
 255  3780.059
 256  3760.326
 257  2754.907
 258  1196.813
 259  -1258.348
 260  -900.2913
 261  496.199
 262  1277.473
 263  840.5618
 264  216.3695
 265  -920.4962
 266  -2406.666
 267  -2792.52
 268  -2982.796
 269  -3041.807
 270  -3158.544
 271  -2830.492
 272  -2739.948
 273  -3094.698
 274  -3000.272
 275  -2533.705
 276  -2634.746
 277  -2124.165
 278  1854.954
 279  2843.723
 280  4348.717
 281  6491.827
 282  1328.116
 283  -721.5397
 284  -825.3834
 285  4574.168
 286  5465.47
 287  5925.018
 288  3789.682
 289  349.5475
 290  -1310.746
 291  -2103.748
 292  -1535.812
 293  -1891.025
 294  -1523.966
 295  -1809.34
 296  -2345.107
 297  -2043.746
 298  1206.587
 299  3138.977
 300  4693.697
 301  4368.319
 302  2794.988
 303  796.279
 304  352.1052
 305  1528.095
 306  2233.485
 307  2741.093
 308  2969.803
 309  2586.423
 310  1157.476
 311  1401.22
 312  595.5474
 313  -1036.595
 314  -2180.618
 315  -1837.676
 316  -1798.453
 317  -1311.394
 318  -1242.983
 319  -866.1445
 320  -1677.68
 321  -2694.667
 322  -2839.746
 323  -3283.06
 324  -3252.223
 325  -3185.032
 326  -3029.644
 327  -1172.172
 328  316.9597
 329  2317.462
 330  2336.736
 331  893.6603
 332  -1213.832
 333  -4931.759
 334  -1162.456
 335  1452.191
 336  1983.835
 337  2744.025
 338  1709.021
 339  2.351935
 340  -1773.612
 341  -2475.166
 342  -2542.219
 343  -3305.105
 344  -954.1197
 345  948.3565
 346  1995.575
 347  1318.307
 348  46.87527
 349  -2759.432
 350  -3467.474
 351  -3538.14
 352  -1246.056
 353  -1161.796
 354  -1116.682
 355  -1463.658
 356  -2676.733
 357  -2972.906
 358  -3219.781
 359  -3091.813
 360  -2565.324
 361  -2582.224
 362  -2436.992
 363  -2964.029
 364  -2717.537
 365  -2325.048
 366  -2950.646
 367  -1867.07
 368  -1545.965
 369  -710.4986
 370  -373.4671
 371  -1284.614
 372  -2148.063
 373  -2922.152
 374  -1048.933
 375  -1226.502
 376  -1530.089
 377  -1264.635
 378  -1883.14
 379  -2400.7
 380  -2630.763
 381  -2481.566
 382  -2834.007
 383  -2660.664
 384  -2340.524
 385  -1156.916
 386  -1074.623
 387  -1254.515
 388  -1897.372
 389  -2756.315
 390  -2002.515
 391  -1636.71
 392  -847.0134
 393  -970.792
 394  -1350.035
 395  -2868.235
 396  -2363.056
 397  -1623.366
 398  -1400.818
 399  -1023.251
 400  -838.2066
 401  -845.6113
 402  -1740.584
 403  -851.653
 404  -404.0769
 405  163.9952
 406  686.0594
 407  456.2796
 408  -789.7256
 409  -2391.216
 410  -1602.082
 411  -2724.177
 412  -3311.306
 413  -2131.093
 414  -1693.545
 415  -1121.263
 416  -943.0156
 417  -2485.709
 418  -3013.313
 419  -3190.086
 420  -1256.397
 421  -738.239
 422  -626.3973
 423  -886.2119
 424  -1675.812
 425  -2371.392
 426  -1532.682
 427  1270.887
 428  2424.02
 429  2260.266
 430  2580.508
 431  -726.9604
 432  -1198.686
 433  -275.3193
 434  3775.758
 435  12155.02
 436  22185.24
 437  23250.31
 438  19807.58
 439  16135.1
 440  949.8939
 441  981.9722
 442  6482.049
 443  21337.18
 444  18970.64
 445  16897.98
 446  13942.97
 447  -1501.488
 448  -1600.678
 449  1009.868
 450  3215.429
 451  3850.36
 452  2819.923
 453  73.51846
 454  -1691.971
 455  -2027.883
 456  3797.273
 457  5304.064
 458  5719.443
 459  4073.141
 460  636.4821
 461  -1144.022
 462  -1374.726
 463  -1365.599
 464  -1976.775
 465  -2294.458
 466  -2323.392
 467  -2746.472
 468  -2261.92
 469  -835.9249
 470  3004.736
 471  11748.87
 472  12573.48
 473  12910.29
 474  12639.84
 475  1399.606
 476  1788.391
 477  3780.533
 478  12401.48
 479  11439.69
 480  9891.34
 481  7372.863
 482  -177.17
 483  -2147.894
 484  -1379.609
 485  -1982.835
 486  -1969.344
 487  -2095.624
 488  -2346.331
 489  -1351.353
 490  -99.65353
 491  225.7114
 492  641.6038
 493  -273.0681
 494  -1422.289
 495  -1984.102
 496  -2778.949
 497  -2224.346
 498  -1982.132
 499  -1617.983
 500  -1054.317
 501  -1556.23
 502  -1942.853
 503  -1921.034
 504  -3140.004
 505  -2448.829
 506  -2295.04
 507  -1714.08
 508  -1458.335
 509  -1595.409
 510  -2055.982
 511  -2150.082
