# Input file       =  1198173788.111938_cleaned.dat
# Candidate        =  PSR_0332+5434
# Telescope        =  AR
# Epoch_topo       =  58111.752397128912
# Epoch_bary       =  N/A
# T_sample         =  0.002
# Data Folded      =  7340032
# Data Avg         =  0.154741338917769
# Data StdDev      =  3.84192678504389 
# Profile Bins     =  256
# Profile Avg      =  4436.700298167   
# Profile StdDev   =  650.546101026818 
# Reduced chi-sqr  =  0.728
# Prob(Noise)      <  1   (~0.0 sigma)
# P_topo (ms)      =  714.549349975497  +/- 0.0009
# P'_topo (s/s)    =  -0                +/- 4.75e-10
# P''_topo (s/s^2) =  0                 +/- 2.1e-13
# P_bary (ms)      =  N/A
# P'_bary (s/s)    =  N/A
# P''_bary (s/s^2) =  N/A
# P_orb (s)        =  N/A
# asin(i)/c (s)    =  N/A
# eccentricity     =  N/A
# w (rad)          =  N/A
# T_peri           =  N/A
######################################################
   0  4524.57
   1  4508.877
   2  4291.351
   3  4882.007
   4  4965.687
   5  4688.731
   6  5136.555
   7  5583.089
   8  4180.474
   9  4991.679
  10  4513.768
  11  4143.673
  12  4005.463
  13  4507.234
  14  4447.43
  15  3989.363
  16  4585.551
  17  4548.3
  18  4805.769
  19  4047.185
  20  4591.892
  21  3958.014
  22  4203.307
  23  3825.168
  24  3880.029
  25  4536.538
  26  4043.426
  27  4427.693
  28  4286.014
  29  4231.819
  30  3736.178
  31  4081.37
  32  3837.06
  33  3898.104
  34  4639.376
  35  4704.69
  36  4744.998
  37  4608.081
  38  5585.744
  39  4879.01
  40  4141.322
  41  4356.511
  42  4510.732
  43  5213.42
  44  4780.059
  45  4499.656
  46  4942.836
  47  4676.021
  48  4203.104
  49  4314.369
  50  4350.27
  51  4455.456
  52  4773.633
  53  4691.479
  54  4632.209
  55  4582.955
  56  4282.428
  57  4568.925
  58  5331.989
  59  5375.532
  60  5097.365
  61  4714.54
  62  4772.018
  63  4736.605
  64  4677.028
  65  4073.644
  66  4642.937
  67  4921.053
  68  4720.343
  69  4021.894
  70  4074.348
  71  5050.528
  72  4794.573
  73  4327.11
  74  4709.355
  75  5076.013
  76  4105.355
  77  4257.548
  78  4526.171
  79  4061.417
  80  4346.423
  81  4189.774
  82  4169.146
  83  4264.278
  84  3500.923
  85  3775.449
  86  3716.861
  87  3835.099
  88  4333.595
  89  4171.204
  90  3421.147
  91  3788.415
  92  4483.265
  93  4992.289
  94  4777.509
  95  4093.722
  96  3760.654
  97  4118.29
  98  4007.084
  99  3520.307
 100  3980.078
 101  3655.781
 102  4238.9
 103  4016.956
 104  4141.191
 105  4568.608
 106  4179.809
 107  4596.828
 108  4857.436
 109  5083.074
 110  4309.906
 111  4556.355
 112  4856.163
 113  5159.751
 114  4247.681
 115  4153.559
 116  4789.686
 117  4259.302
 118  4477.187
 119  4179.374
 120  3884.427
 121  3913.462
 122  4560.64
 123  4157.239
 124  4693.474
 125  4318.625
 126  4197.128
 127  4408.848
 128  4558.887
 129  4351.261
 130  3897.373
 131  3842.439
 132  3858.199
 133  3857.583
 134  3574.701
 135  3930.41
 136  3997.758
 137  4288.479
 138  4393.65
 139  3643.47
 140  3681.121
 141  3948.188
 142  4234.078
 143  4545.221
 144  3590.03
 145  3745.617
 146  4793.418
 147  4741.925
 148  4428.869
 149  4314.062
 150  5144.595
 151  4946.922
 152  4440.815
 153  4313.171
 154  5477.923
 155  6262.892
 156  5914.055
 157  4983.63
 158  4707.933
 159  4674.071
 160  3750.758
 161  4641.828
 162  4247.635
 163  3578.657
 164  3888.306
 165  3957.622
 166  4240.574
 167  4283.117
 168  4251.193
 169  4865.239
 170  4510.803
 171  4124.521
 172  4726.333
 173  4304.168
 174  3556.825
 175  3869.9
 176  3598.422
 177  4100.447
 178  3577.331
 179  4496.332
 180  4165.237
 181  3344.117
 182  3380.538
 183  4267.958
 184  4079.099
 185  3759.411
 186  5305.214
 187  5316.652
 188  5067.46
 189  4185.364
 190  4663.126
 191  4703.602
 192  4607.438
 193  5034.15
 194  4692.709
 195  4373.292
 196  4133.357
 197  4641.523
 198  4390.631
 199  4759.012
 200  4607.974
 201  5031.469
 202  5065.013
 203  4500.463
 204  4308.974
 205  4410.867
 206  5035.149
 207  5026.141
 208  4434.157
 209  4502.084
 210  5217.586
 211  5360.882
 212  5014.864
 213  4650.692
 214  4966.662
 215  5269.893
 216  4994.103
 217  4818.925
 218  5128.324
 219  5455.649
 220  5102.981
 221  4866.883
 222  3967.122
 223  4839.275
 224  4720.883
 225  5054.604
 226  4651.01
 227  4663.975
 228  4335.748
 229  4134.86
 230  4337.772
 231  4696.339
 232  4210.236
 233  4537.371
 234  3997.197
 235  3842.087
 236  4443.352
 237  4333.917
 238  4249.48
 239  3475.394
 240  4561.162
 241  3871.842
 242  4268.567
 243  4100.548
 244  3838.39
 245  4689.362
 246  4803.683
 247  4174.039
 248  4952.909
 249  4681.126
 250  4772.454
 251  4936.826
 252  4780.676
 253  4322.523
 254  4186.152
 255  4277.088
