# Input file       =  1198503255.12908_cleaned.dat
# Candidate        =  PSR_0332+5434
# Telescope        =  AR
# Epoch_topo       =  58115.565672790275
# Epoch_bary       =  N/A
# T_sample         =  0.002
# Data Folded      =  7471104
# Data Avg         =  0.205024731508864
# Data StdDev      =  6.2631575833434  
# Profile Bins     =  256
# Profile Avg      =  5983.20920625902 
# Profile StdDev   =  1069.95557795457 
# Reduced chi-sqr  =  0.614
# Prob(Noise)      <  1   (~0.0 sigma)
# P_topo (ms)      =  714.552767226339  +/- 7.18e-05
# P'_topo (s/s)    =  -0                +/- 3.72e-11
# P''_topo (s/s^2) =  0                 +/- 1.62e-14
# P_bary (ms)      =  N/A
# P'_bary (s/s)    =  N/A
# P''_bary (s/s^2) =  N/A
# P_orb (s)        =  N/A
# asin(i)/c (s)    =  N/A
# eccentricity     =  N/A
# w (rad)          =  N/A
# T_peri           =  N/A
######################################################
   0  6318.197
   1  6415.368
   2  5099.256
   3  5117.587
   4  5538.486
   5  6071.812
   6  5936.65
   7  6148.906
   8  6959.562
   9  6826.348
  10  5015.933
  11  6286.568
  12  5672.334
  13  5784.716
  14  6748.683
  15  7978.233
  16  6754.275
  17  6732.682
  18  6443.911
  19  5757.864
  20  6121.287
  21  6679.071
  22  5856.645
  23  6069.846
  24  6552.862
  25  5589.465
  26  6177.131
  27  5336.594
  28  5616.872
  29  4948.507
  30  4769.638
  31  4339.349
  32  5248.713
  33  5380.956
  34  5162.283
  35  4695.585
  36  6048.322
  37  5966.691
  38  5726.562
  39  5035.421
  40  5396.457
  41  5838.983
  42  5065.478
  43  5192.291
  44  5843.116
  45  6555.785
  46  6469.542
  47  6077.623
  48  5646.15
  49  5907.078
  50  6776.613
  51  6371.326
  52  5309.209
  53  5435.53
  54  6710.68
  55  5370.984
  56  5706.899
  57  6157.325
  58  6524.847
  59  5300.513
  60  6229.889
  61  6620.945
  62  6650.917
  63  6085.874
  64  6424.864
  65  7028.292
  66  5621.742
  67  6479.437
  68  6137.457
  69  6855.514
  70  7279.175
  71  6963.8
  72  5931.499
  73  6685.272
  74  5250.163
  75  5655.935
  76  3595.363
  77  4289.115
  78  5250.366
  79  6131.615
  80  6285.103
  81  5651.575
  82  6291.281
  83  7351.32
  84  5403.595
  85  5012.089
  86  6055.22
  87  6789.265
  88  5093.157
  89  5841.961
  90  6538.178
  91  6596.871
  92  6693.327
  93  5571.669
  94  5725.376
  95  6631.701
  96  6743.374
  97  5058.912
  98  5768.732
  99  6218.021
 100  6373.554
 101  5036.539
 102  5212.034
 103  5236.244
 104  5707.613
 105  5556.238
 106  6295.644
 107  6904.741
 108  6508.841
 109  5847.668
 110  6650.582
 111  6028.242
 112  6600.619
 113  6782.152
 114  5493.241
 115  6414.816
 116  7308.089
 117  4609.916
 118  4464.37
 119  5044.943
 120  5579.019
 121  5586.938
 122  6362.915
 123  5790.9
 124  6765.507
 125  6054.303
 126  5740.949
 127  6031.339
 128  7114.995
 129  6210.094
 130  5242.909
 131  6644.729
 132  6891.582
 133  6450.748
 134  5137.615
 135  4857.61
 136  5890.174
 137  5446.716
 138  5708.2
 139  5957.58
 140  6009.955
 141  5779.167
 142  5288.448
 143  6627.209
 144  6336.668
 145  6863.75
 146  5613.617
 147  5662.684
 148  5865.919
 149  6180.368
 150  6329.564
 151  6657.67
 152  7024.119
 153  6973.142
 154  6931.642
 155  7234.34
 156  6959.91
 157  5691.738
 158  4957.285
 159  4920.706
 160  6995.235
 161  7010.502
 162  6016.999
 163  5195.132
 164  6273.07
 165  6811.923
 166  5778.172
 167  4738.881
 168  5262.86
 169  6339.099
 170  5532.289
 171  4961.389
 172  5993.337
 173  6350.48
 174  6523.404
 175  5476.791
 176  4873.615
 177  5923.422
 178  6633.316
 179  5245.728
 180  6688.925
 181  7549.945
 182  7439.616
 183  5617.081
 184  5771.488
 185  7230.119
 186  6682.063
 187  5985.831
 188  6291.665
 189  6923.284
 190  6850.435
 191  6133.108
 192  4856.616
 193  5556.798
 194  5792.839
 195  6121.845
 196  4809.165
 197  6337.451
 198  6526.276
 199  5402.618
 200  4243.948
 201  5221.6
 202  6426.938
 203  5287.284
 204  5243.885
 205  6772.337
 206  6658.62
 207  6515.061
 208  6790.783
 209  6695.362
 210  6644.357
 211  6988.962
 212  6009.403
 213  6373.749
 214  6402.53
 215  6567.743
 216  4080.425
 217  5017.525
 218  5649.832
 219  5478.454
 220  6270.791
 221  5624.903
 222  6714.288
 223  6116.236
 224  6521.1
 225  5788.266
 226  5418.646
 227  6213.091
 228  6718.388
 229  5406.661
 230  7192.875
 231  7292.083
 232  5611.133
 233  4055.833
 234  5839.512
 235  6017.639
 236  5607.688
 237  4644.846
 238  6269.035
 239  6073.96
 240  5830.156
 241  5529.963
 242  7081.855
 243  6747.346
 244  6207.682
 245  5425.157
 246  5959.094
 247  5771.859
 248  6418.235
 249  5685.099
 250  4951.817
 251  5230.234
 252  6097.132
 253  5935.575
 254  5668.091
 255  5671.314
