# Input file       =  1198533322.113961_cleaned.dat
# Candidate        =  PSR_0332+5434
# Telescope        =  AR
# Epoch_topo       =  58115.913670300477
# Epoch_bary       =  N/A
# T_sample         =  0.002
# Data Folded      =  7340032
# Data Avg         =  0.161083769032433
# Data StdDev      =  4.28187510566922 
# Profile Bins     =  256
# Profile Avg      =  4618.65923489279 
# Profile StdDev   =  725.041707176906 
# Reduced chi-sqr  =  0.714
# Prob(Noise)      <  1   (~0.0 sigma)
# P_topo (ms)      =  714.55344925999   +/- 0.000734
# P'_topo (s/s)    =  -0                +/- 3.87e-10
# P''_topo (s/s^2) =  0                 +/- 1.71e-13
# P_bary (ms)      =  N/A
# P'_bary (s/s)    =  N/A
# P''_bary (s/s^2) =  N/A
# P_orb (s)        =  N/A
# asin(i)/c (s)    =  N/A
# eccentricity     =  N/A
# w (rad)          =  N/A
# T_peri           =  N/A
######################################################
   0  4648.603
   1  4565.511
   2  4794.777
   3  4436.712
   4  4484.947
   5  5056.23
   6  4516.631
   7  4666.867
   8  4167.087
   9  4722.604
  10  4971.738
  11  4485.942
  12  4533.719
  13  4234.845
  14  5022.862
  15  5050.661
  16  3874.516
  17  4026.641
  18  4586.165
  19  4576.627
  20  5083.917
  21  5157.884
  22  5070.991
  23  4385.092
  24  4532.504
  25  5312.362
  26  4724.824
  27  4640.193
  28  4451.893
  29  5033.572
  30  5349.602
  31  4780.302
  32  4640.139
  33  4778.413
  34  4930.508
  35  5216.545
  36  4726.782
  37  4129.144
  38  4325.678
  39  3922.596
  40  3526.934
  41  4000.346
  42  3795.032
  43  4135.004
  44  4204.914
  45  5146.562
  46  4396.14
  47  4919.504
  48  4838.824
  49  5397.136
  50  4990.528
  51  5544.674
  52  4528.429
  53  5339.405
  54  5079.29
  55  5451.522
  56  5655.374
  57  4538.039
  58  4622.916
  59  4857.247
  60  4202.871
  61  3999.107
  62  4889.571
  63  5292.733
  64  5180.803
  65  4537.071
  66  4274.664
  67  5230.868
  68  4616.783
  69  4239.761
  70  3721.597
  71  3629.225
  72  3747.227
  73  4195.202
  74  3922.826
  75  3627.252
  76  4151.418
  77  4336.976
  78  4208.582
  79  3962.919
  80  4173.874
  81  3787.527
  82  3958.338
  83  4254.925
  84  4375.765
  85  4839.81
  86  4689.557
  87  4048.681
  88  4032.978
  89  4164.268
  90  4544.892
  91  4383.883
  92  4654.958
  93  5145.122
  94  5102.356
  95  4710.992
  96  5070.351
  97  5006.148
  98  5158.358
  99  4385.311
 100  5402.286
 101  4825.007
 102  4858.751
 103  4676.217
 104  4530.186
 105  4608.315
 106  4651.429
 107  4338.434
 108  5163.332
 109  4449.05
 110  4382.189
 111  4250.989
 112  4580.24
 113  3782.321
 114  3716.034
 115  3875.945
 116  4125.992
 117  3350.143
 118  4507.063
 119  5068.157
 120  4408.809
 121  4636.149
 122  5035.983
 123  5069.289
 124  4783.262
 125  4792.006
 126  4741.072
 127  4684.216
 128  5169.309
 129  5227.636
 130  5248.784
 131  4385.016
 132  4830.471
 133  4772.088
 134  4738.747
 135  4809.429
 136  5357.118
 137  4588.163
 138  4931.81
 139  4808.474
 140  4845.013
 141  4379.086
 142  4670.227
 143  4551.93
 144  4751.557
 145  5198.743
 146  5081.666
 147  5279.875
 148  5058.523
 149  5119.839
 150  5376.919
 151  5388.827
 152  5622.868
 153  4545.533
 154  5827.989
 155  6800.703
 156  6628.343
 157  4698.157
 158  3647.193
 159  4523.993
 160  4799.946
 161  4837.712
 162  5145.614
 163  4874.934
 164  4645.47
 165  4149.892
 166  3844.163
 167  4688.547
 168  4986.844
 169  4506.386
 170  5123.633
 171  4758.944
 172  4571.646
 173  4532.849
 174  4181.427
 175  4885.055
 176  3679.048
 177  4167.771
 178  3934.339
 179  4759.472
 180  4535.024
 181  4548.985
 182  4692.493
 183  4786.253
 184  4134.345
 185  4637.676
 186  4997.535
 187  4170.387
 188  3567.595
 189  3978.309
 190  4328.518
 191  4289.405
 192  4860.845
 193  3696.692
 194  3940.707
 195  3751.699
 196  4344.077
 197  5264.853
 198  4496.603
 199  4955.309
 200  4690.251
 201  4111.184
 202  4503.436
 203  4900.58
 204  4441.749
 205  3703.315
 206  4200.679
 207  4622.429
 208  4107.007
 209  3694.785
 210  3375.101
 211  4131.288
 212  4521.674
 213  4076.062
 214  3922.03
 215  4744.021
 216  3871.952
 217  3958.424
 218  4590.286
 219  5011.986
 220  4728.288
 221  4409.178
 222  4325.34
 223  4813.468
 224  3993.818
 225  4547.893
 226  4719.822
 227  4434.829
 228  4583.364
 229  4651.746
 230  3611.351
 231  4498.847
 232  4693.302
 233  4721.911
 234  5985.489
 235  5153.996
 236  4791.454
 237  4421.243
 238  4649.435
 239  4830.497
 240  4942.302
 241  4548.275
 242  5111.813
 243  4739.599
 244  5981.862
 245  5796.79
 246  5106.979
 247  5451.201
 248  5478.082
 249  5478.519
 250  5014.75
 251  4832.626
 252  4013.843
 253  4288.85
 254  4193.499
 255  4406.379
