# Input file       =  1198533322.113961-PSRB0329-2ms-sampling-dd.dat
# Candidate        =  PSR_0332+5434
# Telescope        =  AR
# Epoch_topo       =  58115.913670300477
# Epoch_bary       =  N/A
# T_sample         =  0.002
# Data Folded      =  7340032
# Data Avg         =  1.2702544774751e-09
# Data StdDev      =  85.2914446344195 
# Profile Bins     =  512
# Profile Avg      =  0.0502038992751603
# Profile StdDev   =  10212.2036430399 
# Reduced chi-sqr  =  1.103
# Prob(Noise)      <  0.053   (~1.6 sigma)
# P_topo (ms)      =  714.553449239096  +/- 0.000307
# P'_topo (s/s)    =  -0                +/- 1.62e-10
# P''_topo (s/s^2) =  0                 +/- 7.15e-14
# P_bary (ms)      =  N/A
# P'_bary (s/s)    =  N/A
# P''_bary (s/s^2) =  N/A
# P_orb (s)        =  N/A
# asin(i)/c (s)    =  N/A
# eccentricity     =  N/A
# w (rad)          =  N/A
# T_peri           =  N/A
######################################################
   0  -8265.558
   1  -7759.208
   2  -8238.53
   3  -7748.405
   4  -7504.745
   5  -7749.236
   6  -3927.708
   7  -2130.55
   8  -267.7061
   9  840.3978
  10  183.1691
  11  -1280.712
  12  -7832.76
  13  -1148.02
  14  2902.978
  15  4382.495
  16  2173.293
  17  -684.6722
  18  -5393.533
  19  -7969.447
  20  -7264.673
  21  -6874.035
  22  -7187.391
  23  -7190.574
  24  -6713.951
  25  -3077.354
  26  -1261.861
  27  1116.13
  28  3483.025
  29  -230.9616
  30  -2732.075
  31  -5749.177
  32  6367.973
  33  8108.436
  34  11970.84
  35  11972.03
  36  7720.089
  37  4304.21
  38  755.5915
  39  82.3941
  40  1607.826
  41  4016.55
  42  5013.252
  43  7113.915
  44  5018.287
  45  6369.852
  46  4815.712
  47  4108.097
  48  4863.853
  49  9800.587
  50  13913
  51  17751.68
  52  19345.39
  53  3481.816
  54  4798.136
  55  4432.796
  56  19762.84
  57  21137.99
  58  23878.27
  59  20320.17
  60  9802.935
  61  8228.322
  62  11424.08
  63  13620.9
  64  6824.801
  65  11151.55
  66  15187.63
  67  14339.65
  68  16114.2
  69  17097.72
  70  19910.73
  71  16550.02
  72  12553.69
  73  8194.615
  74  4390.461
  75  4364.65
  76  5108.87
  77  8007.56
  78  7807.751
  79  6258.515
  80  2344.455
  81  409.4653
  82  -3063.927
  83  -5953.847
  84  -1619.163
  85  -708.9519
  86  -960.1611
  87  -1342.882
  88  614.6088
  89  1742.422
  90  2701.061
  91  -1013.17
  92  -3026.52
  93  -4593.312
  94  -1442.713
  95  -141.4754
  96  874.8271
  97  -921.3461
  98  -4096.366
  99  -5037.964
 100  -5769.982
 101  -3133.636
 102  -3023.67
 103  -3125.273
 104  -2959.605
 105  -4761.536
 106  -5421.937
 107  -3520.899
 108  1000.84
 109  5338.917
 110  8869.485
 111  9420.063
 112  9637.161
 113  3119.489
 114  -794.7452
 115  4891.766
 116  10677.72
 117  12936.34
 118  11084.86
 119  5507.054
 120  1352.631
 121  -4336.192
 122  -2554.734
 123  -1631.71
 124  -2523.529
 125  -3863.329
 126  -1303.613
 127  389.5788
 128  2380.165
 129  1009.998
 130  -907.815
 131  -1919.54
 132  -5154.602
 133  -5216.971
 134  -4967.472
 135  -4581.073
 136  -4042.304
 137  -3031.94
 138  -3267.603
 139  -3962.475
 140  -4388.933
 141  -3466.382
 142  -3065.951
 143  -3956.939
 144  -3535.51
 145  -2192.27
 146  948.1128
 147  2813.253
 148  13923.83
 149  17997.99
 150  18478.09
 151  24667.65
 152  9682.625
 153  5528.707
 154  9912.774
 155  28453.15
 156  37504.84
 157  35761.3
 158  27978.69
 159  14091.98
 160  -504.898
 161  1170.166
 162  3430.465
 163  4409.537
 164  5893.403
 165  2020.628
 166  -1788.267
 167  -4990.955
 168  7271.178
 169  8986.742
 170  9397.878
 171  5973.134
 172  -691.803
 173  -5017.236
 174  -8434.73
 175  -7771.325
 176  -7132.683
 177  -6865.576
 178  -6277.45
 179  -5968.893
 180  -6938.184
 181  -7568.067
 182  -6390.277
 183  -5627.466
 184  -4869.823
 185  -4973.079
 186  -5977.136
 187  -6901.495
 188  -8167.076
 189  -7723.003
 190  -6986.099
 191  -7160.344
 192  -7099.718
 193  -6926.314
 194  -7246.655
 195  -7460.577
 196  -7835.423
 197  -7240.697
 198  -7555.793
 199  -7689.25
 200  -7901.577
 201  -7372.82
 202  -7248.077
 203  -6922.453
 204  -5905.706
 205  -5475.851
 206  -5258.172
 207  -5961.38
 208  -6059.665
 209  -6279.023
 210  -5365.707
 211  -4594.874
 212  -3834.207
 213  -3764.808
 214  -4555.885
 215  -5367.054
 216  -6556.12
 217  -7193.29
 218  -7458.724
 219  -7559.612
 220  -7340.998
 221  -7083.929
 222  -6461.215
 223  -6109.809
 224  -6271.226
 225  -5905.355
 226  -6356.113
 227  -5416.95
 228  -4740.38
 229  -4733.347
 230  -3882.575
 231  -4566.75
 232  -5828.309
 233  -2312.448
 234  -9.13828
 235  1861.126
 236  7978.164
 237  5128.244
 238  1598.206
 239  -73.0127
 240  9753.997
 241  19609.86
 242  24180.16
 243  19844.53
 244  11065.92
 245  -4407.288
 246  -4051.757
 247  -4916.186
 248  -6097.85
 249  -5695.681
 250  -6451.626
 251  -7412.245
 252  -7151.732
 253  -7300.064
 254  -7181.519
 255  -6391.068
 256  -6901.664
 257  -6482.205
 258  -5589.097
 259  -3140.437
 260  -1455.577
 261  -402.4716
 262  276.2821
 263  -1102.63
 264  -4560.091
 265  -3512.951
 266  2201.906
 267  6756.951
 268  8620.062
 269  7970.079
 270  4704.576
 271  824.3286
 272  -2824.771
 273  -3139.234
 274  1588.89
 275  2363.486
 276  3615.434
 277  2773.18
 278  -1097.141
 279  -3757.706
 280  -3784.18
 281  -2427.482
 282  -1887.228
 283  -1322.974
 284  -2430.851
 285  -3931.576
 286  -6165.504
 287  -4849.828
 288  -4099.018
 289  -3530.578
 290  -1153.887
 291  -1851.767
 292  -3297.786
 293  -2990.973
 294  232.9688
 295  2034.15
 296  3986.988
 297  5311.387
 298  722.3461
 299  -3721.813
 300  -4484.214
 301  3599.713
 302  4446.609
 303  4730.337
 304  5414.373
 305  15.25828
 306  -2445.714
 307  -4583.109
 308  -5753.51
 309  -6580.527
 310  -6816.747
 311  -6707.035
 312  -6555.223
 313  -6568.537
 314  -7031.093
 315  -7489.429
 316  -5556.689
 317  -3264.875
 318  1859.278
 319  3873.886
 320  5053.765
 321  5722.027
 322  -7225.231
 323  -3831.054
 324  2897.024
 325  10545.85
 326  11464.67
 327  10784.78
 328  3999.424
 329  -4713.378
 330  -7975.932
 331  -6773.637
 332  -7876.28
 333  -8055.138
 334  -7410.731
 335  -8020.054
 336  -7789.411
 337  -7389.415
 338  -7119.256
 339  -7356.852
 340  -6902.389
 341  -7121.943
 342  -6584.212
 343  -5704.753
 344  -4092.059
 345  -3515.974
 346  -3073.191
 347  -3954.016
 348  -4119.459
 349  12652.07
 350  16383.9
 351  18327.99
 352  23431.66
 353  8836.685
 354  2027.17
 355  1221.356
 356  21578.33
 357  25824.19
 358  25815.04
 359  16581.56
 360  6597.496
 361  -3015.228
 362  -4923.695
 363  -4293.797
 364  -2079.02
 365  297.8684
 366  418.139
 367  -6.589333
 368  -5265.774
 369  -5205.073
 370  -1018.633
 371  5768.426
 372  6895.531
 373  7782.408
 374  3598.68
 375  2544.29
 376  3372.591
 377  5253.151
 378  4078.222
 379  282.1919
 380  991.4183
 381  -171.1944
 382  317.2969
 383  157.1065
 384  -581.9511
 385  -2599.442
 386  -5194.843
 387  -6097.197
 388  -6980.879
 389  -7550.174
 390  -8115.269
 391  -8350.369
 392  -8561.965
 393  -7995.495
 394  -7893.594
 395  -7161.85
 396  -7155.946
 397  -7463.771
 398  -8284.463
 399  -8183.44
 400  -7718.821
 401  -7235.465
 402  -7350.226
 403  -7480.113
 404  -7415.622
 405  -7867.997
 406  -8190.544
 407  -8255.731
 408  -8215.861
 409  -7826.573
 410  -6848.808
 411  -5521.895
 412  -4752.266
 413  -5569.963
 414  -6100.198
 415  -6516.76
 416  -6891.757
 417  -5140.874
 418  -4530.535
 419  -3465.024
 420  -3622.332
 421  -4228.945
 422  -4751.562
 423  -6290.429
 424  -6680.779
 425  -5711.11
 426  -4514.381
 427  -2721.913
 428  -2501.918
 429  -3421.446
 430  -5167.251
 431  -6151.075
 432  -5994.485
 433  -3925.476
 434  -3298.587
 435  -3305.829
 436  -4044.73
 437  -4524.034
 438  -5064.407
 439  -5690.52
 440  -6994.34
 441  -6119.732
 442  -5076.285
 443  -3971.918
 444  -4033.024
 445  -4554.954
 446  -5307.062
 447  -6337.42
 448  -5030.048
 449  -3546.182
 450  -3124.13
 451  -4010.647
 452  -4952.101
 453  -6422.697
 454  -6010.407
 455  -5990.839
 456  -4459.389
 457  -1793.309
 458  48.64019
 459  2765.373
 460  4595.942
 461  9202.359
 462  8822.624
 463  7978.714
 464  16064.87
 465  12224.12
 466  6711.775
 467  10126.62
 468  13186.41
 469  15377.46
 470  11873.3
 471  8666.782
 472  2572.087
 473  -6733.641
 474  -5485.363
 475  -4044.971
 476  -4497.398
 477  -3453.629
 478  -4696.359
 479  -4884.649
 480  -3941.276
 481  -3381.062
 482  -1655.979
 483  -311.2172
 484  -2358.35
 485  -4512.692
 486  545.585
 487  5544.021
 488  10008.46
 489  9422.745
 490  5354.021
 491  1042.301
 492  -71.40067
 493  8755.769
 494  6916.255
 495  5241.392
 496  2652.211
 497  3634.094
 498  6588.94
 499  9642.817
 500  9488.775
 501  2984.295
 502  1179.252
 503  -135.5228
 504  1163.281
 505  -146.7173
 506  841.0808
 507  -1272.008
 508  -3721.646
 509  -5776.553
 510  -6683.088
 511  -8035.345
