# Input file       =  1198360408.106056-PSRB0329-2ms-sampling-dd.dat
# Candidate        =  PSR_0332+5434
# Telescope        =  AR
# Epoch_topo       =  58113.912350764534
# Epoch_bary       =  N/A
# T_sample         =  0.002
# Data Folded      =  7340032
# Data Avg         =  1.86669013418913e-09
# Data StdDev      =  47.4824426171337 
# Profile Bins     =  512
# Profile Avg      =  -0.491967873184019
# Profile StdDev   =  5685.21702913498 
# Reduced chi-sqr  =  1.557
# Prob(Noise)      <  9.56e-15   (~7.7 sigma)
# P_topo (ms)      =  714.55164986434   +/- 0.000266
# P'_topo (s/s)    =  -0                +/- 1.4e-10
# P''_topo (s/s^2) =  0                 +/- 6.19e-14
# P_bary (ms)      =  N/A
# P'_bary (s/s)    =  N/A
# P''_bary (s/s^2) =  N/A
# P_orb (s)        =  N/A
# asin(i)/c (s)    =  N/A
# eccentricity     =  N/A
# w (rad)          =  N/A
# T_peri           =  N/A
######################################################
   0  -6708.695
   1  -6802.681
   2  -7041.518
   3  -5905.35
   4  -5033.035
   5  -4295.16
   6  -3527.459
   7  -3375.65
   8  -2562.275
   9  -3478.966
  10  -4056.938
  11  -3428.326
  12  -2283.282
  13  -30.50548
  14  1364.046
  15  1836.17
  16  1086.004
  17  634.3735
  18  2982.133
  19  6408.657
  20  8198.931
  21  7285.731
  22  6699.86
  23  5488.611
  24  10408.27
  25  12072.85
  26  15521.02
  27  13707.66
  28  10434.4
  29  10755.25
  30  11810.99
  31  15288.24
  32  15919.49
  33  15043.68
  34  11239.47
  35  8981.573
  36  10537.37
  37  12268.62
  38  12411
  39  11504.21
  40  4064.129
  41  4345.489
  42  6451.398
  43  10285.54
  44  10209.43
  45  8465.299
  46  5625.117
  47  206.9427
  48  -1715.572
  49  -3262.289
  50  -2687.406
  51  -1967.965
  52  -1198.477
  53  -2535.165
  54  -3616.434
  55  -3886.276
  56  -3288.569
  57  -1907.289
  58  -1511.565
  59  -2197.932
  60  -494.3499
  61  1669.022
  62  3341.502
  63  4118.802
  64  3274.173
  65  -992.1559
  66  -2178.51
  67  -1786.277
  68  -78.30322
  69  1495.213
  70  1664.18
  71  -1014.951
  72  -4139.492
  73  -3911.965
  74  -2642.029
  75  -226.3902
  76  1817.706
  77  2836.479
  78  1742.687
  79  -524.252
  80  -1795.529
  81  -2052.391
  82  -213.8654
  83  1036.586
  84  -355.5987
  85  -2924.087
  86  -3156.799
  87  -4159.88
  88  -3745.212
  89  -24.45358
  90  1825.156
  91  4246.745
  92  6169.997
  93  4807.049
  94  5139.465
  95  4503.866
  96  6546.212
  97  10947.62
  98  12201.65
  99  11034.76
 100  5411.136
 101  5732.231
 102  5812.449
 103  5542.479
 104  4298.054
 105  1876.811
 106  -1393.737
 107  -1989.501
 108  -3135.078
 109  -2702.104
 110  -751.0592
 111  263.5658
 112  2775.963
 113  4209.986
 114  -1743.801
 115  211.8903
 116  2219.286
 117  10271.31
 118  11163.85
 119  9950.928
 120  5386.495
 121  -4060.268
 122  -5027.434
 123  -4629.409
 124  -4784.354
 125  -3969.361
 126  -3079.213
 127  -4494.374
 128  -3720.511
 129  -3214.218
 130  -2830.292
 131  -1575.054
 132  -1330.695
 133  -3046.569
 134  -1685.563
 135  -1465.933
 136  2684.077
 137  6236.189
 138  6788.522
 139  5785.307
 140  5014.877
 141  1841.95
 142  -1309.391
 143  -676.3932
 144  5081.604
 145  6207.129
 146  6382.439
 147  6284.865
 148  1912.016
 149  -2883.561
 150  -4139.076
 151  -4004.717
 152  -3573.662
 153  -3982.98
 154  -4613.302
 155  -4649.471
 156  -4629.733
 157  -5083.494
 158  -4787.608
 159  -4510.171
 160  -4215.787
 161  -3718.071
 162  -3663.884
 163  -2464.609
 164  -418.9998
 165  3406.796
 166  3896.264
 167  3083.935
 168  -1063.631
 169  -2044.041
 170  -175.0674
 171  7519.381
 172  11456.3
 173  12224.22
 174  14060.26
 175  6083.707
 176  2052.443
 177  -1457.039
 178  5185.025
 179  9776.822
 180  11776.19
 181  9642.456
 182  5837.933
 183  -1346.645
 184  -3388.568
 185  -3176.414
 186  -3730.638
 187  -4217.052
 188  -4074.596
 189  -3680.118
 190  -3116.538
 191  -2628.599
 192  -500.8286
 193  2332.111
 194  4687.391
 195  4380.077
 196  3046.536
 197  2559.581
 198  367.8687
 199  -463.8396
 200  -3065.474
 201  -4075.641
 202  -5087.994
 203  -5597.069
 204  -4979.652
 205  -4362.762
 206  -4016.177
 207  -3939.75
 208  -4403.589
 209  -5404.539
 210  -5627.647
 211  -3671.857
 212  -2834.55
 213  -2139.043
 214  -2777.58
 215  -2171.897
 216  -3150.765
 217  -3618.773
 218  -3659.956
 219  -4592.476
 220  -2998.923
 221  -2204.59
 222  -644.8708
 223  -678.6599
 224  -3232.527
 225  -4102.848
 226  -3928.602
 227  -2247.646
 228  285.6704
 229  1215.062
 230  2344.777
 231  1670.702
 232  -1245.858
 233  -556.6893
 234  -1339.531
 235  -327.4187
 236  1090.196
 237  4165.153
 238  5668.841
 239  4106.298
 240  1864.295
 241  60.10931
 242  -1631.144
 243  -1478.67
 244  124.7279
 245  364.9753
 246  -69.84333
 247  -335.6235
 248  -2467.854
 249  -3411.503
 250  -4310.844
 251  -4709.267
 252  -5364.689
 253  -6185.883
 254  -7537.856
 255  -7752.703
 256  -7830.282
 257  -7503.167
 258  -6987.154
 259  -5052.737
 260  -5023.679
 261  -3899.798
 262  -1466.125
 263  -1748.406
 264  -1481.811
 265  1946.004
 266  2649.219
 267  1529.735
 268  -80.26601
 269  602.7776
 270  628.34
 271  52.35137
 272  -68.01764
 273  -2091.946
 274  -3890.673
 275  -4654.595
 276  -4683.012
 277  -4765.334
 278  -5200.499
 279  -6376.873
 280  -5985.721
 281  -6216.07
 282  -6882.7
 283  -6958.224
 284  -6004.725
 285  -5611.314
 286  -4230.856
 287  -2887.962
 288  -1965.234
 289  -3280.463
 290  -5744.689
 291  -5285.708
 292  -5431.809
 293  -4616.355
 294  -4677.596
 295  -3536.961
 296  -3314.632
 297  -3241.613
 298  -2944.809
 299  -3274.341
 300  -3401.004
 301  -2114.429
 302  -208.1706
 303  1529.502
 304  2289.873
 305  1254.888
 306  1130.139
 307  -818.4976
 308  -1794.612
 309  -2183.252
 310  1043.189
 311  1596.815
 312  1448.046
 313  232.0106
 314  -1466.076
 315  -3382.323
 316  -3923.188
 317  -4873.772
 318  -4852.97
 319  -5843.599
 320  -6015.396
 321  -5729.085
 322  -6177.64
 323  -5583.064
 324  -4496.165
 325  -4407.792
 326  -4741.801
 327  -5139.437
 328  -5105.358
 329  -5117.993
 330  -5006.83
 331  -5037.859
 332  -4629.589
 333  -5101.812
 334  -5460.788
 335  -5139.427
 336  -4790.717
 337  -5152.406
 338  -5106.949
 339  -4392.939
 340  -2995.586
 341  -2248.479
 342  -2100.656
 343  -3201.535
 344  -3425.917
 345  -3779.618
 346  -4226.234
 347  -4581.715
 348  -3410.519
 349  -2724.152
 350  -3021.372
 351  -3942.198
 352  -5070.121
 353  -6857.768
 354  -6788.959
 355  -6153.189
 356  -5807.158
 357  -5128.797
 358  -4282.038
 359  -3849.832
 360  -3784.36
 361  -3908.726
 362  -4686.739
 363  -3363.332
 364  -1907.215
 365  119.094
 366  780.0991
 367  635.2637
 368  1820.972
 369  261.5744
 370  -65.30505
 371  -269.726
 372  925.9271
 373  2944.318
 374  3055.27
 375  3258.625
 376  1270.29
 377  -110.9818
 378  -454.0614
 379  13.91987
 380  93.58187
 381  -881.2003
 382  -2648.27
 383  -3642.534
 384  -4460.488
 385  -4309.887
 386  -3771.5
 387  -2983.375
 388  -2174.753
 389  -1221.131
 390  -1805.714
 391  -2196.803
 392  -4493.265
 393  -3920.301
 394  -3217.727
 395  -2656.618
 396  -1619.33
 397  -776.0023
 398  -3602.803
 399  -4260.275
 400  -1598.101
 401  6517.333
 402  11489.46
 403  18863.84
 404  14976.12
 405  8424.522
 406  1753.279
 407  2383.716
 408  6384.193
 409  9182.577
 410  8599.519
 411  5248.775
 412  3649.263
 413  2798.576
 414  4386.511
 415  6291.065
 416  6266.61
 417  6301.719
 418  4418.009
 419  3347.085
 420  1996.505
 421  4900.405
 422  5243.023
 423  4616.415
 424  1919.807
 425  392.3664
 426  -1538.759
 427  -1310.46
 428  -2130.899
 429  -3787.709
 430  -4793.874
 431  -5523.111
 432  -6156.684
 433  -6561.394
 434  -5534.386
 435  -5339.456
 436  -5415.409
 437  -5432.998
 438  -5210.955
 439  -5209.884
 440  -4701.013
 441  -4418.938
 442  -3124.347
 443  -1857.147
 444  -539.1329
 445  2098.712
 446  -662.8881
 447  -38.17696
 448  2488.94
 449  6750.618
 450  5964.271
 451  7273.703
 452  7843.634
 453  7614.809
 454  7343.526
 455  11871.8
 456  10770.59
 457  9279.798
 458  6415.014
 459  3246.607
 460  2404.906
 461  2306.287
 462  2931.885
 463  4051.323
 464  325.5678
 465  -2512.303
 466  -3269.102
 467  -2866.299
 468  -3140.283
 469  -2718.197
 470  -2020.393
 471  -2940.412
 472  -2989.182
 473  709.9708
 474  3696.343
 475  5495.14
 476  6594.754
 477  6042.327
 478  3539.214
 479  1546.647
 480  6818.695
 481  11383.21
 482  15146.86
 483  19149.89
 484  11126.97
 485  5566.245
 486  954.1525
 487  3565.38
 488  4133.309
 489  3269.698
 490  1182.359
 491  -3368.905
 492  -5437.469
 493  -5906.48
 494  -5634.491
 495  -5676.935
 496  -5418.11
 497  -3393.873
 498  -1312.885
 499  36.61383
 500  390.3009
 501  472.9939
 502  -545.9898
 503  -3964.192
 504  360.1797
 505  774.9516
 506  1380.15
 507  -277.6578
 508  -2005.977
 509  -3774.63
 510  -6685.324
 511  -6371.369
