# Input file       =  1198705058.107936-PSRB0329-2ms-sampling-dd.dat
# Candidate        =  PSR_0332+5434
# Telescope        =  AR
# Epoch_topo       =  58117.901355415925
# Epoch_bary       =  N/A
# T_sample         =  0.002
# Data Folded      =  7340032
# Data Avg         =  1.73218122145134e-10
# Data StdDev      =  41.1611329559279 
# Profile Bins     =  512
# Profile Avg      =  -0.0038180808671251
# Profile StdDev   =  4928.34742952102 
# Reduced chi-sqr  =  1.026
# Prob(Noise)      <  0.333   (~0.4 sigma)
# P_topo (ms)      =  714.55516419376   +/- 0.000326
# P'_topo (s/s)    =  -0                +/- 1.72e-10
# P''_topo (s/s^2) =  0                 +/- 7.6e-14
# P_bary (ms)      =  N/A
# P'_bary (s/s)    =  N/A
# P''_bary (s/s^2) =  N/A
# P_orb (s)        =  N/A
# asin(i)/c (s)    =  N/A
# eccentricity     =  N/A
# w (rad)          =  N/A
# T_peri           =  N/A
######################################################
   0  -210.0483
   1  -284.4552
   2  -1306.144
   3  -1188.344
   4  -1880.258
   5  -1584.957
   6  -890.7673
   7  -165.8881
   8  -597.707
   9  -989.781
  10  -1674.211
  11  -2751.27
  12  -2556.196
  13  -2564.621
  14  -2682.841
  15  -3133.033
  16  -2944.314
  17  -2692.188
  18  -3085.622
  19  -2807.884
  20  -2715.697
  21  -3142.738
  22  -2901.593
  23  -2847.308
  24  -2283.186
  25  -1978.536
  26  -1921.852
  27  -2096.208
  28  -2028.11
  29  -2245.446
  30  -1902.509
  31  -1960.096
  32  -1345.122
  33  -658.069
  34  -683.2744
  35  -1147.431
  36  -240.4656
  37  1353.331
  38  2801.272
  39  2869.011
  40  3723.781
  41  4009.017
  42  -292.8863
  43  3207.564
  44  6167.953
  45  10565.43
  46  8562.026
  47  6876.238
  48  2119.957
  49  -1711.386
  50  -1082.564
  51  761.1069
  52  457.7245
  53  4863.988
  54  5061.169
  55  3738.047
  56  3993.347
  57  1334.104
  58  -1118.447
  59  -2306.493
  60  2131.888
  61  3271.601
  62  2642.166
  63  3259
  64  2537.09
  65  1125.339
  66  1422.468
  67  327.2794
  68  -943.256
  69  -2450.737
  70  895.3622
  71  2189.797
  72  3080.708
  73  3783.79
  74  2904.953
  75  3879.956
  76  3502.728
  77  4752.54
  78  4582.768
  79  1143.378
  80  -1506.244
  81  1641.309
  82  3931.064
  83  4964.225
  84  3432.282
  85  1405.788
  86  835.0814
  87  -365.0338
  88  5160.946
  89  6516.319
  90  7338.938
  91  6768.899
  92  3830.29
  93  1747.515
  94  498.8104
  95  2885.694
  96  2975.776
  97  2808.554
  98  1982.756
  99  1662.371
 100  249.9834
 101  -1118.179
 102  -1048.693
 103  -1532.421
 104  -2275.192
 105  -1648.075
 106  -605.3911
 107  472.2871
 108  1060.83
 109  -209.4166
 110  -1035.092
 111  -3218.44
 112  -820.9103
 113  638.7581
 114  1743.556
 115  1607.887
 116  14.67317
 117  -1831.141
 118  -2158.032
 119  -819.2633
 120  148.3735
 121  94.27677
 122  100.958
 123  401.2776
 124  -372.5304
 125  202.4086
 126  833.5923
 127  1106.444
 128  660.3499
 129  73.17625
 130  -481.5588
 131  -257.1206
 132  -302.0579
 133  -750.0737
 134  -1368.336
 135  -2159.775
 136  -1836.427
 137  -1793.477
 138  -1722.09
 139  -2073.852
 140  -1966.073
 141  -2199.771
 142  -2116.86
 143  -1855.336
 144  -2202.831
 145  -1821.01
 146  -1666.297
 147  -1713.039
 148  -1520.772
 149  -2080.553
 150  -1963.063
 151  -1711.006
 152  -1208.783
 153  -1324.28
 154  -1410.339
 155  -1925.041
 156  -2113.55
 157  -2062.312
 158  -2530.343
 159  -2644.046
 160  -2452.474
 161  -2752.296
 162  -2380.067
 163  -2408.659
 164  -1875.256
 165  -1690.048
 166  -1166.743
 167  -1380.906
 168  -1224.672
 169  -836.968
 170  -172.8474
 171  2952.944
 172  5309.446
 173  6189.314
 174  7793.383
 175  4805.404
 176  -559.4548
 177  3101.758
 178  7994.912
 179  12823.39
 180  13925.9
 181  10308.88
 182  7060.352
 183  -801.8732
 184  -330.4725
 185  1262.873
 186  1061.076
 187  2481.133
 188  2657.475
 189  274.252
 190  2634.88
 191  4039.277
 192  6967.715
 193  7977.992
 194  7116.449
 195  4432.257
 196  445.9801
 197  2162.389
 198  3934.297
 199  4222.606
 200  3752.982
 201  2405.099
 202  -122.9718
 203  -1362.788
 204  -1679.456
 205  -1733.269
 206  -1945.19
 207  -1921.979
 208  -2441.667
 209  -2361.659
 210  -1998.859
 211  -2472.824
 212  -2166.345
 213  -2017.579
 214  -1551.591
 215  -1483.86
 216  -1519.308
 217  -2016.268
 218  -2760.923
 219  -2315.076
 220  -2281.116
 221  -1725.607
 222  -1678.882
 223  -1562.398
 224  -1739.432
 225  -2911.533
 226  -2749.055
 227  -2446.098
 228  -2767.514
 229  -2813.121
 230  -2361.482
 231  -2084.191
 232  -2080.578
 233  -2241.727
 234  -2059.685
 235  -2152.572
 236  -2610.561
 237  -2427.286
 238  -2303.561
 239  -2087.146
 240  -2384.34
 241  -2218.311
 242  -1554.643
 243  -1761.688
 244  -1171.57
 245  -636.7935
 246  -670.0671
 247  -908.1182
 248  -1908.055
 249  -1027.558
 250  352.3824
 251  217.5495
 252  593.4696
 253  3244.637
 254  2881.554
 255  3326.999
 256  4228.695
 257  2163.406
 258  -272.1234
 259  -1822.672
 260  4870.395
 261  6733.601
 262  7514.186
 263  7262.427
 264  3773.121
 265  1515.608
 266  -129.2209
 267  -1318.474
 268  -2003.879
 269  -2046.803
 270  -2056.894
 271  -1553.154
 272  -1365.198
 273  -1357.639
 274  -2196.219
 275  -2801.207
 276  -2797.765
 277  -3043.455
 278  -2837.01
 279  -2441.004
 280  -2160.044
 281  -2116.829
 282  -2628.991
 283  -2541.36
 284  -2493.994
 285  -2197.399
 286  -1922.784
 287  -2284.38
 288  -1812.927
 289  -1432.034
 290  -1635.829
 291  -2389.911
 292  -2584.974
 293  -2519.484
 294  -1993.388
 295  -1652.861
 296  -1711.014
 297  -1633.03
 298  -1787.165
 299  -1914.597
 300  -2278.285
 301  -1659.374
 302  -1208.226
 303  -1382.719
 304  -1335.628
 305  -2047.86
 306  -1945.578
 307  -1514.403
 308  485.5356
 309  448.5925
 310  384.5027
 311  -735.091
 312  -1896.487
 313  -2084.131
 314  -2339.299
 315  -1598.102
 316  -1731.387
 317  -2490.319
 318  -3077.037
 319  -3209.527
 320  -2616.386
 321  -2313.66
 322  -916.8781
 323  -948.0855
 324  -710.9037
 325  -815.8648
 326  -1870.201
 327  -1928.64
 328  -615.8465
 329  152.7743
 330  444.2842
 331  370.9431
 332  -936.48
 333  -1746.499
 334  -2156.052
 335  -2058.04
 336  -2380.73
 337  -2702.326
 338  -2516.515
 339  -2396.75
 340  -2848.946
 341  -2784.061
 342  -2573.548
 343  -2465.919
 344  -2487.924
 345  -2570.944
 346  -2804.928
 347  -2683.346
 348  -2806.445
 349  -2540.273
 350  -1817.826
 351  -2137.666
 352  -2097.771
 353  -1736.552
 354  -2176.05
 355  -2775.138
 356  -2714.666
 357  -602.8663
 358  -7.89782
 359  638.7763
 360  1226.409
 361  -732.0206
 362  -1357.802
 363  -15.59552
 364  2678.998
 365  3609.416
 366  4231.896
 367  2598.239
 368  907.7144
 369  -210.4794
 370  -662.5536
 371  -85.69978
 372  275.9719
 373  -229.4778
 374  -808.1976
 375  -1576.533
 376  -2053.666
 377  -2761.463
 378  -3355.181
 379  -2839.794
 380  -2932.283
 381  -3099.476
 382  -2229.721
 383  -2382.751
 384  -2692.471
 385  -1369.579
 386  49.22808
 387  2030.501
 388  2614.565
 389  1809.834
 390  927.0544
 391  -2337.352
 392  -54.99074
 393  1762.901
 394  2195.287
 395  1904.931
 396  1310.239
 397  -363.6812
 398  -2022.38
 399  -2352.114
 400  -2110.037
 401  -1671.348
 402  -1885.693
 403  -1804.266
 404  -1750.33
 405  -726.5559
 406  53.05001
 407  530.612
 408  1223.827
 409  419.5356
 410  -814.4811
 411  -387.1097
 412  614.7516
 413  1536.878
 414  2340.156
 415  1934.734
 416  1455.758
 417  309.9343
 418  -66.92047
 419  -914.8425
 420  -1403.972
 421  -1157.318
 422  -506.1526
 423  -18.46624
 424  522.5844
 425  1461.288
 426  2426.902
 427  2364.18
 428  2276.319
 429  3649.288
 430  7001.454
 431  4615.978
 432  4503.344
 433  4567.943
 434  3579.528
 435  3878.712
 436  7597.924
 437  11695.13
 438  13982.81
 439  15516.3
 440  14515.4
 441  11057.79
 442  -4580.294
 443  5341.652
 444  13811.85
 445  23934.54
 446  24471
 447  19719.19
 448  7572.764
 449  -2275.04
 450  -3250.868
 451  -2436.157
 452  -4038.5
 453  -3699.656
 454  -2738.626
 455  -2120.029
 456  -1901.845
 457  -1951.45
 458  -476.942
 459  -262.2923
 460  650.0041
 461  1487.425
 462  -839.0706
 463  -1751.261
 464  -2057.783
 465  2968.559
 466  3646.405
 467  3716.805
 468  2146.522
 469  -1606.078
 470  -3502.515
 471  -3651.038
 472  -3210.229
 473  -3490.093
 474  -3252.667
 475  -3562.369
 476  -3317.404
 477  -2890.607
 478  -3272.73
 479  -3440.732
 480  -3667.301
 481  -3676.479
 482  -3160.601
 483  -3073.736
 484  -3300.828
 485  -3650.854
 486  -3923.25
 487  -3849.14
 488  -3519.417
 489  -3178.29
 490  -2948.2
 491  -2990.745
 492  -3143.126
 493  -3575.344
 494  -3894
 495  -3344.11
 496  -2982.624
 497  -2948.268
 498  -2349.234
 499  -2409.358
 500  -2764.155
 501  -2583.592
 502  -2195.728
 503  -2343.344
 504  -2032.749
 505  -2021.167
 506  -1883.109
 507  -1377.351
 508  -324.6368
 509  -345.5218
 510  -555.9526
 511  -475.0048
