# Input file       =  1198000950.100848_cleaned.dat
# Candidate        =  PSR_0332+5434
# Telescope        =  AR
# Epoch_topo       =  58109.751957185741
# Epoch_bary       =  N/A
# T_sample         =  0.002
# Data Folded      =  7340032
# Data Avg         =  0.161026183273602
# Data StdDev      =  4.21006429900093 
# Profile Bins     =  256
# Profile Avg      =  4617.96090192569 
# Profile StdDev   =  712.882120879869 
# Reduced chi-sqr  =  0.594
# Prob(Noise)      <  1   (~0.0 sigma)
# P_topo (ms)      =  714.547476088806  +/- 0.000663
# P'_topo (s/s)    =  -0                +/- 3.5e-10
# P''_topo (s/s^2) =  0                 +/- 1.54e-13
# P_bary (ms)      =  N/A
# P'_bary (s/s)    =  N/A
# P''_bary (s/s^2) =  N/A
# P_orb (s)        =  N/A
# asin(i)/c (s)    =  N/A
# eccentricity     =  N/A
# w (rad)          =  N/A
# T_peri           =  N/A
######################################################
   0  4634.264
   1  4634.326
   2  4652.139
   3  4626.485
   4  4867.334
   5  4382.75
   6  4720.69
   7  4217.99
   8  4635.192
   9  4464.032
  10  4515.617
  11  4135.076
  12  4815
  13  4656.482
  14  4207.452
  15  4047.02
  16  5310.606
  17  4789.638
  18  4270.49
  19  4654.495
  20  4752.902
  21  4428.969
  22  5382.456
  23  4553.51
  24  5305.087
  25  5430.504
  26  4630.036
  27  4642.266
  28  4978.626
  29  5056.439
  30  4963.562
  31  5391.029
  32  4847.228
  33  5493.59
  34  5257.028
  35  4883.987
  36  4568.774
  37  4590.872
  38  3845.785
  39  4246.407
  40  4149.543
  41  4755.681
  42  5126.364
  43  4695.543
  44  4948.269
  45  4510.683
  46  4961.65
  47  4505.801
  48  4452.675
  49  4899.409
  50  5040.719
  51  4381.66
  52  4824.834
  53  4885.628
  54  4348.53
  55  4390.719
  56  4598.012
  57  4399.367
  58  3822.922
  59  4742.772
  60  4888.954
  61  4305.294
  62  4621.465
  63  4704.288
  64  4410.397
  65  4115.841
  66  3861.426
  67  3523.859
  68  4250.577
  69  4041.654
  70  3815.753
  71  4065.373
  72  4519.622
  73  4701.967
  74  4619.356
  75  4247.979
  76  4774.893
  77  4510.037
  78  5005.804
  79  4808.52
  80  5209.632
  81  5062.311
  82  5282.326
  83  4827.664
  84  5136.273
  85  5550.017
  86  5048.68
  87  4414.514
  88  4938.469
  89  4771.801
  90  4576.701
  91  4284.123
  92  4701.102
  93  4442.37
  94  3701.592
  95  3956.382
  96  4874.623
  97  4498.852
  98  4097.751
  99  4392.92
 100  4775.739
 101  4440.755
 102  4830.645
 103  4567.803
 104  4218.207
 105  4285.434
 106  4323.605
 107  4121.311
 108  5040.863
 109  4721.606
 110  4507.86
 111  4416.643
 112  4077.074
 113  4184.454
 114  3947.394
 115  3975.229
 116  3882.012
 117  3845.535
 118  4097.186
 119  4346.634
 120  4508.617
 121  4912.6
 122  4516.027
 123  4275.248
 124  3862.777
 125  4598.939
 126  5193.37
 127  5089.283
 128  4878.842
 129  5200.885
 130  4687.991
 131  4331.688
 132  5212.951
 133  5586.165
 134  5087.277
 135  5009.427
 136  4983.381
 137  4144.406
 138  4464.25
 139  5053.63
 140  4791.502
 141  4187.946
 142  4488.595
 143  5049.447
 144  4655.737
 145  4112.216
 146  4581.527
 147  4478.093
 148  3579.025
 149  4094.505
 150  4538.5
 151  4439.835
 152  4504.891
 153  5141.429
 154  5633.027
 155  6567.858
 156  7007.425
 157  6107.056
 158  5331.696
 159  5260.056
 160  4789.647
 161  4553.784
 162  4975.084
 163  5040.75
 164  4787.748
 165  4385.869
 166  4678.932
 167  4554.682
 168  4014.851
 169  4757.072
 170  4558.387
 171  4303.542
 172  5135.502
 173  5101.204
 174  5285.629
 175  4827.284
 176  4721.478
 177  4825.122
 178  4437.453
 179  4628.98
 180  4421.747
 181  4394.242
 182  4506.965
 183  4952.797
 184  5087.549
 185  5334.783
 186  5143.004
 187  4893.3
 188  4592.228
 189  5429.445
 190  4922.67
 191  4654.686
 192  4791.436
 193  4585.994
 194  4908.879
 195  4357.467
 196  4826.223
 197  5126.723
 198  5104.299
 199  4522.406
 200  5039.763
 201  4281.429
 202  4559.617
 203  4928.926
 204  4957.001
 205  4198.057
 206  3739.653
 207  3923.473
 208  4221.864
 209  4662.187
 210  4550.025
 211  4105.413
 212  4748.396
 213  4002.984
 214  3727.501
 215  4051.219
 216  4512.558
 217  4341.845
 218  3692.749
 219  3794.362
 220  4179.809
 221  3509.922
 222  4042.384
 223  4474.976
 224  4367.908
 225  4238.368
 226  3867.356
 227  3762.633
 228  3954.654
 229  4202.075
 230  4671.395
 231  4765.182
 232  4365.118
 233  3998.283
 234  4683.614
 235  5037.666
 236  5130.29
 237  4838.32
 238  5077.487
 239  5362.16
 240  4612.678
 241  4865.268
 242  4496.671
 243  4814.336
 244  5265.964
 245  4580.152
 246  4017.673
 247  4252.039
 248  4570.698
 249  4469.258
 250  4547.208
 251  4486.773
 252  4433.722
 253  4749.367
 254  4440.832
 255  4864.698
