# Input file       =  1198705058.107936_cleaned.dat
# Candidate        =  PSR_0332+5434
# Telescope        =  AR
# Epoch_topo       =  58117.901355415925
# Epoch_bary       =  N/A
# T_sample         =  0.002
# Data Folded      =  7340032
# Data Avg         =  0.0261860044018333
# Data StdDev      =  1.00006713332878 
# Profile Bins     =  512
# Profile Avg      =  375.429565729802 
# Profile StdDev   =  119.741074454064 
# Reduced chi-sqr  =  0.824
# Prob(Noise)      <  0.999   (~0.0 sigma)
# P_topo (ms)      =  714.55516419376   +/- 0.000378
# P'_topo (s/s)    =  -0                +/- 1.99e-10
# P''_topo (s/s^2) =  0                 +/- 8.81e-14
# P_bary (ms)      =  N/A
# P'_bary (s/s)    =  N/A
# P''_bary (s/s^2) =  N/A
# P_orb (s)        =  N/A
# asin(i)/c (s)    =  N/A
# eccentricity     =  N/A
# w (rad)          =  N/A
# T_peri           =  N/A
######################################################
   0  364.1986
   1  434.5036
   2  325.5341
   3  284.257
   4  295.677
   5  413.7054
   6  441.7547
   7  418.5394
   8  402.885
   9  434.5022
  10  308.3452
  11  344.6472
  12  438.764
  13  439.8655
  14  408.0519
  15  350.6593
  16  392.6963
  17  377.5197
  18  272.0308
  19  378.3666
  20  407.1907
  21  336.1947
  22  447.3523
  23  482.9993
  24  522.1283
  25  465.7509
  26  499.4084
  27  427.3147
  28  440.2864
  29  473.6122
  30  439.615
  31  389.2522
  32  462.2148
  33  566.9011
  34  497.967
  35  400.8705
  36  347.1797
  37  391.9098
  38  428.6913
  39  465.1145
  40  442.6752
  41  462.1394
  42  488.5439
  43  396.1485
  44  320.0688
  45  409.549
  46  350.7028
  47  326.5474
  48  370.213
  49  440.5741
  50  435.2246
  51  313.7695
  52  403.074
  53  381.2887
  54  466.1628
  55  465.8871
  56  349.4255
  57  381.1455
  58  349.8775
  59  369.2523
  60  318.46
  61  352.5423
  62  354.3452
  63  331.755
  64  418.7703
  65  289.4446
  66  202.8576
  67  389.2499
  68  396.0404
  69  213.0699
  70  213.881
  71  257.4239
  72  353.7558
  73  468.0689
  74  423.8535
  75  328.8441
  76  259.362
  77  390.6736
  78  455.0309
  79  435.7782
  80  413.2037
  81  321.3483
  82  328.0753
  83  469.9162
  84  384.7976
  85  300.5762
  86  415.282
  87  358.6584
  88  441.4992
  89  375.2896
  90  301.1386
  91  313.2624
  92  324.781
  93  310.2809
  94  315.2234
  95  385.5449
  96  276.7793
  97  315.8086
  98  408.3141
  99  527.6731
 100  480.6738
 101  361.6092
 102  367.044
 103  425.7527
 104  415.8335
 105  387.0739
 106  427.9722
 107  454.0471
 108  446.2701
 109  254.6949
 110  232.9318
 111  233.0238
 112  356.2157
 113  352.2
 114  252.8238
 115  297.1648
 116  295.7603
 117  189.4781
 118  311.8059
 119  425.1838
 120  408.2231
 121  319.4251
 122  367.7493
 123  538.9926
 124  513.085
 125  362.2593
 126  285.6597
 127  398.5272
 128  378.3279
 129  330.8359
 130  367.0135
 131  349.6488
 132  467.2335
 133  459.6359
 134  380.7921
 135  339.9523
 136  380.8203
 137  404.3842
 138  430.1511
 139  371.4453
 140  373.842
 141  351.3617
 142  461.0352
 143  481.0233
 144  338.9938
 145  328.7473
 146  289.4791
 147  329.4352
 148  442.107
 149  416.3074
 150  357.6677
 151  350.0988
 152  345.2284
 153  285.0743
 154  282.4652
 155  333.8476
 156  385.8588
 157  351.4504
 158  366.0494
 159  381.1809
 160  355.2507
 161  248.61
 162  350.6033
 163  320.4522
 164  384.0346
 165  440.0428
 166  470.1147
 167  414.7194
 168  460.862
 169  437.4184
 170  395.3491
 171  391.3226
 172  444.236
 173  429.8162
 174  500.3492
 175  373.0844
 176  254.2625
 177  381.2256
 178  407.1355
 179  452.0303
 180  535.8467
 181  582.6122
 182  461.4522
 183  365.8439
 184  372.639
 185  359.5935
 186  369.5272
 187  423.1554
 188  425.36
 189  420.4062
 190  376.9371
 191  336.356
 192  370.81
 193  372.5595
 194  480.346
 195  515.124
 196  448.273
 197  463.3746
 198  423.9896
 199  395.3331
 200  382.9349
 201  415.2678
 202  338.5795
 203  376.5008
 204  346.6125
 205  390.0376
 206  364.0394
 207  250.0171
 208  248.7853
 209  345.2279
 210  432.1999
 211  359.8914
 212  434.9519
 213  461.4316
 214  418.0209
 215  413.3786
 216  453.6898
 217  350.229
 218  355.441
 219  457.4485
 220  382.6477
 221  373.505
 222  442.7913
 223  471.0911
 224  512.3325
 225  332.2339
 226  353.4611
 227  438.5515
 228  332.2029
 229  270.9159
 230  368.5722
 231  448.7956
 232  445.9157
 233  436.6343
 234  420.9416
 235  387.5314
 236  340.1243
 237  387.2582
 238  371.8805
 239  386.0276
 240  372.3667
 241  382.9602
 242  383.7392
 243  379.3496
 244  464.2587
 245  512.6012
 246  495.0936
 247  561.8375
 248  521.2695
 249  512.0737
 250  446.3375
 251  416.3987
 252  344.5207
 253  491.0943
 254  492.82
 255  580.9358
 256  540.536
 257  457.3807
 258  449.7881
 259  559.3544
 260  612.9331
 261  664.906
 262  664.5084
 263  569.4109
 264  453.9848
 265  316.1704
 266  417.1519
 267  468.9606
 268  450.8597
 269  534.8994
 270  436.9563
 271  402.4115
 272  361.9484
 273  446.1964
 274  322.6192
 275  321.3633
 276  372.2942
 277  315.6311
 278  343.8718
 279  390.8467
 280  431.2738
 281  395.8223
 282  259.1012
 283  316.5687
 284  349.7242
 285  444.447
 286  389.5096
 287  174.6601
 288  299.9575
 289  457.1723
 290  424.0133
 291  384.1464
 292  338.9094
 293  282.2207
 294  380.4172
 295  365.8285
 296  348.2755
 297  347.0037
 298  423.425
 299  453.6862
 300  324.8118
 301  267.6576
 302  400.6356
 303  328.2055
 304  360.1711
 305  493.8654
 306  362.2245
 307  345.919
 308  423.234
 309  318.2604
 310  327.4268
 311  333.7564
 312  421.9455
 313  378.9976
 314  244.1364
 315  364.4311
 316  505.1222
 317  420.3813
 318  315.4419
 319  351.1182
 320  365.0845
 321  303.7805
 322  330.394
 323  213.6247
 324  212.9297
 325  229.4336
 326  341.0568
 327  362.7706
 328  307.0778
 329  370.3074
 330  423.2541
 331  392.0786
 332  402.8056
 333  442.6473
 334  483.7947
 335  470.1374
 336  377.2148
 337  390.1753
 338  436.0159
 339  332.9296
 340  321.6913
 341  275.5165
 342  289.7784
 343  387.0694
 344  369.1834
 345  366.6913
 346  333.6197
 347  332.1645
 348  293.7213
 349  326.5468
 350  263.3526
 351  151.6981
 352  173.8296
 353  360.015
 354  408.1765
 355  343.3333
 356  251.6204
 357  337.6321
 358  331.8842
 359  384.7736
 360  361.4454
 361  304.3432
 362  320.8677
 363  420.5222
 364  472.0156
 365  363.9288
 366  381.8647
 367  413.1786
 368  322.1059
 369  283.8803
 370  217.4228
 371  319.8519
 372  352.5283
 373  361.0998
 374  318.2809
 375  337.3887
 376  310.5553
 377  348.9308
 378  313.999
 379  330.2247
 380  292.483
 381  275.5388
 382  330.9811
 383  368.5156
 384  391.6221
 385  238.7741
 386  234.8669
 387  356.1992
 388  413.2711
 389  389.8621
 390  346.7655
 391  353.5533
 392  222.4638
 393  300.1422
 394  154.1655
 395  176.2336
 396  362.3326
 397  370.9422
 398  410.8656
 399  355.3274
 400  351.0374
 401  294.6829
 402  322.1319
 403  423.9085
 404  418.2924
 405  335.135
 406  423.8582
 407  399.2602
 408  282.4135
 409  328.3456
 410  355.8133
 411  406.9954
 412  368.532
 413  278.3807
 414  217.0092
 415  204.7915
 416  384.5734
 417  522.9249
 418  477.7666
 419  337.6241
 420  275.3013
 421  369.4286
 422  302.6671
 423  344.0483
 424  432.6959
 425  408.6511
 426  344.6031
 427  396.3539
 428  441.2022
 429  406.6499
 430  453.208
 431  338.881
 432  370.1091
 433  403.3202
 434  435.7223
 435  377.7908
 436  204.365
 437  242.1249
 438  241.0203
 439  242.2637
 440  257.1673
 441  399.2953
 442  429.5129
 443  389.9707
 444  410.4485
 445  548.6438
 446  415.1492
 447  387.1071
 448  317.0125
 449  316.2235
 450  376.9771
 451  316.144
 452  299.6479
 453  214.3605
 454  235.6756
 455  407.4164
 456  458.1572
 457  418.157
 458  321.7008
 459  315.4273
 460  317.1153
 461  284.6764
 462  205.0464
 463  290.5962
 464  404.0703
 465  322.3057
 466  287.6796
 467  215.2978
 468  343.6115
 469  249.328
 470  308.4076
 471  330.0928
 472  478.1134
 473  380.5529
 474  346.6882
 475  298.1519
 476  321.6612
 477  546.2646
 478  409.4404
 479  370.3812
 480  305.0899
 481  331.6062
 482  492.6634
 483  439.7567
 484  408.3311
 485  355.8915
 486  285.7361
 487  220.2144
 488  284.4868
 489  431.603
 490  499.2737
 491  482.7432
 492  467.3559
 493  331.5058
 494  263.4283
 495  419.7281
 496  441.9695
 497  410.9556
 498  513.1557
 499  462.0933
 500  285.7157
 501  323.9178
 502  340.8543
 503  361.2319
 504  446.4213
 505  359.931
 506  341.1287
 507  349.412
 508  406.0172
 509  386.806
 510  348.5751
 511  376.1636
