# Input file       =  1198417033.107820-PSRB0329-2ms-sampling-dd.dat
# Candidate        =  PSR_0332+5434
# Telescope        =  AR
# Epoch_topo       =  58114.567732729396
# Epoch_bary       =  N/A
# T_sample         =  0.002
# Data Folded      =  7208960
# Data Avg         =  -3.37343991179152e-09
# Data StdDev      =  50.1069419678027 
# Profile Bins     =  512
# Profile Avg      =  0.153450496252434
# Profile StdDev   =  5945.64843543374 
# Reduced chi-sqr  =  1.345
# Prob(Noise)      <  2.89e-07   (~5.0 sigma)
# P_topo (ms)      =  714.551879921904  +/- 0.000173
# P'_topo (s/s)    =  -0                +/- 9.28e-11
# P''_topo (s/s^2) =  0                 +/- 4.17e-14
# P_bary (ms)      =  N/A
# P'_bary (s/s)    =  N/A
# P''_bary (s/s^2) =  N/A
# P_orb (s)        =  N/A
# asin(i)/c (s)    =  N/A
# eccentricity     =  N/A
# w (rad)          =  N/A
# T_peri           =  N/A
######################################################
   0  -2477.177
   1  -2872.89
   2  -4012.02
   3  -3304.141
   4  1651.41
   5  3371.817
   6  3336.043
   7  4374.956
   8  2938.616
   9  2957.186
  10  3852.798
  11  6404.394
  12  6419.941
  13  6168.168
  14  6779.06
  15  8513.294
  16  13436.75
  17  16324.28
  18  14883.35
  19  12565.66
  20  4125.792
  21  -1089.612
  22  -1332.774
  23  9493.725
  24  8754.364
  25  8807.851
  26  8829.719
  27  -877.6318
  28  -2600.375
  29  -3942.65
  30  -3942.402
  31  -3592.971
  32  -2864.601
  33  -2004.151
  34  -1083.987
  35  -1539.245
  36  -330.8513
  37  -107.869
  38  117.1995
  39  2158.894
  40  6798.729
  41  9870.297
  42  8685.402
  43  8274.762
  44  4820.942
  45  -1063.026
  46  3290.188
  47  7781.877
  48  9310.463
  49  8006.077
  50  3568.021
  51  -1715.167
  52  -6006.51
  53  -4583.603
  54  -2458.675
  55  136.4599
  56  415.2729
  57  707.022
  58  -662.8268
  59  -2981.719
  60  -3302.23
  61  -1748.139
  62  527.6001
  63  751.8819
  64  633.156
  65  -1592.746
  66  -4083.398
  67  -5759.377
  68  -5076.902
  69  -4311.08
  70  -2742.25
  71  330.4243
  72  329.2069
  73  663.5177
  74  -74.86224
  75  -3346.811
  76  -2584.438
  77  -1544.377
  78  -104.8992
  79  -507.1703
  80  162.1451
  81  -1590.948
  82  -2697.089
  83  -4217.216
  84  -4192.915
  85  -4833.077
  86  -5377.281
  87  -5669.636
  88  -6911.036
  89  -4739.599
  90  -4117.005
  91  -2599.877
  92  -2651.486
  93  -3032.79
  94  -3924.984
  95  -4721.422
  96  -2616.428
  97  515.8215
  98  2226.785
  99  2173.253
 100  3239.521
 101  1471.739
 102  1294.685
 103  3374.761
 104  5732.878
 105  7950.538
 106  9523.439
 107  11194.97
 108  8906.593
 109  3966.134
 110  3707.991
 111  5465.574
 112  13364.23
 113  17974.58
 114  18351.06
 115  17147.71
 116  7400.568
 117  3707.793
 118  2302.191
 119  18341.2
 120  20285.14
 121  19777.39
 122  19910.58
 123  8587.246
 124  4929.424
 125  2110.515
 126  10255.41
 127  11649.01
 128  11507.09
 129  10199.63
 130  5068.38
 131  3333.698
 132  1583.345
 133  3827.43
 134  3477.064
 135  4208.003
 136  3970.843
 137  2340.673
 138  654.6251
 139  581.116
 140  8251.336
 141  14829.14
 142  16302.62
 143  14191.03
 144  9345.742
 145  464.1967
 146  -756.6105
 147  5132.229
 148  7741.934
 149  7883.648
 150  5830.259
 151  2284.7
 152  -1054.578
 153  -3424.891
 154  -3437.713
 155  -2111.58
 156  -1226.903
 157  -675.2798
 158  -593.6255
 159  -1947.095
 160  -3026.843
 161  -4695.333
 162  -3895.524
 163  -3274.168
 164  -3239.959
 165  -3030.47
 166  -3148.346
 167  -3422.237
 168  -3858.293
 169  -4338.573
 170  -4925.491
 171  -5138.344
 172  -3287.824
 173  -3969.917
 174  -3519.027
 175  -1639.161
 176  -1974.124
 177  -1594.888
 178  1613.818
 179  5977.595
 180  7019.009
 181  5423.424
 182  2314.479
 183  -96.94902
 184  -1456.263
 185  5176.682
 186  6551.455
 187  6464.732
 188  3932.959
 189  -337.2446
 190  -1545.29
 191  -2619.292
 192  -2911.19
 193  -2719.579
 194  -2801.272
 195  -1975.308
 196  -1415.177
 197  -1990.94
 198  -3522.397
 199  -4458.069
 200  -4291.218
 201  -3591.351
 202  -2705.541
 203  -2510.765
 204  -1660.813
 205  777.9604
 206  2794.858
 207  2867.208
 208  3831.675
 209  1506.855
 210  -1821.878
 211  -957.8571
 212  2280.093
 213  3463.487
 214  2827.387
 215  1075.156
 216  -1842.192
 217  -3522.512
 218  -3846.448
 219  -3394.57
 220  -3942.661
 221  -4051.175
 222  -3929.122
 223  -4112.668
 224  -4462.032
 225  -4806.861
 226  -4716.365
 227  -3681.158
 228  -4079.668
 229  -4812.419
 230  -5113.153
 231  -5542.436
 232  -6137.357
 233  -5872.972
 234  -5215.501
 235  -5690.297
 236  -6285.65
 237  -5638.671
 238  -4270.44
 239  -4249.607
 240  -4038.042
 241  -4647.068
 242  -4560.046
 243  -3850.085
 244  -1570.463
 245  706.3552
 246  2002.016
 247  1884.076
 248  -1321.688
 249  -2647.11
 250  -2019.517
 251  1276.143
 252  2255.465
 253  2628.657
 254  2359.759
 255  -260.252
 256  -1920.358
 257  -3262.913
 258  -2501.714
 259  -1771.273
 260  -1408.733
 261  -801.3188
 262  -1387.264
 263  -1302.565
 264  -1719.009
 265  1249.979
 266  2286.961
 267  2321.233
 268  1712.794
 269  -362.0462
 270  71.54227
 271  1907.98
 272  3468.748
 273  2542.575
 274  6882.818
 275  5750.836
 276  6502.854
 277  5865.672
 278  2565.092
 279  1945.684
 280  650.4625
 281  5090.221
 282  5278.075
 283  5686.423
 284  3286.818
 285  56.90208
 286  -2616.196
 287  -3668.483
 288  -2720.493
 289  -2404.001
 290  560.7527
 291  563.2275
 292  -662.0235
 293  -1242.224
 294  682.5182
 295  3826.841
 296  5581.136
 297  6385.458
 298  3554.555
 299  613.5136
 300  1894.793
 301  5221.252
 302  5093.021
 303  2676.7
 304  1936.434
 305  -2567.799
 306  -2169.679
 307  -486.5033
 308  534.9498
 309  3505.961
 310  2831.813
 311  3870.109
 312  5566.44
 313  4307.786
 314  2896.88
 315  4656.104
 316  6071.861
 317  10039.74
 318  10055.3
 319  13173.28
 320  12340.54
 321  5476.056
 322  2749.015
 323  1368.45
 324  6431.3
 325  5817.487
 326  5893.978
 327  1088.065
 328  -3365.559
 329  -5049.314
 330  -4851.143
 331  -5017.791
 332  -5477.075
 333  -5163.72
 334  -5592.652
 335  -5642.815
 336  -4937.924
 337  -4574.257
 338  -3850.328
 339  -2910.326
 340  -2607.631
 341  -3568.064
 342  -3538.955
 343  -3642.128
 344  -2862.81
 345  -1605.135
 346  -2375.32
 347  -2010.564
 348  -1682.548
 349  -1958.408
 350  -2379.744
 351  -2375.058
 352  -3015.63
 353  -3198.938
 354  -3976.889
 355  -4660.9
 356  -4564.503
 357  -4888.179
 358  -4276.411
 359  -3499.158
 360  -3095.747
 361  -4226.793
 362  -4640.349
 363  -4771.287
 364  -5867.781
 365  -5130.981
 366  -5030.032
 367  -4957.878
 368  -5230.16
 369  -5347.209
 370  -5727.501
 371  -5790.193
 372  -6406.374
 373  -5659.162
 374  -4147.342
 375  -3314.264
 376  -3658.123
 377  -3686.585
 378  -4090.301
 379  -2878.104
 380  -241.6114
 381  3991.44
 382  4051.124
 383  5552.146
 384  5489.039
 385  -838.3826
 386  1373.785
 387  4909.158
 388  6945.218
 389  4697.539
 390  5481.821
 391  2408.848
 392  -14.05798
 393  -1613.493
 394  -2180.69
 395  -3588.401
 396  -4574.222
 397  -3925.143
 398  -1703.267
 399  -1482.858
 400  -1547.916
 401  -872.4432
 402  -1333.4
 403  -837.727
 404  -176.184
 405  1941.824
 406  2947.694
 407  1982.343
 408  1154.687
 409  709.3931
 410  1694.741
 411  558.7043
 412  105.2995
 413  -2966.239
 414  -4129.519
 415  -3519.28
 416  -3542.28
 417  -2674.387
 418  -2400.28
 419  -1054.526
 420  -676.204
 421  -844.4523
 422  -1623.157
 423  -2036.256
 424  -1538.881
 425  -756.6117
 426  432.451
 427  818.6841
 428  304.7186
 429  -2222.016
 430  -4165.499
 431  -5652.975
 432  -4965.099
 433  -4030.572
 434  -2773.74
 435  -3049.622
 436  -3434.926
 437  -5294.193
 438  -6661.39
 439  -6832.289
 440  -6807.002
 441  -6289.662
 442  -5795.814
 443  -5426.501
 444  -4344.395
 445  -4526.065
 446  -4300.617
 447  -3791.807
 448  -4230.184
 449  -3258.521
 450  -3507.112
 451  -3643.784
 452  -3455.296
 453  -2699.256
 454  -1084.82
 455  -49.77866
 456  -62.79521
 457  -220.4349
 458  -1296.649
 459  -2366.784
 460  -1416.473
 461  153.2263
 462  406.4406
 463  -524.2333
 464  -1848.99
 465  -2682.973
 466  -4137.617
 467  -4394.4
 468  -4409.892
 469  -4691.137
 470  -3843.988
 471  -3319.284
 472  -2513.159
 473  -2464.439
 474  -2502.145
 475  -1591.144
 476  -895.5021
 477  -123.7588
 478  165.0278
 479  -1235.872
 480  -2852.869
 481  -1125.952
 482  164.826
 483  1181.49
 484  134.1576
 485  -1115.393
 486  -1645.131
 487  -3311.427
 488  -3789.103
 489  -4488.967
 490  -3920.768
 491  -3479.856
 492  -3446.255
 493  -3162.343
 494  -3945.106
 495  -5234.139
 496  -6105.931
 497  -6623.657
 498  -6363.25
 499  -6480.986
 500  -6435.857
 501  -5189.914
 502  -4370.894
 503  -4517.768
 504  -4711.788
 505  -4061.058
 506  -4467.824
 507  -5286.217
 508  -4942.116
 509  -3886.31
 510  -1532.722
 511  -1639.298
