# Input file       =  1198015849.104194_cleaned.dat
# Candidate        =  PSR_0332+5434
# Telescope        =  AR
# Epoch_topo       =  58109.924399354095
# Epoch_bary       =  N/A
# T_sample         =  0.002
# Data Folded      =  7340032
# Data Avg         =  0.0265804391951145
# Data StdDev      =  1.00007676029261 
# Profile Bins     =  512
# Profile Avg      =  381.036237340042 
# Profile StdDev   =  119.742227119673 
# Reduced chi-sqr  =  0.793
# Prob(Noise)      <  1   (~0.0 sigma)
# P_topo (ms)      =  714.547977352135  +/- 0.000933
# P'_topo (s/s)    =  -0                +/- 4.92e-10
# P''_topo (s/s^2) =  0                 +/- 2.17e-13
# P_bary (ms)      =  N/A
# P'_bary (s/s)    =  N/A
# P''_bary (s/s^2) =  N/A
# P_orb (s)        =  N/A
# asin(i)/c (s)    =  N/A
# eccentricity     =  N/A
# w (rad)          =  N/A
# T_peri           =  N/A
######################################################
   0  328.4973
   1  386.3812
   2  394.1036
   3  347.9214
   4  292.281
   5  341.3628
   6  384.8373
   7  321.4677
   8  347.8888
   9  324.1419
  10  479.4736
  11  450.1023
  12  373.8774
  13  353.022
  14  340.6074
  15  335.0562
  16  267.7686
  17  262.1291
  18  242.7582
  19  258.1895
  20  232.1283
  21  344.1163
  22  275.4226
  23  355.798
  24  390.2696
  25  373.8203
  26  402.7804
  27  361.1705
  28  376.8324
  29  375.1766
  30  430.0576
  31  373.1118
  32  245.3479
  33  435.8495
  34  409.1293
  35  274.5606
  36  318.1745
  37  450.0316
  38  506.2262
  39  277.1279
  40  270.0984
  41  330.8792
  42  432.1023
  43  473.2347
  44  505.304
  45  494.0942
  46  506.9973
  47  600.2253
  48  628.4332
  49  556.837
  50  601.8574
  51  695.7035
  52  636.153
  53  469.398
  54  371.8542
  55  453.8016
  56  473.5864
  57  301.0492
  58  308.0373
  59  341.3531
  60  407.5419
  61  338.5746
  62  332.0804
  63  332.1668
  64  365.8862
  65  378.5623
  66  503.1922
  67  420.2727
  68  322.086
  69  321.0766
  70  370.8311
  71  447.1198
  72  358.6569
  73  278.3427
  74  340.5645
  75  432.3991
  76  442.3155
  77  351.811
  78  382.3582
  79  292.1523
  80  384.3316
  81  362.8792
  82  326.1331
  83  391.7712
  84  417.9502
  85  403.1363
  86  341.6879
  87  412.6011
  88  372.7003
  89  226.9929
  90  397.54
  91  353.7213
  92  373.8853
  93  353.1947
  94  364.5539
  95  323.068
  96  291.8177
  97  457.1585
  98  405.1174
  99  299.0073
 100  334.8336
 101  324.6658
 102  335.0435
 103  431.6026
 104  324.5427
 105  398.1452
 106  378.7656
 107  434.796
 108  382.1425
 109  318.8488
 110  326.36
 111  401.1561
 112  419.6555
 113  384.5592
 114  346.5523
 115  326.4419
 116  296.5419
 117  369.6045
 118  379.2446
 119  420.7523
 120  390.8059
 121  396.638
 122  381.1941
 123  484.6133
 124  489.7997
 125  506.5553
 126  349.2422
 127  310.1791
 128  346.1118
 129  301.0057
 130  343.2621
 131  327.4758
 132  399.3463
 133  463.4286
 134  454.3634
 135  407.2199
 136  402.198
 137  245.2978
 138  287.9575
 139  371.4418
 140  395.2889
 141  386.369
 142  318.3188
 143  265.5421
 144  369.5773
 145  290.2706
 146  318.424
 147  385.0004
 148  403.2483
 149  336.009
 150  365.1638
 151  371.3177
 152  339.2578
 153  350.5938
 154  368.5487
 155  417.0649
 156  386.0287
 157  279.7137
 158  270.7834
 159  228.7748
 160  249.6911
 161  281.5376
 162  321.8726
 163  391.1094
 164  427.046
 165  424.1441
 166  359.1058
 167  383.9149
 168  391.4736
 169  431.5405
 170  484.1956
 171  434.4639
 172  418.3552
 173  293.0049
 174  387.3319
 175  321.0564
 176  245.8214
 177  294.5885
 178  372.6823
 179  343.6205
 180  367.1802
 181  423.5861
 182  338.6805
 183  242.5591
 184  222.3258
 185  331.4061
 186  349.2007
 187  298.0432
 188  236.016
 189  239.7752
 190  309.0772
 191  412.5925
 192  282.7479
 193  242.1802
 194  442.4575
 195  483.1029
 196  467.3946
 197  513.2844
 198  467.0806
 199  454.5855
 200  255.452
 201  257.4166
 202  364.8963
 203  347.5166
 204  331.7357
 205  413.0107
 206  412.4809
 207  388.433
 208  425.83
 209  430.4208
 210  376.0423
 211  344.1568
 212  334.4569
 213  284.671
 214  256.5509
 215  269.5377
 216  287.0347
 217  399.313
 218  491.2783
 219  485.5183
 220  452.6159
 221  388.2565
 222  356.1925
 223  405.4774
 224  472.4135
 225  426.1055
 226  335.335
 227  371.2306
 228  388.2553
 229  243.7856
 230  247.2092
 231  332.5952
 232  409.641
 233  550.6544
 234  551.3255
 235  401.4038
 236  347.3566
 237  275.4343
 238  331.2962
 239  364.0137
 240  404.9875
 241  493.0544
 242  469.1654
 243  293.0856
 244  275.8271
 245  309.3252
 246  325.5379
 247  314.4475
 248  359.8897
 249  342.4956
 250  359.2051
 251  436.8736
 252  400.3268
 253  332.0167
 254  354.1467
 255  387.4563
 256  384.8346
 257  350.9294
 258  454.4593
 259  499.6915
 260  463.0603
 261  429.5637
 262  357.5407
 263  400.3311
 264  445.0118
 265  422.3628
 266  395.9166
 267  467.93
 268  462.7179
 269  508.8008
 270  415.3532
 271  395.7438
 272  391.5999
 273  414.4947
 274  417.918
 275  432.9161
 276  451.8657
 277  460.3806
 278  417.8781
 279  469.9921
 280  520.2234
 281  650.4222
 282  551.2552
 283  408.602
 284  344.1333
 285  522.8098
 286  417.6263
 287  352.8616
 288  407.885
 289  420.1668
 290  531.3217
 291  472.3414
 292  468.4885
 293  487.1492
 294  446.7762
 295  437.6828
 296  447.0203
 297  466.1869
 298  431.5927
 299  390.1374
 300  412.6773
 301  454.4494
 302  466.5153
 303  351.5602
 304  364.7513
 305  347.2667
 306  326.4149
 307  298.075
 308  371.8383
 309  396.7731
 310  386.8241
 311  343.1188
 312  422.6709
 313  424.3144
 314  363.019
 315  453.202
 316  436.2436
 317  500.8223
 318  508.488
 319  494.41
 320  425.138
 321  294.4539
 322  306.9415
 323  412.7534
 324  395.1203
 325  361.0379
 326  366.735
 327  314.1903
 328  389.5152
 329  348.0165
 330  339.7285
 331  523.7824
 332  528.3215
 333  354.0016
 334  396.2717
 335  395.8976
 336  232.782
 337  266.5455
 338  499.8232
 339  505.1284
 340  501.7294
 341  419.5765
 342  357.5206
 343  278.1204
 344  295.271
 345  359.5612
 346  397.4117
 347  368.7656
 348  412.3513
 349  352.775
 350  266.2689
 351  412.0652
 352  469.476
 353  433.3479
 354  352.8278
 355  336.1801
 356  402.2325
 357  511.3069
 358  497.1737
 359  499.7967
 360  365.076
 361  333.8156
 362  452.9988
 363  404.6386
 364  529.5996
 365  437.715
 366  430.3534
 367  477.4886
 368  348.9207
 369  319.6082
 370  280.86
 371  399.1006
 372  353.9702
 373  380.3257
 374  381.8554
 375  423.1091
 376  453.8224
 377  495.5736
 378  385.3174
 379  355.525
 380  362.4644
 381  344.2812
 382  262.4304
 383  326.1117
 384  457.4054
 385  432.1201
 386  271.6755
 387  271.8781
 388  279.1693
 389  311.0939
 390  388.933
 391  463.8538
 392  461.0826
 393  308.468
 394  304.5091
 395  368.575
 396  393.1599
 397  408.0048
 398  408.3958
 399  409.2185
 400  455.4901
 401  480.9652
 402  483.7561
 403  321.0893
 404  370.3999
 405  472.3262
 406  590.6948
 407  419.7688
 408  371.9881
 409  403.6278
 410  357.2785
 411  331.3289
 412  485.8455
 413  363.2315
 414  311.75
 415  422.5172
 416  410.239
 417  481.5754
 418  511.9579
 419  469.6501
 420  512.4512
 421  441.2189
 422  432.442
 423  433.4395
 424  478.44
 425  364.8901
 426  299.5973
 427  310.5629
 428  283.8149
 429  389.8169
 430  401.022
 431  418.8582
 432  456.4473
 433  493.8868
 434  395.2033
 435  241.0428
 436  242.6565
 437  190.4429
 438  226.7858
 439  404.9877
 440  381.8621
 441  452.542
 442  357.757
 443  251.7426
 444  205.8356
 445  212.0704
 446  424.6224
 447  423.1949
 448  415.0945
 449  449.4216
 450  439.5315
 451  411.7747
 452  390.0305
 453  303.0294
 454  351.9969
 455  368.2519
 456  449.7174
 457  415.4565
 458  364.5918
 459  425.5841
 460  339.4219
 461  333.5804
 462  314.2398
 463  323.1127
 464  327.4042
 465  331.8268
 466  317.1603
 467  412.8869
 468  456.3049
 469  433.7368
 470  343.119
 471  379.7603
 472  313.943
 473  435.955
 474  441.2571
 475  383.9738
 476  372.0211
 477  401.1723
 478  417.127
 479  312.3222
 480  314.901
 481  269.5714
 482  248.5126
 483  345.7753
 484  314.2733
 485  314.0899
 486  285.5067
 487  186.936
 488  267.0605
 489  334.8904
 490  345.8481
 491  327.3569
 492  266.7939
 493  404.6718
 494  297.2964
 495  316.7954
 496  318.1495
 497  242.7382
 498  343.9516
 499  357.5941
 500  427.1118
 501  430.6648
 502  467.5545
 503  445.8207
 504  303.5427
 505  392.858
 506  408.5164
 507  381.7772
 508  424.7949
 509  372.68
 510  370.002
 511  263.7935
