# Input file       =  1198761694.129448_cleaned.dat
# Candidate        =  PSR_0332+5434
# Telescope        =  AR
# Epoch_topo       =  58118.556864924169
# Epoch_bary       =  N/A
# T_sample         =  0.002
# Data Folded      =  7405568
# Data Avg         =  0.0205033125725189
# Data StdDev      =  1.00006110512915 
# Profile Bins     =  512
# Profile Avg      =  296.575727956726 
# Profile StdDev   =  120.273719919118 
# Reduced chi-sqr  =  1.348
# Prob(Noise)      <  2.34e-07   (~5.0 sigma)
# P_topo (ms)      =  714.55536565579   +/- 6.36e-05
# P'_topo (s/s)    =  -0                +/- 3.33e-11
# P''_topo (s/s^2) =  0                 +/- 1.46e-14
# P_bary (ms)      =  N/A
# P'_bary (s/s)    =  N/A
# P''_bary (s/s^2) =  N/A
# P_orb (s)        =  N/A
# asin(i)/c (s)    =  N/A
# eccentricity     =  N/A
# w (rad)          =  N/A
# T_peri           =  N/A
######################################################
   0  757.9706
   1  617.2974
   2  633.2487
   3  452.3954
   4  457.4285
   5  365.3488
   6  398.8676
   7  346.6725
   8  350.9669
   9  380.1793
  10  396.8029
  11  354.9081
  12  453.1226
  13  411.6758
  14  345.9511
  15  371.1938
  16  327.8523
  17  430.0773
  18  418.4412
  19  413.3995
  20  380.9806
  21  281.4688
  22  317.3964
  23  170.6753
  24  211.4471
  25  392.7988
  26  336.1715
  27  332.741
  28  217.7752
  29  311.0345
  30  370.8729
  31  312.3479
  32  278.0311
  33  331.2474
  34  340.7236
  35  478.7267
  36  504.9042
  37  332.8719
  38  210.9944
  39  65.5779
  40  151.3503
  41  280.1659
  42  455.1915
  43  546.1434
  44  453.2433
  45  377.523
  46  368.9403
  47  280.8078
  48  325.0433
  49  369.439
  50  308.2213
  51  340.0623
  52  330.4744
  53  183.6987
  54  214.1193
  55  296.6549
  56  125.1259
  57  96.32755
  58  297.1548
  59  379.5556
  60  371.4872
  61  299.1082
  62  337.2482
  63  297.3566
  64  225.5164
  65  93.60304
  66  193.2604
  67  201.2702
  68  236.7551
  69  178.8796
  70  403.1233
  71  329.139
  72  210.9482
  73  176.1331
  74  346.842
  75  206.9896
  76  377.2926
  77  424.8385
  78  344.8984
  79  368.2462
  80  439.3163
  81  443.2688
  82  431.3364
  83  425.0532
  84  503.7047
  85  427.7881
  86  498.5461
  87  438.0543
  88  418.0676
  89  394.3154
  90  232.7443
  91  232.9012
  92  333.5669
  93  328.5346
  94  251.2027
  95  346.3513
  96  366.2484
  97  284.4451
  98  276.4078
  99  391.7518
 100  350.3773
 101  291.4575
 102  408.8611
 103  474.4703
 104  277.8367
 105  273.7373
 106  338.053
 107  301.688
 108  159.5686
 109  267.7938
 110  378.3697
 111  482.8811
 112  465.1118
 113  328.1271
 114  229.6504
 115  138.9174
 116  218.8132
 117  241.1953
 118  302.2675
 119  385.813
 120  326.4743
 121  156.6537
 122  254.9139
 123  186.8988
 124  275.0387
 125  250.396
 126  230.6557
 127  337.1592
 128  348.7058
 129  245.556
 130  165.6592
 131  177.0335
 132  148.5643
 133  172.6525
 134  214.9072
 135  328.0077
 136  321.3202
 137  323.6937
 138  236.7628
 139  153.4131
 140  298.8628
 141  315.6709
 142  297.5217
 143  491.4171
 144  415.5288
 145  338.1818
 146  272.3641
 147  221.8875
 148  231.1247
 149  268.1121
 150  355.6403
 151  363.3301
 152  425.0407
 153  436.6086
 154  419.0371
 155  393.0223
 156  182.7202
 157  365.0002
 158  481.2006
 159  405.3858
 160  264.2694
 161  240.1632
 162  278.2014
 163  339.1121
 164  325.1883
 165  310.6186
 166  319.9507
 167  287.1101
 168  352.5561
 169  263.688
 170  208.1026
 171  352.2822
 172  343.1055
 173  413.4312
 174  389.9917
 175  426.226
 176  350.066
 177  299.676
 178  325.7173
 179  168.7831
 180  103.8834
 181  220.2724
 182  277.3661
 183  295.6921
 184  420.3744
 185  325.3892
 186  400.2326
 187  427.1807
 188  266.8293
 189  79.78923
 190  367.5288
 191  291.3358
 192  252.5916
 193  448.4324
 194  372.7468
 195  361.5727
 196  308.6128
 197  394.1797
 198  388.4642
 199  305.9089
 200  359.4912
 201  377.0537
 202  415.3366
 203  372.178
 204  241.4893
 205  172.8829
 206  205.5153
 207  283.4085
 208  250.4948
 209  344.9676
 210  308.4147
 211  482.8512
 212  350.0035
 213  245.4561
 214  277.3047
 215  238.2316
 216  368.7244
 217  378.4791
 218  383.3445
 219  400.119
 220  363.6281
 221  326.4147
 222  315.6849
 223  325.9115
 224  438.4802
 225  501.2209
 226  403.6359
 227  346.9428
 228  104.317
 229  197.2988
 230  332.1506
 231  417.827
 232  298.3864
 233  465.2234
 234  435.1614
 235  366.8553
 236  423.7821
 237  83.89578
 238  238.1745
 239  271.1646
 240  317.9474
 241  241.5689
 242  373.6926
 243  422.342
 244  257.9608
 245  54.0455
 246  152.526
 247  391.0273
 248  310.4543
 249  289.5391
 250  227.5654
 251  227.4541
 252  258.4699
 253  414.0757
 254  348.5302
 255  278.4256
 256  359.0827
 257  171.5147
 258  182.9448
 259  327.1409
 260  353.7484
 261  258.6031
 262  287.9712
 263  275.3318
 264  351.6999
 265  331.12
 266  247.0272
 267  230.054
 268  286.1807
 269  355.7513
 270  224.3821
 271  262.9096
 272  320.5367
 273  320.4554
 274  269.4134
 275  166.7925
 276  276.57
 277  322.7226
 278  219.3628
 279  129.9545
 280  154.8111
 281  244.5079
 282  227.2684
 283  294.2227
 284  321.9532
 285  311.2312
 286  227.3663
 287  215.2425
 288  299.4018
 289  319.4112
 290  297.7621
 291  280.518
 292  315.6486
 293  250.6548
 294  334.5407
 295  194.6964
 296  66.45346
 297  148.9016
 298  185.2535
 299  227.2901
 300  256.8406
 301  541.5172
 302  386.2938
 303  192.9948
 304  142.8376
 305  213.8607
 306  364.5332
 307  237.6667
 308  303.7485
 309  339.7388
 310  322.9287
 311  259.0319
 312  25.78578
 313  180.9513
 314  347.6851
 315  365.743
 316  387.0989
 317  308.4026
 318  208.6476
 319  269.7047
 320  260.2806
 321  194.4731
 322  213.6255
 323  224.0838
 324  246.1717
 325  200.6065
 326  255.4269
 327  193.2871
 328  236.9689
 329  261.3267
 330  241.2335
 331  288.9958
 332  291.469
 333  396.0849
 334  275.3211
 335  385.3175
 336  299.9777
 337  199.4694
 338  225.2856
 339  323.4145
 340  363.8755
 341  399.2355
 342  479.9697
 343  259.0194
 344  227.5689
 345  243.288
 346  103.117
 347  44.1209
 348  225.9769
 349  307.4966
 350  366.8268
 351  307.0609
 352  163.5157
 353  67.91184
 354  178.6254
 355  250.1048
 356  181.1389
 357  296.7199
 358  333.965
 359  289.485
 360  277.6267
 361  183.0448
 362  252.1149
 363  347.0379
 364  215.5093
 365  277.8676
 366  264.4352
 367  281.307
 368  289.2633
 369  124.9899
 370  316.1634
 371  307.2362
 372  335.4139
 373  428.4296
 374  224.3086
 375  229.0813
 376  327.7586
 377  360.9395
 378  364.6142
 379  252.0132
 380  238.5094
 381  259.3225
 382  292.3479
 383  268.4886
 384  202.0222
 385  216.3757
 386  50.61026
 387  -6.681328
 388  147.9747
 389  267.2695
 390  245.8931
 391  197.4979
 392  193.2045
 393  251.2001
 394  182.529
 395  200.3448
 396  238.3806
 397  248.7659
 398  217.3326
 399  162.7901
 400  287.2118
 401  443.5645
 402  281.9994
 403  148.0077
 404  219.0467
 405  269.8598
 406  284.7508
 407  380.4648
 408  431.8279
 409  302.6
 410  358.1121
 411  335.7762
 412  422.6444
 413  336.6917
 414  386.0786
 415  334.233
 416  284.4875
 417  328.3309
 418  351.5324
 419  244.6831
 420  275.1002
 421  304.1999
 422  322.634
 423  291.907
 424  373.6277
 425  201.466
 426  246.2168
 427  275.3737
 428  204.3712
 429  221.0269
 430  252.8922
 431  200.7308
 432  269.4474
 433  236.3267
 434  246.3708
 435  327.5046
 436  149.6693
 437  257.818
 438  267.593
 439  275.0091
 440  230.298
 441  278.2304
 442  291.6873
 443  219.7054
 444  239.2887
 445  369.7749
 446  86.018
 447  95.15303
 448  236.6797
 449  347.6197
 450  248.2789
 451  225.5028
 452  304.32
 453  267.4107
 454  157.3533
 455  119.9093
 456  255.0803
 457  294.6502
 458  336.7118
 459  345.9349
 460  206.4856
 461  104.3463
 462  93.23463
 463  175.316
 464  248.5213
 465  202.363
 466  232.5474
 467  271.5421
 468  162.4997
 469  273.5746
 470  367.2608
 471  384.7326
 472  231.453
 473  272.9861
 474  245.6996
 475  198.6166
 476  148.2508
 477  208.8373
 478  313.6735
 479  232.8107
 480  276.2533
 481  252.7487
 482  297.4954
 483  326.55
 484  218.0719
 485  213.8902
 486  193.071
 487  198.0173
 488  331.6017
 489  350.1395
 490  317.6444
 491  227.3033
 492  269.5455
 493  371.0118
 494  235.1639
 495  194.323
 496  229.9483
 497  320.0321
 498  485.7854
 499  510.1162
 500  509.9131
 501  526.9517
 502  352.2481
 503  183.524
 504  273.516
 505  272.0619
 506  296.1249
 507  508.096
 508  610.1072
 509  435.6147
 510  517.3157
 511  727.8108
