# Input file       =  1198101969.101099-PSRB0329-2ms-sampling-dd.dat
# Candidate        =  PSR_0332+5434
# Telescope        =  AR
# Epoch_topo       =  58110.921158577534
# Epoch_bary       =  N/A
# T_sample         =  0.002
# Data Folded      =  7340032
# Data Avg         =  -7.5703047374713e-10
# Data StdDev      =  7.26925870748779 
# Profile Bins     =  512
# Profile Avg      =  -0.180853548003124
# Profile StdDev   =  870.37041725576  
# Reduced chi-sqr  =  0.536
# Prob(Noise)      <  1   (~0.0 sigma)
# P_topo (ms)      =  714.548908878011  +/- 0.001
# P'_topo (s/s)    =  -0                +/- 5.3e-10
# P''_topo (s/s^2) =  0                 +/- 2.34e-13
# P_bary (ms)      =  N/A
# P'_bary (s/s)    =  N/A
# P''_bary (s/s^2) =  N/A
# P_orb (s)        =  N/A
# asin(i)/c (s)    =  N/A
# eccentricity     =  N/A
# w (rad)          =  N/A
# T_peri           =  N/A
######################################################
   0  -1108.721
   1  -842.2305
   2  -364.4467
   3  -523.3265
   4  -210.6653
   5  450.4097
   6  391.0385
   7  -188.3242
   8  -543.3827
   9  50.22731
  10  -275.4142
  11  -29.30672
  12  211.3827
  13  35.72845
  14  -465.9854
  15  -141.8331
  16  -337.4169
  17  -467.7577
  18  -790.0435
  19  -423.8702
  20  -327.2753
  21  -472.9013
  22  212.5583
  23  225.662
  24  -155.4719
  25  -677.4974
  26  -771.9522
  27  -723.1759
  28  -1079.695
  29  -81.69176
  30  149.1425
  31  -429.9322
  32  -838.541
  33  -607.6937
  34  -794.8279
  35  -1140.861
  36  -443.576
  37  -22.7376
  38  -131.6358
  39  -221.4566
  40  274.7622
  41  -12.44166
  42  -87.47032
  43  -133.3327
  44  -35.72608
  45  -132.9457
  46  -292.7693
  47  98.839
  48  494.0184
  49  239.7983
  50  242.7282
  51  -2.503409
  52  -78.38076
  53  -104.2342
  54  -2.567183
  55  -96.8843
  56  -347.4091
  57  -171.2025
  58  -156.7731
  59  -274.9413
  60  -638.8342
  61  -276.4761
  62  -2.81669
  63  -29.41408
  64  -182.3741
  65  -370.1885
  66  -763.4171
  67  -615.9838
  68  -396.5653
  69  -153.6856
  70  -433.6836
  71  -432.022
  72  -73.81705
  73  -187.8198
  74  -311.6268
  75  -423.3611
  76  -481.6381
  77  -159.6147
  78  -466.931
  79  -974.4888
  80  -463.7578
  81  -379.6931
  82  -254.6646
  83  -499.0759
  84  -269.4483
  85  -168.3076
  86  -217.2787
  87  -439.7427
  88  -500.9044
  89  -807.3139
  90  -178.7531
  91  365.2392
  92  -130.6476
  93  -999.8585
  94  -853.2742
  95  -833.7503
  96  -517.036
  97  -829.7088
  98  -941.2225
  99  -1181.809
 100  -1125.032
 101  -622.3655
 102  -672.3799
 103  -659.6125
 104  -89.30998
 105  -213.7187
 106  -288.7926
 107  -117.0394
 108  -409.1602
 109  -374.4827
 110  -265.7009
 111  -559.5073
 112  -56.72849
 113  258.6123
 114  -423.745
 115  -275.1893
 116  -453.4817
 117  -684.1482
 118  -574.6731
 119  -35.30075
 120  147.4558
 121  -245.8474
 122  -469.1021
 123  -192.5328
 124  -52.47708
 125  61.63171
 126  -257.3513
 127  -468.1701
 128  -244.9841
 129  -10.06605
 130  207.1472
 131  113.8342
 132  -284.6677
 133  -130.7057
 134  -151.7036
 135  -356.8671
 136  -452.6174
 137  -251.2804
 138  371.9566
 139  118.2852
 140  283.9106
 141  -22.7996
 142  -112.6772
 143  -32.43236
 144  -409.4317
 145  -510.129
 146  -503.4804
 147  21.66166
 148  33.38734
 149  -2.46021
 150  -283.5267
 151  -735.2527
 152  -669.5306
 153  -314.9704
 154  -278.1294
 155  -154.0297
 156  -256.0173
 157  -587.3599
 158  -351.0085
 159  -794.9565
 160  -886.1974
 161  -897.5712
 162  -418.8057
 163  116.0278
 164  -565.0332
 165  -434.1992
 166  -126.0439
 167  11.72319
 168  -273.3044
 169  -84.70396
 170  489.6558
 171  263.5324
 172  531.6232
 173  582.95
 174  554.4084
 175  294.5711
 176  251.5206
 177  328.1318
 178  181.4748
 179  248.3937
 180  -31.67454
 181  -381.3158
 182  -496.3046
 183  65.37109
 184  248.3374
 185  372.2841
 186  38.86231
 187  157.5123
 188  340.2551
 189  221.7325
 190  189.4185
 191  343.0405
 192  305.6516
 193  -269.9304
 194  -7.297072
 195  274.1561
 196  477.5363
 197  835.8562
 198  841.9077
 199  720.914
 200  -125.6795
 201  602.4453
 202  1158.728
 203  720.1624
 204  527.6077
 205  689.1252
 206  435.4979
 207  300.5188
 208  -32.12471
 209  216.1624
 210  593.6038
 211  299.8744
 212  219.0305
 213  230.044
 214  994.8659
 215  1248.767
 216  1585.591
 217  1351.123
 218  1640.114
 219  1674.424
 220  1223.226
 221  1017.518
 222  921.1235
 223  299.5044
 224  41.7558
 225  -93.93224
 226  -331.3636
 227  -545.1207
 228  -182.3818
 229  188.6011
 230  341.3458
 231  619.4471
 232  434.8081
 233  179.3606
 234  -161.5985
 235  -119.2829
 236  -131.3409
 237  645.0398
 238  982.3534
 239  751.3577
 240  739.4775
 241  476.7716
 242  632.3927
 243  561.318
 244  1028.649
 245  1129.023
 246  1117.894
 247  603.1705
 248  403.4791
 249  787.6911
 250  376.4529
 251  115.711
 252  299.9791
 253  395.703
 254  585.4103
 255  569.2503
 256  604.6884
 257  566.8843
 258  215.841
 259  316.7881
 260  323.6744
 261  27.77345
 262  409.8526
 263  439.754
 264  161.8107
 265  11.52079
 266  395.7151
 267  21.92163
 268  -33.80631
 269  345.6934
 270  765.8276
 271  464.3237
 272  180.1139
 273  820.4327
 274  359.8219
 275  379.0277
 276  431.551
 277  889.4778
 278  1123.145
 279  588.8173
 280  615.3239
 281  314.6023
 282  -15.09814
 283  202.7461
 284  850.2777
 285  644.6753
 286  -61.79807
 287  204.984
 288  251.4952
 289  -419.8601
 290  -519.3107
 291  0.2643515
 292  48.4467
 293  -225.5211
 294  -55.11184
 295  -426.8815
 296  -549.0082
 297  -716.7995
 298  -352.2721
 299  -127.3198
 300  -425.7269
 301  92.47288
 302  241.5761
 303  115.1911
 304  -839.5662
 305  -289.1456
 306  197.2261
 307  -343.8241
 308  -440.2631
 309  417.1371
 310  479.7737
 311  11.65714
 312  356.8379
 313  -41.58277
 314  -146.7427
 315  -6.718844
 316  45.53185
 317  59.5531
 318  -222.2896
 319  493.6344
 320  434.6659
 321  208.4357
 322  385.1081
 323  607.9197
 324  698.3589
 325  236.6826
 326  416.9444
 327  351.6193
 328  317.1437
 329  -29.84269
 330  568.192
 331  466.8712
 332  224.4722
 333  212.5755
 334  -12.41295
 335  -111.6408
 336  -250.8749
 337  85.81864
 338  865.7384
 339  492.7832
 340  879.4553
 341  625.4124
 342  290.1764
 343  43.42253
 344  211.0108
 345  227.9874
 346  205.8122
 347  219.4916
 348  401.1302
 349  577.0311
 350  8.610091
 351  -15.57507
 352  47.23658
 353  -271.5383
 354  -446.0282
 355  -178.5912
 356  -292.2025
 357  37.93769
 358  -5.22581
 359  -42.9016
 360  -128.2259
 361  -262.2565
 362  -23.19427
 363  -40.32895
 364  -280.4554
 365  -162.4701
 366  115.1865
 367  -58.25963
 368  -100.7258
 369  -27.74402
 370  -64.62187
 371  18.14852
 372  -71.31278
 373  24.73365
 374  230.0281
 375  -128.4199
 376  -528.9466
 377  -310.7886
 378  -82.69158
 379  3.466296
 380  -408.6787
 381  -599.1681
 382  -271.4737
 383  -706.6893
 384  -520.2577
 385  -444.6612
 386  -320.0124
 387  -219.9354
 388  27.25155
 389  -572.0165
 390  -619.2312
 391  -10.74148
 392  341.1267
 393  -72.51258
 394  -49.47479
 395  -95.55257
 396  -370.6765
 397  -456.3295
 398  155.8891
 399  69.98901
 400  213.9725
 401  137.4456
 402  206.0647
 403  -182.3349
 404  -211.3943
 405  515.5787
 406  425.4739
 407  161.5509
 408  -20.28351
 409  630.7637
 410  759.5469
 411  586.5867
 412  335.0559
 413  -5.568371
 414  65.02888
 415  51.01148
 416  487.4693
 417  718.0246
 418  519.9469
 419  140.8516
 420  324.3471
 421  589.4225
 422  -491.3745
 423  -446.8095
 424  -146.9937
 425  296.8474
 426  428.8396
 427  715.0546
 428  316.7805
 429  -340.1636
 430  -280.1902
 431  -307.1244
 432  -258.2252
 433  -246.0468
 434  354.9435
 435  275.8957
 436  -623.1454
 437  -596.4017
 438  -448.599
 439  -728.5289
 440  -709.3771
 441  -315.6644
 442  -583.2487
 443  -485.6473
 444  -398.1235
 445  -397.6858
 446  -516.2563
 447  -1116.571
 448  -758.6565
 449  -566.7285
 450  -463.9815
 451  -54.92503
 452  -148.5999
 453  266.5273
 454  137.0416
 455  275.2866
 456  -195.6887
 457  -423.622
 458  -270.6183
 459  -163.4335
 460  153.9568
 461  155.0557
 462  4.190112
 463  -280.9572
 464  -296.6741
 465  -366.2681
 466  -234.8809
 467  362.0041
 468  32.14225
 469  152.093
 470  21.20576
 471  -215.4189
 472  -477.2878
 473  -20.66046
 474  280.6367
 475  131.6838
 476  323.7547
 477  203.5014
 478  207.8739
 479  -114.702
 480  -134.7239
 481  309.3626
 482  392.7909
 483  513.6722
 484  723.5286
 485  281.2133
 486  164.5
 487  76.29368
 488  160.5565
 489  185.6921
 490  -256.2673
 491  526.3435
 492  736.7365
 493  393.4233
 494  425.039
 495  705.585
 496  30.41688
 497  -176.1918
 498  420.6604
 499  462.4775
 500  655.8844
 501  465.5542
 502  608.8954
 503  95.57223
 504  -400.2693
 505  -199.0267
 506  -86.82346
 507  -177.8313
 508  -503.9122
 509  -299.7652
 510  -108.5634
 511  -851.8005
