# Input file       =  1198000950.100848_cleaned.dat
# Candidate        =  PSR_0332+5434
# Telescope        =  AR
# Epoch_topo       =  58109.751957185741
# Epoch_bary       =  N/A
# T_sample         =  0.002
# Data Folded      =  7340032
# Data Avg         =  0.161026183273602
# Data StdDev      =  4.21006429900093 
# Profile Bins     =  512
# Profile Avg      =  2308.98045096285 
# Profile StdDev   =  504.083781860803 
# Reduced chi-sqr  =  0.495
# Prob(Noise)      <  1   (~0.0 sigma)
# P_topo (ms)      =  714.547476088806  +/- 0.00066
# P'_topo (s/s)    =  -0                +/- 3.48e-10
# P''_topo (s/s^2) =  0                 +/- 1.54e-13
# P_bary (ms)      =  N/A
# P'_bary (s/s)    =  N/A
# P''_bary (s/s^2) =  N/A
# P_orb (s)        =  N/A
# asin(i)/c (s)    =  N/A
# eccentricity     =  N/A
# w (rad)          =  N/A
# T_peri           =  N/A
######################################################
   0  2382.039
   1  2252.225
   2  2272.051
   3  2362.275
   4  2290.669
   5  2361.469
   6  2422.049
   7  2204.436
   8  2538.288
   9  2329.047
  10  2214.281
  11  2168.469
  12  2406.234
  13  2314.457
  14  2194.544
  15  2023.446
  16  2286.064
  17  2349.128
  18  2408.838
  19  2055.194
  20  2170.81
  21  2344.807
  22  2080.817
  23  2054.258
  24  2302.327
  25  2512.673
  26  2431.672
  27  2224.81
  28  2298.84
  29  1908.611
  30  1879.276
  31  2167.743
  32  2643.07
  33  2667.536
  34  2528.792
  35  2260.846
  36  2114.936
  37  2155.554
  38  2170.922
  39  2483.573
  40  2422.767
  41  2330.135
  42  2096.592
  43  2332.377
  44  2700.737
  45  2681.719
  46  2429.046
  47  2124.464
  48  2451.24
  49  2853.847
  50  2728.983
  51  2701.521
  52  2462.827
  53  2167.208
  54  2235.293
  55  2406.972
  56  2476.698
  57  2501.928
  58  2659.283
  59  2397.156
  60  2474.57
  61  2488.992
  62  2791.393
  63  2599.636
  64  2419.336
  65  2427.892
  66  2713.58
  67  2780.011
  68  2623.279
  69  2633.749
  70  2334.992
  71  2548.995
  72  2399.68
  73  2169.094
  74  2192.053
  75  2398.819
  76  2054.819
  77  1790.966
  78  2143.284
  79  2103.124
  80  1960.347
  81  2189.197
  82  2329.854
  83  2425.827
  84  2522.38
  85  2603.984
  86  2505.034
  87  2190.509
  88  2403.499
  89  2544.77
  90  2159.489
  91  2351.195
  92  2597.305
  93  2364.345
  94  2338.437
  95  2167.364
  96  2215.413
  97  2237.263
  98  2396.536
  99  2502.872
 100  2578.939
 101  2461.78
 102  2055.841
 103  2325.819
 104  2182.794
 105  2642.041
 106  2554.198
 107  2331.43
 108  2323.243
 109  2025.287
 110  2189.388
 111  2201.331
 112  2162.364
 113  2435.648
 114  2325.09
 115  2074.276
 116  1841.005
 117  1981.917
 118  2444.797
 119  2297.976
 120  2468.621
 121  2420.333
 122  2102.467
 123  2202.827
 124  2154.334
 125  2467.13
 126  2326.063
 127  2378.225
 128  2195.247
 129  2215.151
 130  2124.254
 131  1991.587
 132  1984.527
 133  1876.899
 134  1604.781
 135  1919.078
 136  2336.683
 137  1913.894
 138  2034.126
 139  2007.527
 140  2033.14
 141  1782.614
 142  1873.941
 143  2191.432
 144  2287.62
 145  2232.002
 146  2116.834
 147  2585.133
 148  2405.055
 149  2214.301
 150  2110.477
 151  2137.502
 152  2250.345
 153  2524.548
 154  2145.822
 155  2364.214
 156  2504.668
 157  2501.136
 158  2472.213
 159  2336.307
 160  2622.626
 161  2587.005
 162  2414.291
 163  2648.02
 164  2600.794
 165  2681.532
 166  2600.312
 167  2227.352
 168  2541.397
 169  2594.876
 170  2704.17
 171  2845.846
 172  2505.342
 173  2543.338
 174  2297.389
 175  2117.125
 176  2281.587
 177  2656.882
 178  2537.644
 179  2234.157
 180  2258.389
 181  2318.312
 182  2221.288
 183  2062.835
 184  2389.17
 185  2311.931
 186  2256.21
 187  2186.159
 188  2014.053
 189  1687.539
 190  2035.333
 191  1921.049
 192  2374.78
 193  2499.843
 194  2377.74
 195  2121.112
 196  2176.726
 197  1921.025
 198  2131.258
 199  2261.663
 200  2276.703
 201  2499.036
 202  2264.683
 203  2176.073
 204  2258.322
 205  2572.323
 206  2215.526
 207  2352.276
 208  2017.197
 209  2201.01
 210  2207.747
 211  2077.687
 212  2106.736
 213  2216.87
 214  2251.32
 215  1869.991
 216  2387.418
 217  2653.445
 218  2473.435
 219  2248.171
 220  2298.787
 221  2209.073
 222  2279.936
 223  2136.708
 224  1909.387
 225  2167.687
 226  2258.738
 227  1925.716
 228  1994.95
 229  1952.444
 230  1949.075
 231  2026.154
 232  2051.906
 233  1830.106
 234  1840.389
 235  2005.146
 236  1918.452
 237  2178.734
 238  2178.219
 239  2168.415
 240  2195.114
 241  2313.503
 242  2510.853
 243  2401.747
 244  2246.449
 245  2269.578
 246  2185.814
 247  2089.433
 248  1807.324
 249  2055.453
 250  2275.234
 251  2323.706
 252  2483.046
 253  2710.323
 254  2669.69
 255  2419.593
 256  2502.577
 257  2376.265
 258  2571.295
 259  2629.59
 260  2394.216
 261  2293.775
 262  2103.577
 263  2228.111
 264  2607.788
 265  2605.163
 266  2862.514
 267  2723.651
 268  2537
 269  2550.277
 270  2486.084
 271  2523.344
 272  2667.961
 273  2315.42
 274  2099.813
 275  2044.593
 276  2139.486
 277  2324.764
 278  2475.301
 279  2578.33
 280  2561.807
 281  2229.695
 282  2202.937
 283  1985.01
 284  1995.538
 285  2493.057
 286  2659.18
 287  2390.267
 288  2279.606
 289  2376.131
 290  2005.615
 291  2106.601
 292  2269.734
 293  2311.793
 294  2267.393
 295  2210.7
 296  1926.247
 297  1652.778
 298  2020.35
 299  2074.155
 300  2136.788
 301  2401.712
 302  2115.406
 303  2324.429
 304  2266.359
 305  2238.531
 306  2615.117
 307  2526.312
 308  2806.978
 309  2826.05
 310  3229.774
 311  3338.084
 312  3466.033
 313  3541.392
 314  3204.932
 315  2902.124
 316  2671.734
 317  2659.961
 318  2692.019
 319  2568.037
 320  2352.71
 321  2436.936
 322  2268.184
 323  2285.6
 324  2434.525
 325  2540.559
 326  2398.083
 327  2642.667
 328  2517.183
 329  2270.565
 330  2063.438
 331  2322.43
 332  2428.811
 333  2250.121
 334  2199.724
 335  2354.957
 336  2032.576
 337  1982.275
 338  2284.922
 339  2472.15
 340  2434.768
 341  2123.619
 342  2080.602
 343  2222.94
 344  2684.494
 345  2451.008
 346  2354.079
 347  2747.125
 348  2742.604
 349  2543.024
 350  2413.303
 351  2413.98
 352  2367.786
 353  2353.691
 354  2286.441
 355  2538.681
 356  2402.944
 357  2034.509
 358  2337.763
 359  2291.217
 360  2298.941
 361  2122.806
 362  2205.498
 363  2188.744
 364  2120.22
 365  2386.745
 366  2596.137
 367  2356.66
 368  2511.106
 369  2576.444
 370  2516.406
 371  2818.377
 372  2703.459
 373  2439.545
 374  2528.531
 375  2364.769
 376  2303.087
 377  2289.141
 378  2685.833
 379  2743.613
 380  2750.175
 381  2172.495
 382  2315.345
 383  2339.341
 384  2452.694
 385  2338.742
 386  2094.86
 387  2491.133
 388  2554.15
 389  2354.73
 390  2185.868
 391  2171.6
 392  2354.416
 393  2471.808
 394  2500.251
 395  2626.471
 396  2698.815
 397  2405.484
 398  2235.77
 399  2286.636
 400  2545.786
 401  2493.977
 402  2170.692
 403  2110.737
 404  2289.367
 405  2270.25
 406  2382.899
 407  2546.027
 408  2703.292
 409  2253.71
 410  2000.085
 411  2197.972
 412  1936.681
 413  1802.972
 414  1937.508
 415  1985.965
 416  2091.361
 417  2130.503
 418  2348.695
 419  2313.491
 420  2285.791
 421  2264.234
 422  2106.291
 423  1999.122
 424  2471.805
 425  2276.591
 426  2173.564
 427  1829.419
 428  1755.443
 429  1972.058
 430  2110.013
 431  1941.206
 432  2182.234
 433  2330.324
 434  2175.06
 435  2166.785
 436  1921.983
 437  1770.766
 438  1836.877
 439  1957.485
 440  2202.266
 441  1977.542
 442  1825.303
 443  1684.619
 444  1931.617
 445  2110.767
 446  2209.722
 447  2265.254
 448  2206.404
 449  2161.504
 450  2100.42
 451  2137.948
 452  2134.266
 453  1733.09
 454  1797.983
 455  1964.649
 456  2117.679
 457  1836.975
 458  1846.828
 459  2355.247
 460  2413.11
 461  2258.285
 462  2342.39
 463  2422.791
 464  2157.92
 465  2207.199
 466  2085.612
 467  1912.671
 468  2283.425
 469  2400.189
 470  2505.699
 471  2531.967
 472  2582.501
 473  2547.789
 474  2380.6
 475  2457.72
 476  2555.097
 477  2522.39
 478  2767.718
 479  2594.442
 480  2226.106
 481  2386.572
 482  2435.991
 483  2429.277
 484  2184.67
 485  2312.001
 486  2229.686
 487  2584.651
 488  2777.859
 489  2488.105
 490  2342.813
 491  2237.339
 492  1885.127
 493  2132.546
 494  2174.148
 495  2077.89
 496  2197.095
 497  2373.603
 498  2343.52
 499  2125.738
 500  2287.687
 501  2259.521
 502  2334.247
 503  2152.527
 504  2129.309
 505  2304.413
 506  2251.073
 507  2498.295
 508  2222.95
 509  2217.881
 510  2531.077
 511  2333.621
