# Input file       =  1198274299.108217-PSRB0329-2ms-sampling-dd.dat
# Candidate        =  PSR_0332+5434
# Telescope        =  AR
# Epoch_topo       =  58112.915718845106
# Epoch_bary       =  N/A
# T_sample         =  0.002
# Data Folded      =  7340032
# Data Avg         =  1.6953123733707e-13
# Data StdDev      =  6.88533227928554 
# Profile Bins     =  512
# Profile Avg      =  -0.0367686769149176
# Profile StdDev   =  824.401740261818 
# Reduced chi-sqr  =  0.469
# Prob(Noise)      <  1   (~0.0 sigma)
# P_topo (ms)      =  714.550747414227  +/- 0.000518
# P'_topo (s/s)    =  -0                +/- 2.73e-10
# P''_topo (s/s^2) =  0                 +/- 1.21e-13
# P_bary (ms)      =  N/A
# P'_bary (s/s)    =  N/A
# P''_bary (s/s^2) =  N/A
# P_orb (s)        =  N/A
# asin(i)/c (s)    =  N/A
# eccentricity     =  N/A
# w (rad)          =  N/A
# T_peri           =  N/A
######################################################
   0  182.4417
   1  10.91921
   2  -142.5725
   3  26.95419
   4  -110.5553
   5  -270.446
   6  -156.2343
   7  -361.9087
   8  18.93729
   9  -35.75443
  10  324.1814
  11  573.2748
  12  398.5848
  13  354.6504
  14  -121.2482
  15  -497.4169
  16  -74.55945
  17  -392.9818
  18  -188.1889
  19  261.8835
  20  -239.5707
  21  -567.9267
  22  -691.9222
  23  -555.8651
  24  -642.9802
  25  -620.357
  26  -593.7101
  27  -538.111
  28  -487.6289
  29  -568.9514
  30  -614.2446
  31  -466.2609
  32  -268.2089
  33  -692.1876
  34  -348.6576
  35  -207.8615
  36  -550.2369
  37  -546.6491
  38  -384.3014
  39  -340.113
  40  -128.495
  41  -188.8212
  42  -247.3727
  43  -309.2342
  44  -412.9377
  45  -606.0476
  46  -457.0169
  47  -356.506
  48  -357.6418
  49  -75.4502
  50  -325.6613
  51  -368.7795
  52  -177.4962
  53  70.31558
  54  -419.0967
  55  -194.6949
  56  -486.4838
  57  -731.7908
  58  -705.7565
  59  -113.9976
  60  342.887
  61  564.9083
  62  411.5007
  63  -65.96622
  64  9.807201
  65  60.15329
  66  -57.97261
  67  -94.21976
  68  56.00954
  69  382.8866
  70  331.7943
  71  208.7764
  72  102.3037
  73  157.6362
  74  446.6279
  75  462.9131
  76  109.4961
  77  142.4588
  78  -190.9108
  79  90.87733
  80  435.7007
  81  304.1513
  82  393.3645
  83  85.42786
  84  -23.23449
  85  98.1177
  86  -59.93073
  87  -55.8493
  88  52.53552
  89  427.4084
  90  200.3678
  91  6.661648
  92  388.7675
  93  933.3808
  94  868.7678
  95  817.2888
  96  707.2136
  97  732.7469
  98  562.8556
  99  701.7591
 100  390.0991
 101  326.1827
 102  409.8944
 103  188.0574
 104  -119.6651
 105  -611.8954
 106  -297.1194
 107  -483.0225
 108  -444.6134
 109  -56.16596
 110  -196.0086
 111  -272.0139
 112  -386.9216
 113  -322.7326
 114  -179.6821
 115  -99.58745
 116  -519.4595
 117  -470.5462
 118  -328.2206
 119  -30.30161
 120  -203.5918
 121  -278.4045
 122  -581.2214
 123  -738.315
 124  -843.4166
 125  -666.3725
 126  -399.8439
 127  90.61119
 128  136.9183
 129  371.6754
 130  29.50733
 131  -538.6396
 132  -227.3174
 133  -461.2684
 134  -563.4333
 135  -311.6559
 136  -432.6185
 137  -234.8929
 138  -168.5287
 139  -164.2215
 140  -511.3026
 141  -358.7306
 142  -250.3807
 143  -454.1677
 144  -358.1931
 145  -426.8186
 146  -32.8175
 147  263.5247
 148  432.5449
 149  278.2855
 150  -317.7655
 151  -291.8272
 152  47.17786
 153  278.9959
 154  129.6335
 155  48.99286
 156  366.1193
 157  359.1444
 158  320.2017
 159  25.52035
 160  221.0779
 161  -5.242926
 162  524.5812
 163  558.2862
 164  672.8103
 165  804.03
 166  824.3476
 167  630.8302
 168  384.5876
 169  111.2359
 170  -122.0905
 171  382.4428
 172  515.1033
 173  135.8905
 174  283.0914
 175  500.9446
 176  827.8872
 177  1115.079
 178  761.2652
 179  307.0148
 180  -71.25648
 181  132.5861
 182  120.2445
 183  240.9401
 184  604.8167
 185  618.1348
 186  384.1528
 187  273.545
 188  161.3143
 189  -117.2082
 190  -339.0873
 191  -179.991
 192  -119.5351
 193  -272.9048
 194  -98.99377
 195  12.40315
 196  -471.5384
 197  -110.7578
 198  -153.1612
 199  -69.50431
 200  221.1394
 201  292.8781
 202  -292.4278
 203  -713.0154
 204  -597.6042
 205  -302.5648
 206  -223.1979
 207  -509.3912
 208  -270.3086
 209  -305.5796
 210  -425.1079
 211  112.1255
 212  -198.384
 213  -17.46435
 214  -13.50674
 215  140.0538
 216  232.7787
 217  -101.0493
 218  93.95467
 219  354.2932
 220  528.6836
 221  418.2005
 222  386.1518
 223  244.3476
 224  464.0373
 225  390.2869
 226  331.1137
 227  679.4998
 228  681.7664
 229  988.7778
 230  934.9556
 231  684.4344
 232  405.4152
 233  696.409
 234  256.9802
 235  31.99621
 236  380.0429
 237  453.6637
 238  809.6607
 239  485.4555
 240  540.2984
 241  -122.5416
 242  -532.7758
 243  -37.24777
 244  118.1081
 245  282.7992
 246  -164.7603
 247  368.7921
 248  158.7528
 249  -134.9058
 250  -491.4035
 251  -530.7531
 252  -8.340185
 253  141.4412
 254  191.5259
 255  103.4101
 256  254.8456
 257  38.56094
 258  -143.9217
 259  -109.3707
 260  134.963
 261  -161.4162
 262  25.55008
 263  -23.26832
 264  -154.7709
 265  -185.1415
 266  -334.1948
 267  -238.6523
 268  -315.803
 269  -307.6611
 270  -456.4767
 271  -226.4591
 272  -232.0742
 273  -251.463
 274  -413.847
 275  -497.5307
 276  -275.1936
 277  9.963573
 278  9.443331
 279  -169.8314
 280  54.45547
 281  -23.73951
 282  -136.691
 283  9.222193
 284  255.6915
 285  -124.8354
 286  -10.73083
 287  198.0169
 288  143.2701
 289  297.2611
 290  194.9879
 291  335.9014
 292  214.616
 293  495.0498
 294  603.3636
 295  1159.082
 296  1271.615
 297  1313.417
 298  1394.874
 299  1475.486
 300  734.4707
 301  93.20258
 302  322.4443
 303  287.3195
 304  118.9999
 305  421.4656
 306  185.2577
 307  408.9911
 308  486.888
 309  616.1868
 310  287.66
 311  490.4307
 312  574.0169
 313  281.906
 314  724.6405
 315  751.6428
 316  829.9919
 317  373.4093
 318  349.3388
 319  205.7707
 320  78.88592
 321  184.7728
 322  153.1894
 323  -48.31158
 324  -428.6705
 325  -116.8416
 326  -130.1621
 327  -157.4639
 328  -367.5446
 329  253.7276
 330  -272.7577
 331  -292.4555
 332  -326.32
 333  -337.1041
 334  -232.071
 335  -223.8404
 336  166.8405
 337  -183.0905
 338  -349.0207
 339  -396.9085
 340  -650.3445
 341  -565.3907
 342  -708.7799
 343  -213.4363
 344  -220.3103
 345  -382.2619
 346  -510.5056
 347  -668.7748
 348  -483.1408
 349  -719.9355
 350  -714.8452
 351  -700.5203
 352  -466.9466
 353  -207.321
 354  25.77472
 355  -69.36296
 356  -499.5391
 357  -113.1867
 358  405.964
 359  391.128
 360  265.6094
 361  280.6406
 362  445.1183
 363  466.1057
 364  -118.7327
 365  -54.84736
 366  110.2014
 367  -37.40384
 368  108.4164
 369  -455.5853
 370  -536.4059
 371  -186.7666
 372  -151.8734
 373  145.9564
 374  87.78207
 375  -22.06532
 376  -202.5498
 377  -307.3244
 378  -477.679
 379  -670.4859
 380  -658.7687
 381  -36.92309
 382  324.8098
 383  831.273
 384  480.4807
 385  179.9573
 386  375.1101
 387  412.1132
 388  517.5331
 389  791.6678
 390  560.9146
 391  492.3292
 392  672.6237
 393  385.3504
 394  360.5412
 395  412.6446
 396  228.4172
 397  -218.6188
 398  -103.792
 399  74.10959
 400  -31.95632
 401  245.8515
 402  -73.72173
 403  275.7875
 404  -235.5851
 405  -251.1577
 406  -182.1718
 407  -384.1176
 408  -134.5606
 409  -291.1404
 410  89.6395
 411  -161.8913
 412  -589.6971
 413  -717.91
 414  -502.2709
 415  -415.1523
 416  -840.1468
 417  -936.3604
 418  -954.5977
 419  -784.4921
 420  -549.5143
 421  -588.8608
 422  -84.06883
 423  -497.433
 424  -586.4741
 425  -336.688
 426  -309.3448
 427  -586.3075
 428  -444.6935
 429  -247.3868
 430  -463.7115
 431  -638.0126
 432  -411.7359
 433  -235.1078
 434  -91.21364
 435  -171.0817
 436  -265.6307
 437  -26.52635
 438  -543.6655
 439  -569.3619
 440  -209.9979
 441  -282.7543
 442  -546.6103
 443  -451.6635
 444  -56.49422
 445  -215.3077
 446  -72.05342
 447  48.95981
 448  36.64308
 449  436.499
 450  223.8157
 451  239.9243
 452  395.4672
 453  98.24516
 454  283.5731
 455  42.33477
 456  318.0389
 457  322.3863
 458  435.3964
 459  472.6828
 460  499.5827
 461  231.5555
 462  115.9697
 463  529.1392
 464  373.3094
 465  27.73282
 466  165.8438
 467  612.1266
 468  748.2267
 469  387.4818
 470  328.8743
 471  352.966
 472  54.47475
 473  182.1228
 474  387.5206
 475  -102.9731
 476  -694.3434
 477  -112.5307
 478  334.711
 479  133.5003
 480  133.6747
 481  225.1217
 482  -97.16083
 483  -446.5404
 484  -349.1317
 485  -407.5287
 486  65.47061
 487  114.6463
 488  112.5661
 489  257.8663
 490  -135.5234
 491  -377.5952
 492  -812.7449
 493  -400.3677
 494  274.1689
 495  225.8066
 496  302.8932
 497  244.3567
 498  344.8381
 499  -105.2879
 500  -180.0659
 501  -443.7909
 502  -92.93119
 503  292.219
 504  49.50419
 505  1.618024
 506  -195.4009
 507  -93.90033
 508  -194.0605
 509  -237.1273
 510  89.72675
 511  170.9751
