# Input file       =  1198618942.110888_cleaned.dat
# Candidate        =  PSR_0332+5434
# Telescope        =  AR
# Epoch_topo       =  58116.904642487127
# Epoch_bary       =  N/A
# T_sample         =  0.002
# Data Folded      =  7340032
# Data Avg         =  0.0333680542950508
# Data StdDev      =  1.00007749202154 
# Profile Bins     =  512
# Profile Avg      =  478.387237560144 
# Profile StdDev   =  119.7423147318   
# Reduced chi-sqr  =  0.838
# Prob(Noise)      <  0.997   (~0.0 sigma)
# P_topo (ms)      =  714.554301611722  +/- 0.000344
# P'_topo (s/s)    =  -0                +/- 1.81e-10
# P''_topo (s/s^2) =  0                 +/- 8e-14
# P_bary (ms)      =  N/A
# P'_bary (s/s)    =  N/A
# P''_bary (s/s^2) =  N/A
# P_orb (s)        =  N/A
# asin(i)/c (s)    =  N/A
# eccentricity     =  N/A
# w (rad)          =  N/A
# T_peri           =  N/A
######################################################
   0  798.6025
   1  833.8315
   2  700.5132
   3  634.6291
   4  588.9806
   5  554.7661
   6  476.1686
   7  524.804
   8  544.0073
   9  567.7687
  10  456.3846
  11  387.7257
  12  497.542
  13  560.3515
  14  580.4218
  15  557.9738
  16  507.8472
  17  505.7857
  18  341.6514
  19  476.4269
  20  558.4765
  21  497.0974
  22  554.0743
  23  555.3793
  24  488.2708
  25  472.5061
  26  547.4087
  27  455.8083
  28  574.649
  29  571.9604
  30  459.3953
  31  461.3027
  32  383.5046
  33  388.7605
  34  413.7747
  35  529.2957
  36  516.7311
  37  577.4171
  38  539.023
  39  509.6577
  40  422.6928
  41  460.3953
  42  553.5188
  43  626.6261
  44  654.2233
  45  507.284
  46  429.2404
  47  391.9259
  48  466.1343
  49  594.1068
  50  582.4723
  51  399.2984
  52  428.2717
  53  428.8494
  54  347.1855
  55  475.6483
  56  468.2588
  57  444.3896
  58  523.2639
  59  469.6913
  60  421.8758
  61  522.3067
  62  506.3777
  63  534.4024
  64  589.9645
  65  624.4468
  66  484.5931
  67  489.9243
  68  448.7225
  69  556.0399
  70  504.2433
  71  432.1156
  72  375.3828
  73  356.8692
  74  469.8168
  75  508.1346
  76  440.9316
  77  557.9009
  78  470.0111
  79  485.2029
  80  449.592
  81  469.837
  82  410.6421
  83  374.3254
  84  394.2836
  85  412.4185
  86  489.8995
  87  406.4298
  88  389.2569
  89  483.7259
  90  494.8929
  91  552.7119
  92  439.9881
  93  491.2818
  94  533.3738
  95  432.3726
  96  434.6959
  97  519.5451
  98  487.6424
  99  393.5384
 100  401.4143
 101  495.7566
 102  461.7593
 103  389.4257
 104  330.9607
 105  317.5687
 106  447.8051
 107  535.335
 108  468.9832
 109  482.2247
 110  447.8939
 111  412.0606
 112  312.6382
 113  306.9756
 114  375.2794
 115  372.8562
 116  343.7314
 117  370.9838
 118  400.9975
 119  460.3157
 120  418.9463
 121  448.3939
 122  568.7339
 123  678.7303
 124  537.1286
 125  518.3466
 126  527.5437
 127  456.4384
 128  508.763
 129  543.7682
 130  512.2839
 131  475.5876
 132  451.2129
 133  489.5099
 134  601.8043
 135  569.5561
 136  578.3205
 137  412.8781
 138  484.5691
 139  479.0393
 140  486.0708
 141  575.9146
 142  530.8273
 143  604.6159
 144  635.5182
 145  496.3082
 146  405.3216
 147  369.2624
 148  420.9341
 149  379.1236
 150  517.7361
 151  565.053
 152  463.4944
 153  350.5884
 154  394.5823
 155  437.0995
 156  377.7926
 157  260.3294
 158  480.8035
 159  473.476
 160  499.5208
 161  321.8612
 162  436.8894
 163  440.1763
 164  428.5789
 165  477.179
 166  474.7305
 167  447.6205
 168  415.6833
 169  517.5896
 170  539.4957
 171  482.4356
 172  508.0827
 173  473.0523
 174  457.0652
 175  383.2006
 176  576.3712
 177  480.2398
 178  321.8799
 179  375.4644
 180  509.4896
 181  538.6346
 182  355.1707
 183  393.9677
 184  467.0933
 185  404.6644
 186  399.6272
 187  449.5268
 188  444.18
 189  445.5013
 190  408.1578
 191  369.5482
 192  382.9217
 193  426.0398
 194  259.1003
 195  266.2018
 196  307.6919
 197  300.8054
 198  414.7557
 199  399.2739
 200  448.3948
 201  484.0748
 202  449.7733
 203  449.075
 204  461.6909
 205  408.6607
 206  448.0522
 207  473.9223
 208  433.0486
 209  534.4272
 210  506.435
 211  403.3032
 212  427.5528
 213  386.6169
 214  376.4486
 215  365.9279
 216  448.4436
 217  485.5785
 218  547.1483
 219  468.7432
 220  456.9924
 221  412.8958
 222  511.4812
 223  443.1775
 224  475.6945
 225  450.1215
 226  438.1862
 227  478.5501
 228  311.6378
 229  381.3111
 230  491.3727
 231  460.4745
 232  488.1228
 233  443.1492
 234  477.6373
 235  565.6675
 236  512.501
 237  445.0415
 238  484.844
 239  589.0012
 240  455.2076
 241  469.4226
 242  514.069
 243  531.5899
 244  518.4517
 245  454.9585
 246  422.5398
 247  358.3584
 248  287.5097
 249  447.7564
 250  528.6956
 251  439.3032
 252  431.1478
 253  443.7029
 254  411.7161
 255  392.2053
 256  435.1335
 257  485.5667
 258  499.1869
 259  416.1214
 260  536.4105
 261  559.5703
 262  475.5228
 263  340.6543
 264  293.4806
 265  413.4521
 266  414.479
 267  468.5565
 268  440.9951
 269  487.5797
 270  468.9721
 271  391.4035
 272  420.3275
 273  444.0144
 274  530.335
 275  550.9756
 276  462.3203
 277  483.4697
 278  564.6073
 279  528.5607
 280  445.9063
 281  468.7841
 282  400.9697
 283  448.6549
 284  443.6174
 285  538.2273
 286  467.8966
 287  376.065
 288  438.0273
 289  566.5007
 290  591.8297
 291  582.177
 292  562.2377
 293  438.0008
 294  543.4747
 295  476.4348
 296  510.4798
 297  602.1216
 298  489.8523
 299  465.2544
 300  472.5481
 301  463.4803
 302  411.7232
 303  450.9078
 304  520.9937
 305  506.9848
 306  539.5372
 307  470.8672
 308  518.0143
 309  423.916
 310  357.966
 311  433.6747
 312  524.4425
 313  507.2967
 314  519.4421
 315  463.5732
 316  532.1368
 317  442.6564
 318  468.5542
 319  499.2057
 320  512.0154
 321  489.6181
 322  466.392
 323  541.5546
 324  509.5369
 325  583.0148
 326  518.0824
 327  482.4556
 328  514.4696
 329  530.4987
 330  527.9202
 331  529.2947
 332  487.1608
 333  514.3117
 334  405.7389
 335  515.3527
 336  569.3125
 337  519.8444
 338  549.0901
 339  467.4203
 340  438.0046
 341  419.4279
 342  600.6932
 343  570.5503
 344  540.4673
 345  608.4676
 346  595.3185
 347  545.0073
 348  574.0994
 349  538.1519
 350  443.9254
 351  586.2233
 352  585.9058
 353  646.3455
 354  613.4988
 355  566.9676
 356  577.8273
 357  517.9826
 358  438.8404
 359  427.9646
 360  414.6146
 361  539.1511
 362  538.9317
 363  476.6924
 364  435.7999
 365  516.8641
 366  527.7361
 367  379.6755
 368  550.6396
 369  621.5592
 370  581.7746
 371  585.9388
 372  616.1922
 373  465.5222
 374  327.5484
 375  514.227
 376  478.2263
 377  438.9977
 378  419.6802
 379  511.9756
 380  590.6088
 381  486.5646
 382  440.8655
 383  570.1472
 384  527.1464
 385  425.1077
 386  504.689
 387  498.3858
 388  523.0734
 389  430.6817
 390  491.3535
 391  491.4536
 392  472.9168
 393  514.6412
 394  572.1202
 395  500.1648
 396  502.8327
 397  471.5555
 398  515.9498
 399  495.566
 400  405.3905
 401  381.2391
 402  468.7255
 403  456.3852
 404  393.6301
 405  530.3951
 406  520.7402
 407  358.8652
 408  489.5357
 409  546.5624
 410  521.3469
 411  467.7781
 412  482.2612
 413  594.3586
 414  559.4868
 415  425.4442
 416  425.6478
 417  351.9752
 418  415.222
 419  415.7947
 420  419.809
 421  365.4359
 422  456.4269
 423  536.3594
 424  534.6353
 425  493.4546
 426  553.9391
 427  577.1943
 428  548.6919
 429  448.2235
 430  429.2204
 431  560.0198
 432  556.5363
 433  390.616
 434  394.7045
 435  445.5489
 436  430.1366
 437  432.5512
 438  439.2564
 439  453.3299
 440  418.8387
 441  490.2115
 442  530.473
 443  465.2625
 444  536.4321
 445  510.1956
 446  546.0568
 447  586.3915
 448  628.1921
 449  516.2912
 450  444.0589
 451  427.2397
 452  439.9268
 453  375.7687
 454  423.6905
 455  297.8946
 456  305.1007
 457  480.091
 458  572.9136
 459  572.6926
 460  502.0402
 461  379.9921
 462  356.5932
 463  303.2354
 464  353.0217
 465  393.4203
 466  354.6164
 467  384.0715
 468  419.06
 469  475.0597
 470  464.6736
 471  501.5221
 472  418.5297
 473  484.4517
 474  492.2078
 475  551.6901
 476  628.2721
 477  550.3234
 478  472.1811
 479  341.8864
 480  435.3289
 481  519.9741
 482  444.6126
 483  357.878
 484  444.4445
 485  444.6906
 486  458.5758
 487  506.5343
 488  524.9698
 489  562.499
 490  540.4506
 491  527.4398
 492  533.108
 493  438.1885
 494  525.6884
 495  491.8199
 496  518.9223
 497  485.7686
 498  383.0721
 499  417.5549
 500  394.7541
 501  493.6588
 502  490.0625
 503  560.2877
 504  552.8478
 505  561.9252
 506  517.6298
 507  557.1152
 508  641.2594
 509  699.5869
 510  840.1824
 511  743.0132
