# Input file       =  1198503255.12908_cleaned.dat
# Candidate        =  PSR_0332+5434
# Telescope        =  AR
# Epoch_topo       =  58115.565672790275
# Epoch_bary       =  N/A
# T_sample         =  0.002
# Data Folded      =  7471104
# Data Avg         =  0.0195309237148125
# Data StdDev      =  1.0000681900895  
# Profile Bins     =  512
# Profile Avg      =  284.950710015646 
# Profile StdDev   =  120.805588146506 
# Reduced chi-sqr  =  1.123
# Prob(Noise)      <  0.0277   (~1.9 sigma)
# P_topo (ms)      =  714.552766101848  +/- 0.000169
# P'_topo (s/s)    =  -0                +/- 8.78e-11
# P''_topo (s/s^2) =  0                 +/- 3.81e-14
# P_bary (ms)      =  N/A
# P'_bary (s/s)    =  N/A
# P''_bary (s/s^2) =  N/A
# P_orb (s)        =  N/A
# asin(i)/c (s)    =  N/A
# eccentricity     =  N/A
# w (rad)          =  N/A
# T_peri           =  N/A
######################################################
   0  676.7623
   1  679.9376
   2  556.3926
   3  366.9739
   4  121.5329
   5  126.3345
   6  268.5562
   7  357.6522
   8  383.3539
   9  377.0003
  10  356.5772
  11  353.5478
  12  333.8296
  13  381.3302
  14  344.6097
  15  291.9894
  16  238.6146
  17  162.2341
  18  224.6379
  19  268.1335
  20  298.0383
  21  280.765
  22  231.1378
  23  179.7045
  24  201.2411
  25  290.4422
  26  394.0318
  27  321.1168
  28  179.5141
  29  195.977
  30  175.2116
  31  181.9835
  32  150.6281
  33  255.3438
  34  295.6661
  35  343.9272
  36  385.4701
  37  387.6958
  38  273.6625
  39  190.7113
  40  250.5714
  41  248.9366
  42  243.2342
  43  235.6905
  44  306.7205
  45  385.5842
  46  296.9694
  47  259.3952
  48  186.5533
  49  328.3908
  50  263.6605
  51  354.7101
  52  405.0649
  53  301.4558
  54  202.9537
  55  220.5129
  56  141.8549
  57  244.1119
  58  243.9876
  59  320.6282
  60  407.9765
  61  280.4005
  62  221.4992
  63  346.1987
  64  261.6717
  65  341.6015
  66  352.4217
  67  325.4672
  68  315.5399
  69  317.2483
  70  412.3659
  71  313.6599
  72  277.9866
  73  238.8423
  74  138.8843
  75  180.1973
  76  219.9089
  77  258.1834
  78  329.1836
  79  331.5896
  80  174.9113
  81  266.2761
  82  322.4182
  83  384.193
  84  505.0811
  85  409.1682
  86  400.5866
  87  426.2155
  88  257.2054
  89  211.9433
  90  190.8774
  91  130.9662
  92  270.4928
  93  335.3621
  94  263.2303
  95  314.3143
  96  325.6999
  97  368.3551
  98  290.8532
  99  344.7638
 100  422.6003
 101  353.7712
 102  317.509
 103  294.6453
 104  363.7066
 105  319.8759
 106  283.4553
 107  292.0847
 108  390.0152
 109  280.6291
 110  222.2921
 111  331.5974
 112  378.1742
 113  248.5912
 114  141.421
 115  308.6161
 116  365.6472
 117  187.1642
 118  169.4334
 119  313.9052
 120  313.1158
 121  57.99788
 122  123.1971
 123  244.3118
 124  240.4454
 125  353.6852
 126  327.3394
 127  298.4526
 128  303.1338
 129  335.8274
 130  182.4597
 131  203.786
 132  245.5804
 133  210.6414
 134  229.7252
 135  257.6263
 136  333.4235
 137  340.8089
 138  235.8871
 139  266.8454
 140  365.1549
 141  374.3686
 142  337.0835
 143  300.319
 144  276.5299
 145  323.7427
 146  352.2798
 147  273.7068
 148  301.9398
 149  365.6371
 150  358.2859
 151  471.2436
 152  481.9863
 153  248.2728
 154  169.3924
 155  195.8096
 156  268.1737
 157  312.4413
 158  278.8642
 159  344.1747
 160  321.4716
 161  277.2919
 162  171.2787
 163  190.0382
 164  210.4409
 165  259.4404
 166  336.1824
 167  370.747
 168  183.0049
 169  219.8825
 170  281.7782
 171  255.0051
 172  309.7297
 173  328.016
 174  359.8032
 175  355.2242
 176  263.1064
 177  244.8127
 178  322.2295
 179  221.3058
 180  216.1716
 181  324.083
 182  336.1292
 183  288.3999
 184  365.8793
 185  431.0283
 186  364.7314
 187  278.9577
 188  327.6753
 189  198.2745
 190  102.8028
 191  157.8409
 192  237.1968
 193  381.3415
 194  419.0922
 195  348.6694
 196  376.5765
 197  390.3687
 198  385.7611
 199  309.0687
 200  328.2144
 201  240.4535
 202  342.5165
 203  329.8576
 204  283.4567
 205  228.9535
 206  241.4506
 207  201.5677
 208  232.4785
 209  304.6331
 210  240.1427
 211  265.5536
 212  248.9848
 213  338.4813
 214  264.0414
 215  288.6025
 216  413.6921
 217  328.0966
 218  188.0448
 219  251.3326
 220  355.9055
 221  177.4843
 222  243.4179
 223  370.3374
 224  411.0405
 225  319.5777
 226  356.8319
 227  252.5414
 228  318.3062
 229  388.9859
 230  438.4141
 231  406.9972
 232  392.9331
 233  239.7548
 234  179.5441
 235  291.7646
 236  433.279
 237  454.6503
 238  265.5256
 239  141.5348
 240  157.2655
 241  175.8853
 242  267.0884
 243  258.7171
 244  330.1869
 245  393.6177
 246  314.5305
 247  353.2411
 248  338.0872
 249  381.7457
 250  293.7973
 251  184.1081
 252  93.22852
 253  291.6166
 254  453.1709
 255  345.9813
 256  290.1147
 257  343.5837
 258  217.5074
 259  218.6572
 260  212.5929
 261  261.8192
 262  115.8459
 263  110.3315
 264  279.1654
 265  309.535
 266  241.151
 267  222.0876
 268  310.8129
 269  220.0835
 270  322.1059
 271  297.9294
 272  305.7904
 273  339.1138
 274  355.6064
 275  271.1794
 276  301.6082
 277  184.3795
 278  321.0414
 279  361.6171
 280  320.5345
 281  184.9527
 282  334.4556
 283  312.5391
 284  159.3541
 285  134.7606
 286  127.8465
 287  131.1538
 288  218.6234
 289  254.7404
 290  286.5734
 291  347.0835
 292  444.6026
 293  277.9863
 294  151.0122
 295  349.7295
 296  262.7349
 297  260.9764
 298  375.599
 299  273.1342
 300  109.9426
 301  166.1332
 302  307.7614
 303  280.2564
 304  286.5051
 305  233.6406
 306  135.6787
 307  170.3557
 308  227.6759
 309  310.617
 310  199.2651
 311  233.0716
 312  189.6971
 313  195.9194
 314  237.0368
 315  171.3079
 316  211.7034
 317  172.4431
 318  248.9556
 319  114.3246
 320  146.1772
 321  221.0249
 322  340.1907
 323  234.8517
 324  287.2929
 325  281.5985
 326  197.2436
 327  202.4206
 328  297.775
 329  214.4616
 330  327.4181
 331  264.7572
 332  290.3351
 333  134.1312
 334  260.6474
 335  203.8981
 336  380.821
 337  256.1914
 338  280.7353
 339  395.2042
 340  148.2668
 341  268.525
 342  414.8458
 343  351.5339
 344  276.8909
 345  217.0532
 346  221.5933
 347  375.4133
 348  310.3079
 349  158.0219
 350  78.73135
 351  215.8081
 352  311.5971
 353  137.3307
 354  84.57054
 355  117.3743
 356  228.2312
 357  140.9834
 358  235.3547
 359  246.5334
 360  346.428
 361  432.0029
 362  216.5386
 363  133.776
 364  270.7336
 365  335.1621
 366  297.9595
 367  404.4491
 368  404.7869
 369  292.881
 370  299.4536
 371  214.7037
 372  263.2872
 373  338.9734
 374  236.0867
 375  374.2145
 376  273.8752
 377  214.7516
 378  208.9939
 379  172.3591
 380  245.0853
 381  244.2206
 382  299.7615
 383  308.8529
 384  264.0123
 385  206.2819
 386  258.6414
 387  236.7087
 388  195.1636
 389  363.9479
 390  332.0341
 391  310.8345
 392  344.9262
 393  187.5664
 394  215.8262
 395  196.331
 396  157.6735
 397  219.9814
 398  288.6465
 399  184.1052
 400  337.975
 401  278.1623
 402  229.3006
 403  216.3929
 404  364.0683
 405  371.1112
 406  248.054
 407  205.3678
 408  123.3187
 409  224.3707
 410  368.7428
 411  358.1284
 412  287.9002
 413  265.5164
 414  229.613
 415  328.5966
 416  555.027
 417  437.8669
 418  318.4572
 419  330.8429
 420  359.1124
 421  316.1423
 422  297.993
 423  300.4088
 424  217.9752
 425  288.4381
 426  371.1154
 427  261.3896
 428  357.4559
 429  209.8915
 430  306.7946
 431  278.1329
 432  271.7515
 433  286.9972
 434  307.6144
 435  192.0761
 436  164.0023
 437  186.3054
 438  198.7421
 439  121.3786
 440  121.1745
 441  261.9742
 442  334.8187
 443  208.3354
 444  209.2834
 445  335.5119
 446  341.8848
 447  182.2858
 448  58.41099
 449  253.3277
 450  231.31
 451  311.5456
 452  359.9403
 453  284.5247
 454  234.2056
 455  332.2228
 456  351.5312
 457  432.5564
 458  251.2494
 459  264.0949
 460  309.3672
 461  187.3638
 462  66.04753
 463  236.9197
 464  255.2676
 465  284.0792
 466  279.8978
 467  302.881
 468  375.9327
 469  244.0578
 470  195.911
 471  185.6387
 472  232.1236
 473  302.093
 474  271.6992
 475  285.2758
 476  276.5124
 477  391.0039
 478  219.6553
 479  318.4918
 480  315.2265
 481  319.6241
 482  243.7649
 483  180.5069
 484  276.3784
 485  214.4908
 486  227.1692
 487  338.8931
 488  343.3938
 489  273.1363
 490  258.0402
 491  334.3737
 492  405.0148
 493  404.0116
 494  388.6024
 495  289.7943
 496  290.0013
 497  341.4997
 498  363.8664
 499  213.9681
 500  437.6479
 501  432.8631
 502  351.7799
 503  409.5134
 504  471.7857
 505  486.0604
 506  459.2306
 507  420.658
 508  554.3258
 509  597.7432
 510  707.6679
 511  789.9754
