# Input file       =  1198604022.114768_cleaned.dat
# Candidate        =  PSR_0332+5434
# Telescope        =  AR
# Epoch_topo       =  58116.731957346856
# Epoch_bary       =  N/A
# T_sample         =  0.002
# Data Folded      =  7340032
# Data Avg         =  0.215981151826522
# Data StdDev      =  5.47812712940709 
# Profile Bins     =  256
# Profile Avg      =  6190.52984410306 
# Profile StdDev   =  927.600770227668 
# Reduced chi-sqr  =  0.503
# Prob(Noise)      <  1   (~0.0 sigma)
# P_topo (ms)      =  714.553813774915  +/- 0.000937
# P'_topo (s/s)    =  -0                +/- 4.94e-10
# P''_topo (s/s^2) =  0                 +/- 2.18e-13
# P_bary (ms)      =  N/A
# P'_bary (s/s)    =  N/A
# P''_bary (s/s^2) =  N/A
# P_orb (s)        =  N/A
# asin(i)/c (s)    =  N/A
# eccentricity     =  N/A
# w (rad)          =  N/A
# T_peri           =  N/A
######################################################
   0  6143.825
   1  5955.151
   2  6795.876
   3  6497.319
   4  5842.863
   5  6487.038
   6  6342.694
   7  6667.72
   8  6449.475
   9  6631.651
  10  6690.291
  11  6750.809
  12  6090.366
  13  6763.776
  14  7150.339
  15  6313.581
  16  5808.979
  17  6017.919
  18  5680.604
  19  5399.077
  20  6341.753
  21  7171.614
  22  6068.551
  23  5431.691
  24  6377.305
  25  6000.913
  26  5622.581
  27  5441.535
  28  5446.478
  29  5661.796
  30  5528.973
  31  5665.073
  32  6427.769
  33  5840.424
  34  6620.421
  35  6343.912
  36  6527.766
  37  6992.276
  38  6906.538
  39  7121.723
  40  6490.24
  41  5950.781
  42  6167.204
  43  6019.63
  44  5753.73
  45  6334.795
  46  6159.24
  47  6097.464
  48  5561.607
  49  6433.489
  50  6967.253
  51  6310.854
  52  5825.777
  53  5886.306
  54  6503.303
  55  6579.948
  56  6535.646
  57  5725.774
  58  5557.109
  59  6510.992
  60  5521.898
  61  5569.662
  62  6395.719
  63  6200.329
  64  6450.729
  65  7032.227
  66  6327.937
  67  5725.106
  68  5650.26
  69  5392.459
  70  5586.266
  71  6401.98
  72  6897.05
  73  6671.136
  74  5818.35
  75  6205.45
  76  6389.46
  77  6764.999
  78  5734.506
  79  5128.411
  80  5646.921
  81  6302.411
  82  6396.951
  83  7067.23
  84  6520.009
  85  6842.137
  86  6506.877
  87  5688.657
  88  5896.25
  89  5284.285
  90  5857.456
  91  5214.823
  92  5288.264
  93  5820.282
  94  5290.611
  95  5803.381
  96  6468.606
  97  5953.427
  98  5775.361
  99  6128.286
 100  5992.602
 101  5025.331
 102  5283.423
 103  5490.458
 104  5872.368
 105  5943.039
 106  5706.288
 107  6617.09
 108  7147.198
 109  5591.979
 110  5085.258
 111  5161.619
 112  6220.292
 113  6286.347
 114  6329.544
 115  6785.142
 116  6604.2
 117  6406.566
 118  6419.438
 119  5844.42
 120  5996.227
 121  6421.125
 122  5873.161
 123  6391.907
 124  6346.332
 125  6294.632
 126  6370.398
 127  5719.866
 128  6324.562
 129  6272.931
 130  6547.657
 131  6573.062
 132  6193.404
 133  6483.176
 134  6081.019
 135  6400.184
 136  5902.425
 137  5478.938
 138  5563.157
 139  6980.869
 140  6631.054
 141  5506.73
 142  6039.708
 143  7034.055
 144  6254.092
 145  5635.732
 146  5806.066
 147  7286.258
 148  6425.221
 149  5690.647
 150  6460.191
 151  6853.758
 152  6685.129
 153  6400.722
 154  7096.95
 155  8549.237
 156  8526.979
 157  7302.9
 158  6645.511
 159  6192.225
 160  6047.887
 161  6973.154
 162  6169.359
 163  5667.128
 164  6511.332
 165  6400.542
 166  5400.827
 167  5865.647
 168  6497.269
 169  6086.738
 170  5782.944
 171  6217.042
 172  6062.82
 173  6069.514
 174  5726.496
 175  6407.371
 176  7170.232
 177  6230.124
 178  6265.743
 179  6291.417
 180  6434.207
 181  6326.658
 182  6125.243
 183  6143.614
 184  6792.258
 185  6483.641
 186  7194.762
 187  7669.178
 188  6528.523
 189  5680.671
 190  6159.936
 191  5542.551
 192  5493.755
 193  4928.452
 194  5198.747
 195  5516.518
 196  5208.611
 197  6199.681
 198  6278.192
 199  5451.238
 200  5883.803
 201  5834.038
 202  5991.381
 203  5446.312
 204  5258.028
 205  5102.904
 206  5738.58
 207  5805.904
 208  5485.887
 209  6149.941
 210  5858.67
 211  6221.582
 212  6721.715
 213  6533.122
 214  6336.746
 215  6656.812
 216  6036.09
 217  5901.46
 218  6206.673
 219  6418.853
 220  5129.707
 221  5371.081
 222  6380.671
 223  6299.318
 224  5823.927
 225  5694.202
 226  7283.26
 227  7666.484
 228  7157.435
 229  7287.456
 230  7467.771
 231  6795.914
 232  6329.655
 233  5711.264
 234  6279.901
 235  6602.066
 236  6210.208
 237  6324.256
 238  6113.515
 239  6132.475
 240  6147.366
 241  6066.17
 242  5681.476
 243  6262.565
 244  6479.573
 245  5427.975
 246  6314.278
 247  6383.246
 248  6421.633
 249  6292.403
 250  5939.596
 251  6055.146
 252  6475.42
 253  6173.422
 254  7223.508
 255  6526.231
