# Input file       =  1198417033.10782_cleaned.dat
# Candidate        =  PSR_0332+5434
# Telescope        =  AR
# Epoch_topo       =  58114.567732729396
# Epoch_bary       =  N/A
# T_sample         =  0.002
# Data Folded      =  7208960
# Data Avg         =  0.0210685804963079
# Data StdDev      =  1.00013586987302 
# Profile Bins     =  512
# Profile Avg      =  296.706982479761 
# Profile StdDev   =  118.675298000678 
# Reduced chi-sqr  =  1.027
# Prob(Noise)      <  0.325   (~0.5 sigma)
# P_topo (ms)      =  714.551878701435  +/- 0.000137
# P'_topo (s/s)    =  -0                +/- 7.36e-11
# P''_topo (s/s^2) =  0                 +/- 3.31e-14
# P_bary (ms)      =  N/A
# P'_bary (s/s)    =  N/A
# P''_bary (s/s^2) =  N/A
# P_orb (s)        =  N/A
# asin(i)/c (s)    =  N/A
# eccentricity     =  N/A
# w (rad)          =  N/A
# T_peri           =  N/A
######################################################
   0  693.3478
   1  634.5098
   2  560.8802
   3  498.447
   4  393.6603
   5  219.1524
   6  161.515
   7  143.7816
   8  193.7841
   9  55.88518
  10  154.2801
  11  135.0741
  12  247.1764
  13  401.0111
  14  337.0919
  15  354.5037
  16  237.8226
  17  298.0173
  18  429.321
  19  387.5812
  20  430.4139
  21  233.887
  22  119.0558
  23  228.2834
  24  426.3465
  25  403.5031
  26  288.7876
  27  286.924
  28  282.7076
  29  255.767
  30  288.9319
  31  343.7982
  32  349.6101
  33  319.7434
  34  282.5619
  35  300.1832
  36  397.9092
  37  485.6642
  38  383.3787
  39  408.4044
  40  248.9365
  41  174.3424
  42  305.1386
  43  412.5152
  44  385.4077
  45  328.211
  46  349.836
  47  331.3557
  48  243.447
  49  310.3958
  50  298.8537
  51  362.0904
  52  333.2726
  53  372.9311
  54  287.7609
  55  401.4618
  56  449.4615
  57  301.2877
  58  336.7227
  59  265.0641
  60  155.174
  61  156.8667
  62  255.2113
  63  395.5727
  64  326.1682
  65  235.4102
  66  181.0407
  67  205.3228
  68  333.0913
  69  338.5628
  70  323.4478
  71  270.4176
  72  322.792
  73  352.4537
  74  328.3266
  75  341.5091
  76  337.7525
  77  226.5209
  78  212.8243
  79  258.289
  80  265.1368
  81  231.3805
  82  223.772
  83  236.786
  84  246.0036
  85  255.2939
  86  164.4497
  87  285.8016
  88  418.1093
  89  304.1108
  90  266.387
  91  233.2356
  92  371.0608
  93  172.7822
  94  145.1132
  95  258.7288
  96  327.8692
  97  253.146
  98  324.6765
  99  414.9382
 100  328.685
 101  283.8101
 102  417.5909
 103  488.0383
 104  403.3412
 105  344.5744
 106  181.0804
 107  232.6931
 108  194.8365
 109  228.7032
 110  331.8813
 111  309.2368
 112  266.3899
 113  297.8689
 114  98.88096
 115  276.2658
 116  377.808
 117  397.3402
 118  319.2474
 119  302.1345
 120  377.2869
 121  326.7153
 122  275.3037
 123  266.1271
 124  283.4077
 125  315.6252
 126  244.0305
 127  253.7068
 128  261.4345
 129  279.7328
 130  323.9166
 131  417.7122
 132  272.2902
 133  265.5202
 134  285.0224
 135  362.6403
 136  369.292
 137  391.6143
 138  340.5733
 139  291.9131
 140  303.4494
 141  388.67
 142  355.8496
 143  369.7016
 144  281.3388
 145  275.7903
 146  154.6059
 147  200.7974
 148  263.8619
 149  339.2075
 150  451.7125
 151  268.6133
 152  265.1821
 153  300.6706
 154  322.3146
 155  173.0494
 156  160.703
 157  361.3325
 158  251.119
 159  202.908
 160  181.7191
 161  314.8163
 162  425.8253
 163  330.3128
 164  239.3135
 165  270.2207
 166  131.7404
 167  181.8246
 168  205.1557
 169  145.112
 170  271.7986
 171  252.329
 172  262.9484
 173  354.0176
 174  296.5395
 175  430.7643
 176  332.8791
 177  261.3128
 178  302.3095
 179  261.538
 180  299.7004
 181  409.5909
 182  276.913
 183  197.2103
 184  273.9253
 185  235.9704
 186  339.431
 187  288.193
 188  321.586
 189  307.0968
 190  305.8766
 191  299.2933
 192  235.289
 193  115.0236
 194  240.4627
 195  367.6851
 196  282.6399
 197  293.7795
 198  217.636
 199  288.0858
 200  413.3923
 201  420.114
 202  345.3299
 203  335.9264
 204  326.8427
 205  353.0781
 206  467.3844
 207  362.7868
 208  219.9094
 209  144.479
 210  309.797
 211  341.71
 212  354.4379
 213  227.7168
 214  228.2842
 215  374.5219
 216  316.8192
 217  310.8278
 218  260.5006
 219  402.5338
 220  165.1749
 221  158.2909
 222  177.3354
 223  229.2695
 224  378.1531
 225  302.9997
 226  255.0901
 227  171.0312
 228  178.1785
 229  285.464
 230  208.5518
 231  146.3949
 232  273.2622
 233  276.621
 234  268.3753
 235  175.1008
 236  200.2665
 237  230.9277
 238  221.8525
 239  224.3994
 240  195.0979
 241  125.5671
 242  114.3012
 243  195.9481
 244  335.7931
 245  257.0334
 246  237.9722
 247  179.7538
 248  280.9627
 249  365.2007
 250  319.7371
 251  282.3395
 252  290.6895
 253  301.9449
 254  190.6492
 255  112.0356
 256  227.0463
 257  350.2789
 258  261.4268
 259  328.8707
 260  194.0754
 261  211.2709
 262  399.8638
 263  462.3206
 264  363.924
 265  257.62
 266  278.2442
 267  249.5072
 268  287.007
 269  303.2885
 270  323.3818
 271  230.7217
 272  228.3323
 273  192.1701
 274  153.9592
 275  169.1089
 276  196.738
 277  307.9055
 278  258.6653
 279  260.0127
 280  238.7349
 281  153.194
 282  296.7489
 283  291.8513
 284  279.966
 285  374.6363
 286  372.8693
 287  353.3093
 288  228.9236
 289  192.2811
 290  240.1472
 291  176.6138
 292  323.0311
 293  292.5254
 294  207.2322
 295  332.9756
 296  336.3049
 297  216.597
 298  263.7771
 299  358.7855
 300  326.2522
 301  180.4844
 302  299.1317
 303  229.9844
 304  47.7695
 305  236.6461
 306  394.1054
 307  311.0677
 308  235.7943
 309  256.7848
 310  318.0174
 311  340.7906
 312  335.3303
 313  235.3878
 314  344.7131
 315  423.3798
 316  248.6295
 317  264.9037
 318  316.4967
 319  219.4829
 320  297.9082
 321  244.1752
 322  156.122
 323  205.9545
 324  232.4848
 325  393.5095
 326  326.9704
 327  393.7206
 328  306.8469
 329  332.0192
 330  309.6813
 331  235.1678
 332  261.8074
 333  347.571
 334  391.269
 335  328.6724
 336  233.6787
 337  263.9291
 338  266.6773
 339  271.2859
 340  252.6127
 341  213.8837
 342  415.572
 343  399.2685
 344  274.0672
 345  240.8586
 346  274.9521
 347  298.4189
 348  360.48
 349  297.2576
 350  266.0023
 351  405.2791
 352  304.4466
 353  332.151
 354  377.6566
 355  361.0884
 356  370.4352
 357  453.2134
 358  442.3022
 359  431.3979
 360  353.7259
 361  348.7506
 362  380.8742
 363  338.2661
 364  450.2803
 365  269.8854
 366  302.8138
 367  314.3701
 368  288.7596
 369  197.0544
 370  348.4553
 371  359.1156
 372  231.456
 373  212.2432
 374  274.3353
 375  440.2815
 376  340.2374
 377  330.9596
 378  213.3228
 379  96.0535
 380  256.1463
 381  423.5733
 382  462.1807
 383  391.1459
 384  265.0092
 385  298.5533
 386  415.109
 387  280.4333
 388  164.7092
 389  223.7496
 390  221.645
 391  222.0263
 392  222.4303
 393  270.2429
 394  329.4536
 395  221.8117
 396  270.1205
 397  274.4885
 398  227.8861
 399  286.5304
 400  304.4275
 401  438.8825
 402  393.8244
 403  353.0021
 404  245.0628
 405  198.1362
 406  320.0724
 407  459.2549
 408  530.7953
 409  348.578
 410  382.9436
 411  294.1933
 412  321.3933
 413  379.644
 414  325.2652
 415  333.1489
 416  329.7991
 417  363.3188
 418  303.514
 419  224.6814
 420  206.5029
 421  349.8636
 422  277.3183
 423  364.3439
 424  288.6211
 425  262.2776
 426  286.3572
 427  200.678
 428  192.4654
 429  224.9246
 430  322.2864
 431  332.0659
 432  205.4203
 433  282.5598
 434  381.3192
 435  359.9728
 436  243.0576
 437  188.2714
 438  177.0439
 439  270.8928
 440  213.1955
 441  133.6656
 442  295.4718
 443  253.3829
 444  258.2263
 445  309.7661
 446  342.4378
 447  274.4864
 448  275.4432
 449  232.0477
 450  307.3864
 451  331.5421
 452  373.2822
 453  309.4006
 454  197.0401
 455  152.1233
 456  276.176
 457  285.0273
 458  369.1866
 459  214.438
 460  290.2069
 461  315.7584
 462  239.6246
 463  289.4168
 464  315.0114
 465  361.1422
 466  397.826
 467  398.0849
 468  421.4106
 469  312.0403
 470  209.3254
 471  113.4084
 472  318.8159
 473  369.3972
 474  315.8874
 475  394.6021
 476  292.8297
 477  329.2142
 478  205.9489
 479  270.5397
 480  300.9779
 481  420.3717
 482  404.1888
 483  299.9417
 484  356.1305
 485  349.7988
 486  340.0114
 487  367.1301
 488  359.3398
 489  275.1753
 490  194.0712
 491  249.4531
 492  314.5553
 493  299.5459
 494  124.8602
 495  269.4634
 496  247.0228
 497  340.4715
 498  341.554
 499  283.8023
 500  408.6177
 501  426.5787
 502  348.2607
 503  417.3135
 504  416.0424
 505  474.3989
 506  519.4802
 507  374.1566
 508  478.017
 509  555.3096
 510  526.4842
 511  662.4702
