# Input file       =  1198604022.114768_cleaned.dat
# Candidate        =  PSR_0332+5434
# Telescope        =  AR
# Epoch_topo       =  58116.731957346856
# Epoch_bary       =  N/A
# T_sample         =  0.002
# Data Folded      =  7340032
# Data Avg         =  0.0326707735638353
# Data StdDev      =  1.00012035660392 
# Profile Bins     =  512
# Profile Avg      =  468.110131505405 
# Profile StdDev   =  119.747447038402 
# Reduced chi-sqr  =  0.800
# Prob(Noise)      <  1   (~0.0 sigma)
# P_topo (ms)      =  714.553812759718  +/- 0.000172
# P'_topo (s/s)    =  -0                +/- 9.07e-11
# P''_topo (s/s^2) =  0                 +/- 4.01e-14
# P_bary (ms)      =  N/A
# P'_bary (s/s)    =  N/A
# P''_bary (s/s^2) =  N/A
# P_orb (s)        =  N/A
# asin(i)/c (s)    =  N/A
# eccentricity     =  N/A
# w (rad)          =  N/A
# T_peri           =  N/A
######################################################
   0  897.3045
   1  908.3229
   2  713.8334
   3  582.4418
   4  631.1686
   5  539.5969
   6  485.59
   7  487.964
   8  469.4902
   9  484.9532
  10  493.2172
  11  580.4244
  12  595.2739
  13  581.6513
  14  484.8417
  15  461.6517
  16  516.4678
  17  550.9352
  18  533.339
  19  536.0822
  20  447.8524
  21  353.2498
  22  412.8167
  23  439.3904
  24  502.8772
  25  543.2667
  26  495.9834
  27  465.5797
  28  501.045
  29  453.9561
  30  552.6576
  31  532.4153
  32  470.0898
  33  446.5732
  34  522.9447
  35  506.0985
  36  561.5139
  37  474.8329
  38  430.9671
  39  456.8165
  40  506.4297
  41  560.0255
  42  540.9803
  43  460.6417
  44  504.2063
  45  494.1141
  46  481.7179
  47  416.2936
  48  489.2561
  49  488.3102
  50  573.5555
  51  539.2461
  52  438.5374
  53  479.8744
  54  386.8749
  55  408.5825
  56  483.5063
  57  508.5043
  58  463.6682
  59  395.343
  60  468.9006
  61  494.3537
  62  487.8027
  63  615.3405
  64  603.9755
  65  488.0548
  66  444.2368
  67  311.4629
  68  363.9021
  69  495.6747
  70  442.9484
  71  385.2958
  72  502.4699
  73  440.0926
  74  384.5881
  75  270.6418
  76  439.3485
  77  410.7126
  78  403.068
  79  487.9911
  80  412.5873
  81  304.0463
  82  392.164
  83  438.1695
  84  576.6804
  85  489.314
  86  431.3203
  87  425.3923
  88  413.2567
  89  460.2171
  90  518.0577
  91  473.784
  92  420.5904
  93  436.8869
  94  376.7964
  95  363.4759
  96  366.8913
  97  404.6808
  98  288.2159
  99  284.0076
 100  402.3632
 101  445.0367
 102  420.1799
 103  418.4588
 104  439.7981
 105  368.253
 106  399.5974
 107  452.2783
 108  438.0995
 109  465.9006
 110  382.2191
 111  420.8748
 112  551.2351
 113  583.4236
 114  519.7891
 115  519.6563
 116  559.4346
 117  461.6515
 118  513.6392
 119  538.5529
 120  497.6033
 121  418.5246
 122  426.4491
 123  379.731
 124  494.683
 125  504.4131
 126  465.4682
 127  492.7705
 128  566.8165
 129  410.4595
 130  332.4467
 131  328.5006
 132  401.0428
 133  505.7877
 134  562.1489
 135  504.0056
 136  430.7206
 137  497.5662
 138  363.938
 139  344.3996
 140  362.6219
 141  507.6757
 142  599.153
 143  603.5887
 144  609.4752
 145  504.9336
 146  547.8686
 147  566.6723
 148  635.8331
 149  638.2103
 150  513.1785
 151  509.244
 152  534.9655
 153  450.5921
 154  440.0653
 155  349.771
 156  410.6549
 157  438.1749
 158  514.3076
 159  528.9097
 160  516.0012
 161  391.7632
 162  391.6099
 163  472.1855
 164  478.3027
 165  424.8292
 166  521.6313
 167  476.2074
 168  507.2013
 169  450.2109
 170  438.0606
 171  494.5038
 172  450.0662
 173  401.6672
 174  479.6186
 175  495.2661
 176  471.4306
 177  537.1539
 178  587.4102
 179  363.6201
 180  379.8391
 181  559.7212
 182  571.3514
 183  560.8651
 184  475.024
 185  506.3123
 186  481.4524
 187  526.9612
 188  521.6313
 189  424.3048
 190  460.001
 191  446.5995
 192  387.7418
 193  471.3466
 194  559.0314
 195  384.9093
 196  481.5008
 197  629.0099
 198  578.1923
 199  524.8615
 200  535.9752
 201  470.1537
 202  478.1894
 203  462.0808
 204  534.1241
 205  590.5096
 206  504.5286
 207  465.4244
 208  522.4252
 209  503.2314
 210  419.0855
 211  480.9978
 212  477.4002
 213  432.873
 214  455.6267
 215  557.9667
 216  594.3363
 217  554.2308
 218  568.005
 219  506.7062
 220  463.5095
 221  454.8086
 222  495.7424
 223  532.7966
 224  536.0327
 225  505.9614
 226  509.0389
 227  492.3405
 228  450.643
 229  546.0237
 230  545.853
 231  542.2977
 232  431.1975
 233  439.6284
 234  501.515
 235  462.6895
 236  423.7924
 237  364.701
 238  439.2629
 239  418.2961
 240  355.2743
 241  496.9257
 242  625.2899
 243  627.2243
 244  540.6343
 245  506.7496
 246  430.7853
 247  368.7397
 248  426.7959
 249  501.0983
 250  489.1993
 251  414.7009
 252  469.3357
 253  457.3027
 254  433.2904
 255  384.2166
 256  350.3133
 257  389.943
 258  467.3432
 259  478.2569
 260  447.1907
 261  466.1323
 262  476.0974
 263  495.413
 264  429.945
 265  549.7253
 266  519.9209
 267  496.2292
 268  397.6548
 269  498.8816
 270  539.7209
 271  505.6328
 272  483.8977
 273  453.3289
 274  509.3087
 275  495.7585
 276  542.0568
 277  571.6659
 278  496.0253
 279  498.8657
 280  545.2574
 281  458.255
 282  432.2762
 283  444.4267
 284  421.7379
 285  493.407
 286  438.968
 287  424.7381
 288  467.7039
 289  512.2633
 290  418.57
 291  480.4749
 292  480.6653
 293  520.6086
 294  422.0584
 295  442.3763
 296  454.7943
 297  336.4131
 298  405.0995
 299  426.6432
 300  525.8584
 301  539.5725
 302  527.5151
 303  401.5512
 304  379.2245
 305  417.7427
 306  357.7311
 307  368.2578
 308  389.416
 309  466.4387
 310  541.4868
 311  534.3222
 312  457.9044
 313  565.552
 314  517.5349
 315  519.6232
 316  363.5053
 317  384.1094
 318  434.0377
 319  511.4971
 320  519.9563
 321  385.347
 322  375.9301
 323  396.8582
 324  471.3098
 325  590.4279
 326  435.0462
 327  443.7695
 328  505.5728
 329  507.4112
 330  510.8736
 331  583.3751
 332  525.8586
 333  488.0064
 334  421.4456
 335  379.9426
 336  433.4517
 337  358.7134
 338  359.3131
 339  335.723
 340  384.6687
 341  439.6991
 342  470.7732
 343  500.4984
 344  545.3246
 345  508.6807
 346  484.9963
 347  552.4641
 348  465.3297
 349  404.4387
 350  379.403
 351  460.173
 352  530.7404
 353  428.298
 354  392.6178
 355  464.2658
 356  520.7775
 357  411.147
 358  415.6477
 359  351.4108
 360  335.5771
 361  337.5442
 362  357.9507
 363  468.4395
 364  410.4965
 365  455.5394
 366  516.204
 367  527.5262
 368  470.9169
 369  440.4484
 370  485.0324
 371  434.2418
 372  520.1021
 373  522.2317
 374  402.9496
 375  360.2069
 376  436.8535
 377  475.8688
 378  382.961
 379  258.0193
 380  365.0748
 381  419.1709
 382  479.2036
 383  371.653
 384  307.6654
 385  288.6346
 386  378.8664
 387  407.0064
 388  443.7253
 389  359.3758
 390  256.1951
 391  403.9789
 392  397.3546
 393  516.6567
 394  471.6217
 395  473.2139
 396  560.4016
 397  572.2932
 398  467.5879
 399  424.4605
 400  499.8229
 401  498.9268
 402  395.5995
 403  353.1485
 404  392.8702
 405  438.0929
 406  477.1322
 407  381.0435
 408  378.5216
 409  378.0328
 410  470.3928
 411  490.7521
 412  400.5387
 413  380.0868
 414  402.3362
 415  458.916
 416  544.229
 417  575.6307
 418  468.3819
 419  357.4479
 420  305.1792
 421  355.3989
 422  324.8515
 423  364.6515
 424  359.8212
 425  421.7635
 426  497.4111
 427  476.4852
 428  358.2836
 429  404.6463
 430  515.1755
 431  473.0866
 432  472.0858
 433  465.881
 434  442.2348
 435  468.9354
 436  392.7062
 437  402.2057
 438  497.4681
 439  372.2447
 440  424.8835
 441  458.8907
 442  398.9079
 443  479.5625
 444  471.898
 445  468.2793
 446  371.3559
 447  518.0921
 448  477.6012
 449  410.195
 450  397.7185
 451  472.0264
 452  464.0341
 453  549.2036
 454  470.881
 455  396.8644
 456  385.2454
 457  420.6942
 458  482.0042
 459  475.7828
 460  540.5941
 461  515.1784
 462  503.0836
 463  496.2028
 464  481.9683
 465  514.288
 466  499.0789
 467  579.8414
 468  538.1881
 469  457.3474
 470  432.6241
 471  453.9936
 472  475.7274
 473  365.5096
 474  404.732
 475  401.3057
 476  396.2291
 477  397.7833
 478  439.138
 479  513.7523
 480  573.7438
 481  492.2464
 482  539.8643
 483  534.42
 484  436.8259
 485  529.7799
 486  378.8236
 487  448.0314
 488  551.9086
 489  491.0918
 490  426.1917
 491  464.8311
 492  506.5753
 493  367.1006
 494  418.9348
 495  510.1553
 496  585.8544
 497  524.3074
 498  403.2106
 499  350.4264
 500  458.0727
 501  538.5906
 502  513.1743
 503  557.0474
 504  554.7182
 505  514.129
 506  524.0052
 507  498.8497
 508  526.8229
 509  548.1677
 510  715.5303
 511  870.6733
