# Input file       =  1198675532.112296_cleaned.dat
# Candidate        =  PSR_0332+5434
# Telescope        =  AR
# Epoch_topo       =  58117.559619355277
# Epoch_bary       =  N/A
# T_sample         =  0.002
# Data Folded      =  7143424
# Data Avg         =  0.0489280084276213
# Data StdDev      =  4.96998195267298 
# Profile Bins     =  256
# Profile Avg      =  1365.18423053679 
# Profile StdDev   =  830.210158874554 
# Reduced chi-sqr  =  1.166
# Prob(Noise)      <  0.0355   (~1.8 sigma)
# P_topo (ms)      =  714.554510745453  +/- 0.000226
# P'_topo (s/s)    =  -0                +/- 1.22e-10
# P''_topo (s/s^2) =  0                 +/- 5.55e-14
# P_bary (ms)      =  N/A
# P'_bary (s/s)    =  N/A
# P''_bary (s/s^2) =  N/A
# P_orb (s)        =  N/A
# asin(i)/c (s)    =  N/A
# eccentricity     =  N/A
# w (rad)          =  N/A
# T_peri           =  N/A
######################################################
   0  397.3074
   1  391.2011
   2  1436.697
   3  1725.88
   4  1456.361
   5  2210.886
   6  1925.248
   7  1696.32
   8  410.3309
   9  2544.646
  10  2007.979
  11  1784.392
  12  953.3773
  13  1841.361
  14  1313.142
  15  506.6434
  16  356.6938
  17  1876.07
  18  1795.929
  19  1215.27
  20  1157.498
  21  1798.069
  22  1916.66
  23  1840.865
  24  2050.285
  25  2100.839
  26  2376.247
  27  1796.075
  28  1122.672
  29  15.28145
  30  1101.197
  31  187.1918
  32  1256.436
  33  2499.516
  34  1843.763
  35  1159.044
  36  1822.736
  37  625.8255
  38  618.5423
  39  226.5985
  40  1805.316
  41  1582.953
  42  1726.889
  43  1389.147
  44  297.8379
  45  801.2951
  46  1932.355
  47  1197.929
  48  1017.651
  49  1311.656
  50  1760.541
  51  1305.591
  52  876.1068
  53  597.1035
  54  1214.268
  55  808.3185
  56  1031.148
  57  2298.463
  58  3035.235
  59  1709.235
  60  451.7407
  61  2040.407
  62  991.5408
  63  1976.858
  64  1282.48
  65  695.5945
  66  764.7106
  67  2250.421
  68  2591.103
  69  2153.375
  70  1436.232
  71  1182.857
  72  1223.446
  73  2031.392
  74  1616.35
  75  1102.164
  76  2207.694
  77  1471.93
  78  1440.327
  79  1419.875
  80  1145.303
  81  762.8535
  82  956.8241
  83  835.2681
  84  1230.97
  85  -82.3301
  86  -565.7834
  87  -414.3479
  88  176.105
  89  745.1254
  90  438.8473
  91  853.9666
  92  1013.357
  93  568.9944
  94  544.5164
  95  274.2014
  96  -133.8924
  97  -1441.294
  98  218.0978
  99  200.1584
 100  337.6398
 101  57.52134
 102  906.0964
 103  852.6877
 104  394.1157
 105  165.5409
 106  938.9672
 107  964.5795
 108  1394.661
 109  1254.905
 110  1404.472
 111  1544.127
 112  1231.804
 113  1018.706
 114  1542.04
 115  480.2117
 116  2104.426
 117  1805.118
 118  2001.083
 119  1441.933
 120  1142.738
 121  762.0366
 122  784.3959
 123  1477.596
 124  1327.869
 125  847.1929
 126  225.5421
 127  388.0273
 128  186.1916
 129  539.8464
 130  1173.716
 131  1234.574
 132  557.8975
 133  1193.2
 134  1610.137
 135  883.9827
 136  1439.75
 137  1321.931
 138  1519.145
 139  2926.421
 140  2213.247
 141  1971.414
 142  2198.027
 143  1439.941
 144  842.1539
 145  1446.906
 146  1474.332
 147  1425.227
 148  1750.618
 149  2762.719
 150  3194.68
 151  2107.794
 152  1570.694
 153  2329.244
 154  3620.496
 155  3371.198
 156  3796.033
 157  3216.945
 158  3455.965
 159  2026.95
 160  1306.74
 161  1932.841
 162  1614.509
 163  1163.502
 164  1097.095
 165  1872.648
 166  1654.991
 167  1922.255
 168  1981.553
 169  1965.956
 170  1845.483
 171  1514.452
 172  1806.944
 173  1435.043
 174  1810.957
 175  1964.511
 176  2154.191
 177  1617.772
 178  2004.576
 179  1170.543
 180  1745.414
 181  1842.255
 182  1231.013
 183  1310.324
 184  1236.863
 185  547.0344
 186  625.336
 187  1210.914
 188  740.3182
 189  389.4842
 190  2529.735
 191  2925.375
 192  2116.053
 193  1474.728
 194  1019.272
 195  1599.574
 196  1709.999
 197  1168.165
 198  1447.039
 199  2442.786
 200  2461.737
 201  2036.838
 202  1073.87
 203  1298.361
 204  2427.779
 205  2173.674
 206  1556.658
 207  1819.543
 208  1675.918
 209  1880.283
 210  178.8109
 211  617.1415
 212  895.2191
 213  1189.929
 214  2089.683
 215  2663.896
 216  1963.956
 217  1196.661
 218  2144.444
 219  1938.412
 220  1825.539
 221  2070.372
 222  1420.214
 223  2405.439
 224  2894.964
 225  1786.047
 226  722.8181
 227  1742.99
 228  1828.159
 229  266.4129
 230  297.8343
 231  1342.246
 232  1798.533
 233  1874.148
 234  552.3909
 235  -121.9833
 236  1328.03
 237  1643.198
 238  210.1391
 239  148.1433
 240  586.0676
 241  546.458
 242  655.2383
 243  511.8949
 244  636.4374
 245  536.3972
 246  1339.519
 247  1314.919
 248  2402.6
 249  2150.525
 250  797.2899
 251  1499.052
 252  1449.117
 253  970.1748
 254  576.4901
 255  733.327
