# Input file       =  1198446620.102143_cleaned.dat
# Candidate        =  PSR_0332+5434
# Telescope        =  AR
# Epoch_topo       =  58114.910174793324
# Epoch_bary       =  N/A
# T_sample         =  0.002
# Data Folded      =  7340032
# Data Avg         =  0.144873336715266
# Data StdDev      =  4.18807684328732 
# Profile Bins     =  256
# Profile Avg      =  4152.99148414901 
# Profile StdDev   =  709.159027133867 
# Reduced chi-sqr  =  0.847
# Prob(Noise)      <  0.963   (~0.0 sigma)
# P_topo (ms)      =  714.552546016859  +/- 0.000708
# P'_topo (s/s)    =  -0                +/- 3.74e-10
# P''_topo (s/s^2) =  0                 +/- 1.65e-13
# P_bary (ms)      =  N/A
# P'_bary (s/s)    =  N/A
# P''_bary (s/s^2) =  N/A
# P_orb (s)        =  N/A
# asin(i)/c (s)    =  N/A
# eccentricity     =  N/A
# w (rad)          =  N/A
# T_peri           =  N/A
######################################################
   0  4750.555
   1  4486.609
   2  4244.776
   3  4454.5
   4  4235.805
   5  4442.271
   6  4173.73
   7  4174.797
   8  3838.313
   9  3347.099
  10  3868.167
  11  4103.628
  12  3948.28
  13  4581.326
  14  3805.184
  15  3799.814
  16  4476.062
  17  3715.75
  18  4031.939
  19  4345.133
  20  4320.128
  21  3993.876
  22  3637.979
  23  3638.933
  24  3611.5
  25  3957.427
  26  4010.168
  27  4173.349
  28  4318.902
  29  3892.578
  30  4135.244
  31  4543.118
  32  4228.24
  33  4480.811
  34  4893.45
  35  3958.843
  36  4314.556
  37  4715.493
  38  4530.802
  39  4613.477
  40  3558.443
  41  4482.705
  42  4198.104
  43  3771.045
  44  3680.388
  45  3327.724
  46  4244.193
  47  4260.234
  48  3450.676
  49  3223.23
  50  3206.522
  51  3789.958
  52  3588.01
  53  3690.05
  54  3809.413
  55  3844.826
  56  4011.676
  57  4062.917
  58  4413.745
  59  3772.508
  60  3752.693
  61  3252.743
  62  3507.669
  63  4026.91
  64  3070.749
  65  3350.159
  66  5156.466
  67  4432.71
  68  3377.461
  69  3251.97
  70  2849.935
  71  3170.782
  72  3020.979
  73  3237.309
  74  3554.933
  75  4536.47
  76  4107.087
  77  3810.034
  78  4169.493
  79  3875.699
  80  3729.046
  81  3217.241
  82  3388.208
  83  4031.899
  84  3641.191
  85  2885.532
  86  3348.708
  87  3884.146
  88  3955.116
  89  4055.26
  90  4444.316
  91  3875.214
  92  3199.207
  93  3730.497
  94  3716.822
  95  3623.26
  96  4153.445
  97  4291.503
  98  4140.163
  99  4126.377
 100  4531.962
 101  4808.645
 102  4619.396
 103  3449.362
 104  2769.505
 105  3381.116
 106  4096.153
 107  3855.876
 108  3747.644
 109  4002.072
 110  4182.25
 111  3834.782
 112  5109.197
 113  4449.429
 114  3456.088
 115  3741.018
 116  3895.778
 117  3349.269
 118  3530.102
 119  3045.552
 120  3512.649
 121  3973.496
 122  3731.7
 123  3244.177
 124  3683.24
 125  4112.886
 126  3263.972
 127  2793.262
 128  4516.133
 129  4573.567
 130  4802.709
 131  4340.273
 132  4844.558
 133  4530.814
 134  4283.314
 135  3675.249
 136  3868.369
 137  3897.435
 138  3683.824
 139  3278.711
 140  3477.421
 141  4939.736
 142  4799.931
 143  4953.96
 144  4060.539
 145  3868.572
 146  5350.71
 147  5040.762
 148  5259.459
 149  4588.88
 150  4795.208
 151  4080.808
 152  3990.109
 153  4977.865
 154  5828.318
 155  5989.11
 156  5935.262
 157  5350.169
 158  5266.339
 159  4613.182
 160  5100.677
 161  4897.675
 162  5147.186
 163  4463.878
 164  3940.842
 165  4264.21
 166  4210.183
 167  3437.841
 168  3720.921
 169  4041.365
 170  4622.01
 171  4268.345
 172  4064.53
 173  4514.755
 174  3665.498
 175  3844.361
 176  4407.588
 177  4014.443
 178  3797.142
 179  4340.29
 180  4217.485
 181  3962.078
 182  4050.977
 183  4231.378
 184  4442.423
 185  4425.611
 186  4758.975
 187  4949.349
 188  4580.001
 189  4887.249
 190  3989.471
 191  4359.061
 192  4194.559
 193  4794.613
 194  4616.526
 195  4606.104
 196  4825.719
 197  4241.456
 198  4155.418
 199  4643.297
 200  4845.476
 201  4420.188
 202  4056.733
 203  4044.693
 204  4036.077
 205  4645.786
 206  4293.564
 207  3899.953
 208  4254.552
 209  4509.104
 210  3798.977
 211  4402.069
 212  4002.981
 213  4623.959
 214  4534.171
 215  3803.203
 216  3916.455
 217  4158.651
 218  4501.847
 219  4140.175
 220  4006.168
 221  4440.642
 222  3921.025
 223  3369.852
 224  3871.874
 225  4325.148
 226  4325.203
 227  4052.857
 228  4440.646
 229  4578.729
 230  3930.416
 231  3349.875
 232  4328.783
 233  4022.27
 234  4258.217
 235  4894.358
 236  4776.357
 237  4855.077
 238  4746.718
 239  4288.342
 240  4551.077
 241  4684.975
 242  4300.841
 243  4777.671
 244  5278.558
 245  5804.236
 246  4725.062
 247  4598.271
 248  4071.268
 249  4325.139
 250  3869.809
 251  4301.69
 252  4593.896
 253  5068.771
 254  4755.527
 255  4332.11
