# Input file       =  1198087057.13162_cleaned.dat
# Candidate        =  PSR_0332+5434
# Telescope        =  AR
# Epoch_topo       =  58110.748566338196
# Epoch_bary       =  N/A
# T_sample         =  0.002
# Data Folded      =  7340032
# Data Avg         =  0.204082046629212
# Data StdDev      =  4.13768793966869 
# Profile Bins     =  256
# Profile Avg      =  5851.43974607382 
# Profile StdDev   =  700.626770633893 
# Reduced chi-sqr  =  0.666
# Prob(Noise)      <  1   (~0.0 sigma)
# P_topo (ms)      =  714.548409473994  +/- 0.0027
# P'_topo (s/s)    =  -0                +/- 1.42e-09
# P''_topo (s/s^2) =  0                 +/- 6.28e-13
# P_bary (ms)      =  N/A
# P'_bary (s/s)    =  N/A
# P''_bary (s/s^2) =  N/A
# P_orb (s)        =  N/A
# asin(i)/c (s)    =  N/A
# eccentricity     =  N/A
# w (rad)          =  N/A
# T_peri           =  N/A
######################################################
   0  6135.467
   1  5489.814
   2  5155.826
   3  5648.206
   4  5498.756
   5  5295.177
   6  5280.982
   7  5180.08
   8  5553.562
   9  5122.805
  10  5273.886
  11  5033.299
  12  4354.275
  13  4789.5
  14  5331.74
  15  5163.602
  16  5215.898
  17  5743.413
  18  5922.596
  19  5448.544
  20  5928.614
  21  6135.836
  22  5801.762
  23  5892.678
  24  5776.622
  25  5451.108
  26  5887.487
  27  6095.014
  28  5759.56
  29  5688.532
  30  5254.631
  31  6161.32
  32  5816.755
  33  5234.041
  34  5651.273
  35  6156.533
  36  5686.875
  37  5479.178
  38  5684.11
  39  5739.018
  40  5204.148
  41  4763.642
  42  5696.54
  43  5672.776
  44  6400.674
  45  5942.573
  46  5402.132
  47  6262.939
  48  5838.825
  49  5376.219
  50  5155.588
  51  4916.384
  52  5663.032
  53  6096.94
  54  5478.922
  55  6149.527
  56  5821.292
  57  6134.674
  58  6377.613
  59  6599.846
  60  5844.989
  61  5983.598
  62  5550.916
  63  5627.711
  64  5977.568
  65  5998.651
  66  5599.075
  67  5581.006
  68  5747.671
  69  5944.75
  70  6039.779
  71  6202.832
  72  6069.473
  73  5624.7
  74  5831.071
  75  6267.957
  76  5705.337
  77  5459.834
  78  5667.994
  79  6272.192
  80  5999.39
  81  6034.135
  82  6134.247
  83  5741.017
  84  6351.938
  85  5766.848
  86  6599.208
  87  6134.837
  88  6519.904
  89  6374.022
  90  6214.111
  91  6118.712
  92  6368.762
  93  6176.874
  94  6652.245
  95  6617.267
  96  6159.878
  97  6041.068
  98  6037.459
  99  5900.476
 100  5904.285
 101  5397.925
 102  5578.863
 103  6147.962
 104  6270.427
 105  5829.373
 106  5938.451
 107  5812.092
 108  6584.579
 109  5931.429
 110  5858.189
 111  5959.563
 112  5938.387
 113  5842.25
 114  5455.882
 115  5171.732
 116  5371.5
 117  5385.478
 118  5701.268
 119  5280.672
 120  4481.667
 121  5287.352
 122  5286.999
 123  5477.588
 124  5887.201
 125  5830.619
 126  5738.233
 127  5558.171
 128  5910.545
 129  5901.624
 130  5696.084
 131  5762.447
 132  4872.628
 133  5790.827
 134  5632.708
 135  5777.291
 136  5533.668
 137  5723.929
 138  6184.28
 139  5785.132
 140  6175.792
 141  5446.631
 142  6279.576
 143  5639.738
 144  5892.015
 145  6119.499
 146  6061.618
 147  5897.629
 148  5601.066
 149  5665.987
 150  5831.465
 151  5572.365
 152  6119.525
 153  6635.147
 154  6627.072
 155  8149.956
 156  7939.86
 157  7234.667
 158  6217.391
 159  5907.798
 160  6886.55
 161  6672.05
 162  6112.824
 163  6076.479
 164  5916.215
 165  6686.882
 166  5773.731
 167  5970.004
 168  5623.271
 169  6304.684
 170  6802.539
 171  5778.726
 172  6066.616
 173  6052.003
 174  6880.248
 175  6734.15
 176  6964.219
 177  6008.727
 178  6484.908
 179  6349.25
 180  6151.902
 181  6257.838
 182  6270.904
 183  6540.494
 184  6257.74
 185  5752.975
 186  6247.641
 187  6143.636
 188  6107.388
 189  6262.247
 190  6563.146
 191  5702.451
 192  6026.989
 193  6570.911
 194  5893.312
 195  5987.198
 196  6366.592
 197  6032.377
 198  6010.219
 199  5831.201
 200  5979.388
 201  6035.132
 202  6632.934
 203  6448.281
 204  6266.36
 205  5529.686
 206  6217.893
 207  5912.063
 208  5343.625
 209  5499.43
 210  6305.231
 211  6384.575
 212  5682.812
 213  5354.39
 214  5954.561
 215  5946.729
 216  5291.708
 217  5066.262
 218  5294.342
 219  5389.312
 220  4817
 221  6089.173
 222  5775.924
 223  5816.27
 224  5721.47
 225  5460.879
 226  5323.26
 227  5222.21
 228  5229.447
 229  5612.332
 230  5271.516
 231  5459.316
 232  5296.569
 233  5443.641
 234  4902.352
 235  5303.625
 236  5496.061
 237  6054.02
 238  6032.198
 239  6043.247
 240  6626.703
 241  5620.039
 242  5276.184
 243  5431.882
 244  6201.663
 245  5895.294
 246  5775.809
 247  5464.095
 248  5632.766
 249  5839.473
 250  5543.24
 251  6664.731
 252  5611.458
 253  5150.667
 254  5600.023
 255  5301.825
