# Input file       =  1198188690.116503_cleaned.dat
# Candidate        =  PSR_0332+5434
# Telescope        =  AR
# Epoch_topo       =  58111.924874033597
# Epoch_bary       =  N/A
# T_sample         =  0.002
# Data Folded      =  7340032
# Data Avg         =  0.0306962195422746
# Data StdDev      =  1.0001741430142  
# Profile Bins     =  512
# Profile Avg      =  440.081550875632 
# Profile StdDev   =  119.75388704862  
# Reduced chi-sqr  =  0.749
# Prob(Noise)      <  1   (~0.0 sigma)
# P_topo (ms)      =  714.549853406222  +/- 0.00022
# P'_topo (s/s)    =  -0                +/- 1.16e-10
# P''_topo (s/s^2) =  0                 +/- 5.14e-14
# P_bary (ms)      =  N/A
# P'_bary (s/s)    =  N/A
# P''_bary (s/s^2) =  N/A
# P_orb (s)        =  N/A
# asin(i)/c (s)    =  N/A
# eccentricity     =  N/A
# w (rad)          =  N/A
# T_peri           =  N/A
######################################################
   0  507.7294
   1  453.3104
   2  478.184
   3  500.1006
   4  468.1391
   5  416.4875
   6  381.9943
   7  400.4561
   8  562.2398
   9  537.9115
  10  579.6136
  11  590.2183
  12  541.0316
  13  438.4371
  14  514.2881
  15  492.8052
  16  551.0174
  17  510.8628
  18  445.6305
  19  404.2817
  20  435.9752
  21  441.6464
  22  405.2663
  23  361.0335
  24  405.1485
  25  457.7629
  26  496.3683
  27  442.0405
  28  455.4478
  29  465.6357
  30  386.4813
  31  484.7367
  32  447.8982
  33  471.0536
  34  456.5066
  35  448.8093
  36  497.7812
  37  400.4904
  38  367.0231
  39  421.3574
  40  448.772
  41  503.5786
  42  480.1929
  43  379.9486
  44  383.6642
  45  455.6679
  46  500.1989
  47  447.2713
  48  454.3312
  49  510.779
  50  450.9754
  51  520.2579
  52  434.5771
  53  449.6823
  54  500.5228
  55  519.9616
  56  565.0146
  57  583.2106
  58  527.8965
  59  418.7605
  60  421.5967
  61  583.5272
  62  508.0721
  63  369.5622
  64  509.8779
  65  511.3334
  66  450.5217
  67  498.313
  68  552.2503
  69  609.8328
  70  546.6104
  71  488.6161
  72  518.8272
  73  556.251
  74  686.9633
  75  619.5239
  76  511.0418
  77  384.7259
  78  471.3255
  79  480.8508
  80  385.252
  81  512.8714
  82  520.7277
  83  467.788
  84  326.2502
  85  320.7172
  86  344.6719
  87  365.6401
  88  421.7066
  89  558.2651
  90  510.8842
  91  503.6881
  92  489.6316
  93  503.0882
  94  434.5755
  95  367.1649
  96  398.8372
  97  464.6871
  98  493.2363
  99  497.4806
 100  484.456
 101  480.0178
 102  477.4772
 103  457.2476
 104  445.5584
 105  448.7986
 106  436.381
 107  548.7631
 108  504.2746
 109  422.1559
 110  549.0983
 111  564.6985
 112  526.9049
 113  436.5303
 114  486.9653
 115  477.1213
 116  484.752
 117  398.9055
 118  453.4861
 119  365.7314
 120  314.8232
 121  350.2256
 122  319.0407
 123  403.6154
 124  411.8257
 125  414.5367
 126  533.9046
 127  552.4214
 128  596.644
 129  560.5999
 130  420.7983
 131  379.3559
 132  423.5024
 133  467.8492
 134  451.1231
 135  485.5197
 136  556.8254
 137  461.0399
 138  424.4591
 139  414.7601
 140  470.4336
 141  479.1361
 142  463.4113
 143  467.7122
 144  451.0427
 145  466.3293
 146  498.5928
 147  428.8387
 148  479.715
 149  405.2031
 150  436.0401
 151  463.7843
 152  456.5706
 153  492.4663
 154  446.1962
 155  468.4644
 156  567.3039
 157  543.299
 158  502.0701
 159  467.7084
 160  439.0518
 161  396.9959
 162  451.1248
 163  479.0457
 164  331.0783
 165  375.805
 166  572.6455
 167  544.295
 168  519.613
 169  401.6201
 170  505.8221
 171  473.3574
 172  413.4912
 173  371.4274
 174  426.332
 175  515.6224
 176  506.1305
 177  443.5031
 178  469.4292
 179  511.7755
 180  522.0524
 181  402.318
 182  294.8846
 183  303.6911
 184  337.5666
 185  356.3278
 186  395.5932
 187  439.7178
 188  485.5393
 189  405.7666
 190  358.5833
 191  315.5589
 192  385.4518
 193  459.8841
 194  431.4157
 195  285.2361
 196  390.4865
 197  463.5762
 198  384.7435
 199  327.3595
 200  413.6994
 201  548.9081
 202  482.355
 203  532.5597
 204  368.406
 205  336.1404
 206  314.3867
 207  332.3788
 208  507.853
 209  564.0685
 210  466.5984
 211  421.378
 212  412.5942
 213  339.961
 214  298.3532
 215  405.0112
 216  445.8186
 217  370.2675
 218  342.0049
 219  494.9718
 220  441.0005
 221  411.429
 222  341.3734
 223  433.6653
 224  440.784
 225  502.0866
 226  402.5673
 227  440.2567
 228  523.2795
 229  515.6182
 230  393.4855
 231  330.313
 232  352.4808
 233  440.2415
 234  457.9917
 235  475.5197
 236  495.0081
 237  455.9579
 238  448.3809
 239  463.2173
 240  502.6197
 241  444.7622
 242  354.7934
 243  330.0177
 244  390.818
 245  376.6661
 246  385.7982
 247  371.8543
 248  393.303
 249  436.9034
 250  504.1181
 251  405.9452
 252  378.7282
 253  383.2478
 254  406.3337
 255  465.0681
 256  520.5901
 257  528.0336
 258  546.9158
 259  451.0148
 260  360.4548
 261  460.0991
 262  585.453
 263  439.591
 264  415.5509
 265  432.8274
 266  326.8818
 267  211.1477
 268  298.9008
 269  455.0735
 270  425.1962
 271  357.1635
 272  360.3622
 273  299.0726
 274  383.7311
 275  461.5685
 276  412.1807
 277  328.7967
 278  380.7975
 279  457.5172
 280  498.4358
 281  436.4571
 282  413.8555
 283  342.2262
 284  390.941
 285  380.079
 286  336.5853
 287  411.2194
 288  399.4008
 289  396.3594
 290  367.707
 291  402.2656
 292  442.7773
 293  495.1136
 294  393.3709
 295  447.3672
 296  474.8128
 297  353.4277
 298  382.3802
 299  378.9408
 300  551.245
 301  547.5815
 302  432.8073
 303  502.3802
 304  469.3262
 305  440.8181
 306  387.106
 307  479.3496
 308  497.9047
 309  532.3062
 310  405.8644
 311  454.729
 312  442.4162
 313  498.1408
 314  388.1777
 315  325.6356
 316  277.7056
 317  313.3473
 318  478.9631
 319  446.7057
 320  473.9669
 321  361.2936
 322  433.7372
 323  469.9776
 324  384.5015
 325  388.7203
 326  405.5039
 327  525.3318
 328  426.1365
 329  333.2107
 330  204.6497
 331  265.2975
 332  441.403
 333  494.8695
 334  516.3006
 335  326.1844
 336  234.2224
 337  360.9336
 338  407.8806
 339  396.2678
 340  452.6905
 341  402.7215
 342  367.3739
 343  417.3605
 344  458.8892
 345  343.1741
 346  477.5901
 347  429.6206
 348  431.1522
 349  478.169
 350  494.0353
 351  361.4175
 352  439.9259
 353  397.7165
 354  364.9471
 355  337.9148
 356  304.1076
 357  418.7591
 358  476.5161
 359  529.075
 360  423.2074
 361  301.477
 362  344.8648
 363  396.2916
 364  443.4997
 365  475.8697
 366  463.2863
 367  491.7144
 368  429.9707
 369  424.2784
 370  461.2052
 371  482.597
 372  506.2211
 373  443.5906
 374  471.5644
 375  376.1248
 376  320.0617
 377  394.725
 378  438.9162
 379  543.1072
 380  523.7355
 381  473.6223
 382  506.8761
 383  582.7031
 384  495.1063
 385  334.7586
 386  307.7846
 387  508.0137
 388  545.1826
 389  458.951
 390  519.7045
 391  465.3151
 392  376.7145
 393  500.0001
 394  483.7671
 395  462.4421
 396  436.9958
 397  430.2204
 398  396.1337
 399  518.2637
 400  564.6428
 401  538.745
 402  445.6652
 403  430.1501
 404  585.353
 405  594.886
 406  568.1614
 407  664.066
 408  814.7838
 409  777.0098
 410  678.6469
 411  644.0204
 412  503.8642
 413  419.0099
 414  374.175
 415  408.6343
 416  472.0294
 417  418.7236
 418  437.8879
 419  433.4009
 420  382.4629
 421  459.0226
 422  559.8287
 423  491.0514
 424  389.3819
 425  355.6975
 426  386.5556
 427  314.1385
 428  336.7459
 429  423.0292
 430  441.3873
 431  432.5865
 432  422.6093
 433  471.6014
 434  383.4175
 435  269.435
 436  372.3668
 437  349.2237
 438  319.7006
 439  319.0707
 440  473.493
 441  420.7322
 442  411.5865
 443  425.3431
 444  448.9422
 445  380.6086
 446  372.0263
 447  385.0844
 448  413.6956
 449  437.2935
 450  489.0102
 451  416.2823
 452  383.0079
 453  484.4698
 454  525.0878
 455  347.6889
 456  375.8789
 457  423.811
 458  392.9478
 459  476.9473
 460  438.8391
 461  378.643
 462  349.8338
 463  369.2133
 464  385.7696
 465  430.2566
 466  443.5124
 467  365.4788
 468  379.5667
 469  477.8634
 470  481.5836
 471  365.2994
 472  486.1494
 473  495.247
 474  386.7986
 475  412.7915
 476  453.2196
 477  433.5199
 478  354.1901
 479  413.1786
 480  417.7371
 481  419.8393
 482  336.2679
 483  347.5862
 484  369.0818
 485  463.583
 486  375.6548
 487  349.7495
 488  379.5655
 489  424.7379
 490  483.7456
 491  451.6651
 492  463.5529
 493  391.2876
 494  414.8217
 495  435.4902
 496  377.0555
 497  310.9132
 498  431.8169
 499  474.8555
 500  486.2001
 501  451.7498
 502  367.1627
 503  400.8255
 504  429.8612
 505  402.6952
 506  379.5883
 507  353.3003
 508  373.1283
 509  459.3641
 510  471.9463
 511  422.2684
