# Input file       =  1198604022.114768_cleaned.dat
# Candidate        =  PSR_0332+5434
# Telescope        =  AR
# Epoch_topo       =  58116.731957346856
# Epoch_bary       =  N/A
# T_sample         =  0.002
# Data Folded      =  7340032
# Data Avg         =  0.0326707735638353
# Data StdDev      =  1.00012035660392 
# Profile Bins     =  512
# Profile Avg      =  468.110137113873 
# Profile StdDev   =  119.747447038402 
# Reduced chi-sqr  =  0.803
# Prob(Noise)      <  1   (~0.0 sigma)
# P_topo (ms)      =  714.553813888299  +/- 0.000172
# P'_topo (s/s)    =  -0                +/- 9.06e-11
# P''_topo (s/s^2) =  0                 +/- 4e-14
# P_bary (ms)      =  N/A
# P'_bary (s/s)    =  N/A
# P''_bary (s/s^2) =  N/A
# P_orb (s)        =  N/A
# asin(i)/c (s)    =  N/A
# eccentricity     =  N/A
# w (rad)          =  N/A
# T_peri           =  N/A
######################################################
   0  499.8987
   1  465.9311
   2  430.9396
   3  476.5258
   4  484.7488
   5  391.5368
   6  464.7584
   7  502.6034
   8  465.7425
   9  519.4057
  10  592.6822
  11  420.7558
  12  333.7526
  13  542.1075
  14  566.4534
  15  577.5375
  16  492.6044
  17  500.3248
  18  477.1925
  19  513.7129
  20  536.2943
  21  440.5907
  22  444.0329
  23  458.4476
  24  395.0761
  25  446.5538
  26  564.722
  27  419.8539
  28  434.2457
  29  617.8885
  30  593.8317
  31  527.4209
  32  534.1798
  33  481.7961
  34  478.8003
  35  460.5846
  36  520.7658
  37  581.0667
  38  535.2318
  39  451.2936
  40  523.0538
  41  512.6863
  42  432.5817
  43  462.2847
  44  483.9129
  45  447.1257
  46  428.486
  47  541.0217
  48  588.8425
  49  566.9332
  50  568.5123
  51  521.1191
  52  477.1054
  53  441.2425
  54  492.3639
  55  521.6877
  56  545.7488
  57  511.8246
  58  502.2857
  59  503.0896
  60  454.949
  61  518.1426
  62  556.7365
  63  542.6093
  64  459.0751
  65  423.7721
  66  495.4257
  67  474.3538
  68  432.8344
  69  370.8619
  70  414.9701
  71  438.8326
  72  359.7149
  73  447.3391
  74  608.9174
  75  642.8801
  76  560.2209
  77  517.2159
  78  451.2906
  79  361.2763
  80  414.8627
  81  477.0551
  82  509.7384
  83  422.2357
  84  462.9922
  85  461.9
  86  441.6631
  87  390.1148
  88  359.5521
  89  366.5067
  90  459.0293
  91  484.3368
  92  451.1553
  93  459.8904
  94  460.2625
  95  519.7706
  96  422.4882
  97  527.4078
  98  532.8295
  99  504.5944
 100  408.7174
 101  468.3333
 102  545.5927
 103  515.0506
 104  488.4193
 105  446.1765
 106  508.97
 107  498.2755
 108  531.2836
 109  566.6693
 110  515.1172
 111  487.5892
 112  553.0292
 113  474.0639
 114  431.9093
 115  441.8836
 116  416.0796
 117  487.3683
 118  447.3311
 119  433.2586
 120  452.1851
 121  510.948
 122  429.3004
 123  466.9303
 124  476.3781
 125  525.4255
 126  435.0434
 127  439.0281
 128  458.7555
 129  365.65
 130  374.7988
 131  424.4154
 132  502.3862
 133  543.5765
 134  530.8779
 135  434.3512
 136  371.0137
 137  415.1301
 138  375.1796
 139  355.036
 140  387.4247
 141  437.6742
 142  530.2972
 143  551.1299
 144  456.9977
 145  556.8213
 146  526.0491
 147  547.3958
 148  380.8892
 149  369.1759
 150  419.4498
 151  493.3159
 152  539.3655
 153  397.2128
 154  386.0299
 155  374.0863
 156  451.7822
 157  576.0529
 158  477.5915
 159  425.014
 160  499.6702
 161  508.2321
 162  510.6286
 163  565.1382
 164  552.7892
 165  488.7375
 166  450.3452
 167  368.295
 168  434.0179
 169  359.5741
 170  367.7971
 171  329.1575
 172  383.4191
 173  412.7943
 174  480.4217
 175  480.8889
 176  549.6423
 177  518.299
 178  485.9199
 179  534.9052
 180  504.4249
 181  401.1843
 182  379.2503
 183  434.2907
 184  532.7743
 185  455.6314
 186  387.3484
 187  439.0397
 188  527.0064
 189  429.5912
 190  422.2813
 191  361.7015
 192  338.6762
 193  333.8819
 194  340.9089
 195  460.1696
 196  415.6129
 197  445.0519
 198  509.5919
 199  526.8636
 200  483.6657
 201  436.8861
 202  489.4811
 203  441.6948
 204  493.4667
 205  542.187
 206  431.6926
 207  343.7843
 208  430.8424
 209  459.4095
 210  427.0831
 211  255.2514
 212  346.0962
 213  402.6501
 214  483.7317
 215  397.8808
 216  308.6203
 217  288.222
 218  354.052
 219  409.2615
 220  428.1125
 221  414.0754
 222  237.4484
 223  400.7577
 224  380.2772
 225  495.4746
 226  482.4918
 227  464.9405
 228  537.4329
 229  591.0331
 230  487.1758
 231  418.8032
 232  484.6424
 233  509.8578
 234  430.8717
 235  342.2374
 236  390.3108
 237  425.1768
 238  487.572
 239  395.0471
 240  377.0257
 241  368.9813
 242  451.868
 243  491.3667
 244  423.5688
 245  369.5569
 246  402.929
 247  439.8327
 248  526.4166
 249  569.301
 250  509.3592
 251  378.3382
 252  310.2116
 253  340.2922
 254  329.3544
 255  347.6581
 256  371.207
 257  389.4451
 258  499.4963
 259  480.9299
 260  398.1637
 261  359.9283
 262  514.0421
 263  488.6866
 264  462.3704
 265  486.3296
 266  418.793
 267  484.6417
 268  395.72
 269  394.7884
 270  493.6429
 271  400.1269
 272  396.4906
 273  469.246
 274  403.7896
 275  451.5831
 276  485.1079
 277  467.912
 278  395.3507
 279  474.4719
 280  510.8585
 281  403.0827
 282  405.9434
 283  453.56
 284  462.2392
 285  532.4359
 286  496.2464
 287  407.1054
 288  388.3088
 289  401.3674
 290  485.4125
 291  472.6383
 292  524.7134
 293  526.8906
 294  502.0551
 295  498.5178
 296  487.3166
 297  499.6289
 298  500.4262
 299  562.0648
 300  559.9265
 301  472.356
 302  433.8993
 303  440.2038
 304  492.791
 305  374.5818
 306  400.4501
 307  394.7641
 308  405.726
 309  383.3733
 310  448.0756
 311  468.4932
 312  599.0677
 313  499.7899
 314  527.9666
 315  544.2567
 316  432.9703
 317  524.5186
 318  417.433
 319  413.9344
 320  539.5975
 321  513.7882
 322  425.1678
 323  453.6524
 324  512.2753
 325  397.5338
 326  395.8643
 327  481.013
 328  587.6216
 329  536.0428
 330  442.7242
 331  346.1468
 332  425.9159
 333  531.7075
 334  522.1612
 335  537.3991
 336  560.4704
 337  520.0113
 338  522.2827
 339  509.615
 340  518.7639
 341  526.7303
 342  679.6317
 343  830.1162
 344  916.1813
 345  908.6851
 346  784.6664
 347  569.0156
 348  629.9363
 349  567.8929
 350  488.183
 351  493.7691
 352  458.3997
 353  491.8837
 354  481.3652
 355  573.0164
 356  581.2296
 357  604.3602
 358  497.2995
 359  457.6818
 360  496.8025
 361  561.0411
 362  535.3641
 363  529.5855
 364  493.7854
 365  351.9469
 366  399.3782
 367  420.7694
 368  495.5953
 369  537.1906
 370  512.3175
 371  458.7195
 372  499.1346
 373  469.5224
 374  522.4134
 375  552.3246
 376  484.9365
 377  432.9629
 378  512.9947
 379  509.5394
 380  542.6047
 381  510.3434
 382  423.9928
 383  467.0039
 384  478.8697
 385  560.1685
 386  554.3489
 387  471.2553
 388  492.9682
 389  491.3065
 390  502.8669
 391  405.9839
 392  485.9129
 393  479.1666
 394  559.838
 395  564.4956
 396  442.7283
 397  476.9775
 398  404.7933
 399  395.1637
 400  473.2276
 401  510.9365
 402  474.5691
 403  398.7409
 404  453.7397
 405  502.8072
 406  474.5411
 407  578.8429
 408  630.2675
 409  508.6799
 410  455.8328
 411  338.0385
 412  327.5092
 413  490.8628
 414  459.7515
 415  376.4138
 416  484.8948
 417  461.3058
 418  394.2163
 419  286.7426
 420  394.0842
 421  443.3059
 422  377.524
 423  483.5239
 424  447.9537
 425  317.2783
 426  362.6245
 427  416.5136
 428  552.684
 429  527.2407
 430  432.1547
 431  426.7023
 432  421.3384
 433  441.5978
 434  498.5417
 435  500.1021
 436  414.1678
 437  451.3269
 438  383.2683
 439  368.0192
 440  362.1602
 441  400.3774
 442  322.8063
 443  263.0182
 444  379.8153
 445  439.3713
 446  432.8311
 447  411.3749
 448  440.0704
 449  398.2838
 450  366.7296
 451  456.3236
 452  442.111
 453  451.3201
 454  405.8245
 455  391.5344
 456  540.7847
 457  585.7255
 458  534.2104
 459  501.1478
 460  558.2897
 461  486.1743
 462  499.0663
 463  540.8035
 464  517.0175
 465  418.476
 466  441.304
 467  371.4444
 468  473.5571
 469  509.0244
 470  474.0515
 471  469.0154
 472  572.056
 473  439.493
 474  352.8106
 475  310.9838
 476  397.2286
 477  466.9629
 478  570.3447
 479  523.2814
 480  433.4154
 481  487.8262
 482  403.6347
 483  331.2376
 484  354.9804
 485  466.4697
 486  590.6995
 487  600.3691
 488  619.9809
 489  524.3543
 490  526.9984
 491  565.5536
 492  611.9794
 493  662.2198
 494  536.8129
 495  499.7953
 496  540.6366
 497  471.2686
 498  448.6931
 499  355.169
 500  385.432
 501  434.9735
 502  501.1149
 503  533.431
 504  524.675
 505  415.6212
 506  378.1037
 507  461.5447
 508  486.512
 509  421.1574
 510  506.8289
 511  486.6578
