# Input file       =  1198072487.096268_cleaned.dat
# Candidate        =  PSR_0332+5434
# Telescope        =  AR
# Epoch_topo       =  58110.579931669767
# Epoch_bary       =  N/A
# T_sample         =  0.002
# Data Folded      =  7143424
# Data Avg         =  0.520149360511263
# Data StdDev      =  6.83465639381345 
# Profile Bins     =  256
# Profile Avg      =  14512.8606221158 
# Profile StdDev   =  1141.69452215196 
# Reduced chi-sqr  =  0.585
# Prob(Noise)      <  1   (~0.0 sigma)
# P_topo (ms)      =  714.548228847317  +/- 8.69e-05
# P'_topo (s/s)    =  -0                +/- 4.71e-11
# P''_topo (s/s^2) =  0                 +/- 2.14e-14
# P_bary (ms)      =  N/A
# P'_bary (s/s)    =  N/A
# P''_bary (s/s^2) =  N/A
# P_orb (s)        =  N/A
# asin(i)/c (s)    =  N/A
# eccentricity     =  N/A
# w (rad)          =  N/A
# T_peri           =  N/A
######################################################
   0  13617.26
   1  13486.67
   2  14739.81
   3  15194.29
   4  14035.72
   5  13871.01
   6  14407.87
   7  14358.41
   8  15227.5
   9  13775.08
  10  13501.94
  11  14120.08
  12  14827.55
  13  13853.93
  14  14729.91
  15  14890.22
  16  14156.13
  17  14013.65
  18  14630.01
  19  14635.19
  20  12297.05
  21  13305.93
  22  13066.19
  23  13914.45
  24  14054.87
  25  14633.18
  26  14642.16
  27  14230.82
  28  14082.75
  29  13907.33
  30  14894.37
  31  14844.72
  32  14282.73
  33  14415.84
  34  14095.24
  35  15633.12
  36  13063.8
  37  14479.54
  38  13778.73
  39  13283.36
  40  14029.37
  41  14824.45
  42  15264.63
  43  15148.6
  44  14323.33
  45  13406.68
  46  13045.25
  47  13958.03
  48  15072.04
  49  14757.44
  50  13795.61
  51  14447.52
  52  15457.58
  53  15225.13
  54  13694.84
  55  14448.29
  56  15009.46
  57  14971.66
  58  15491.15
  59  14633.78
  60  15587.41
  61  15231.75
  62  14860.04
  63  15218.48
  64  14490.19
  65  14644.45
  66  14831.02
  67  14327.05
  68  14734.13
  69  13763.36
  70  12780.1
  71  13868.49
  72  14067.49
  73  13405.88
  74  14089.34
  75  13827.61
  76  14000.54
  77  13045.31
  78  13719.26
  79  13213.14
  80  14417.74
  81  12904.54
  82  13560.44
  83  14015.65
  84  13115.19
  85  14149.7
  86  13888.89
  87  14300.65
  88  13524.96
  89  14716.07
  90  14172.75
  91  14772.88
  92  15335.58
  93  14729.23
  94  14325.18
  95  14245.15
  96  15750.8
  97  14650.75
  98  14629.53
  99  15010.32
 100  15685.35
 101  14284.92
 102  13877.12
 103  14015.28
 104  13540.47
 105  15458.96
 106  15285.27
 107  15265.97
 108  14544.19
 109  14861.63
 110  14488.98
 111  13938.09
 112  14441.84
 113  14063.22
 114  15367.36
 115  15041.14
 116  15112.19
 117  15618.84
 118  15802.9
 119  16549.55
 120  14812.58
 121  16088.64
 122  14960.71
 123  14666.66
 124  14959.05
 125  14832.43
 126  14602.96
 127  14636.43
 128  14870.36
 129  15097.34
 130  15366.7
 131  16666.29
 132  15853.25
 133  16187.55
 134  15392.71
 135  14405.27
 136  14281.63
 137  15611.26
 138  15237.82
 139  15692.94
 140  15556.23
 141  15632.55
 142  14515.9
 143  16261.56
 144  15384.97
 145  15229.11
 146  15047.27
 147  14717.79
 148  15261.24
 149  14978.8
 150  14503.61
 151  13525.93
 152  13428.67
 153  15385.12
 154  15593.85
 155  15765.23
 156  15468.52
 157  15827.03
 158  14833.17
 159  15638.34
 160  15665.08
 161  15256.25
 162  15197.59
 163  13443.65
 164  15212.24
 165  14577.05
 166  14947.47
 167  15043.16
 168  14230.85
 169  13767.46
 170  14340.96
 171  15350.72
 172  14467.97
 173  14655.68
 174  13553.94
 175  13378.58
 176  12930.98
 177  14368.3
 178  14287.23
 179  14384.12
 180  14336.69
 181  14645.87
 182  15093.84
 183  14889.82
 184  15556.74
 185  15076.82
 186  14821.79
 187  15151.62
 188  15361.78
 189  16036.75
 190  14875.19
 191  14259.15
 192  14122.55
 193  14683
 194  14099.71
 195  14588.8
 196  15406.63
 197  13943.28
 198  13633.75
 199  13432.1
 200  14373.14
 201  13726.21
 202  14819.69
 203  14258.96
 204  14305.59
 205  14358.83
 206  14714.82
 207  15168.88
 208  14477.1
 209  15942.82
 210  14406.72
 211  13089.31
 212  13572.68
 213  15293.15
 214  14650.78
 215  14803.96
 216  15082.56
 217  14665.95
 218  15138.21
 219  14996.78
 220  14470.16
 221  15075.74
 222  14168.31
 223  14453.75
 224  13674.33
 225  14575.85
 226  14434.15
 227  14236.39
 228  13527.54
 229  14494.94
 230  14722.43
 231  14569.15
 232  14953.47
 233  13818.93
 234  15180.83
 235  13763.44
 236  13356.86
 237  13743.04
 238  13681.43
 239  13617.88
 240  13848.02
 241  14033.79
 242  13241.79
 243  14443.4
 244  13428.22
 245  14187.18
 246  14443.22
 247  14097.28
 248  14583.04
 249  13827.45
 250  14857.74
 251  14127.49
 252  14012.29
 253  13304.33
 254  13512.92
 255  13979.22
