# Input file       =  1198431712.104709_cleaned.dat
# Candidate        =  PSR_0332+5434
# Telescope        =  AR
# Epoch_topo       =  58114.737628526724
# Epoch_bary       =  N/A
# T_sample         =  0.002
# Data Folded      =  7340032
# Data Avg         =  0.0291610975127903
# Data StdDev      =  1.0000720594832  
# Profile Bins     =  512
# Profile Avg      =  418.044238936335 
# Profile StdDev   =  119.741664277489 
# Reduced chi-sqr  =  0.919
# Prob(Noise)      <  0.904   (~0.0 sigma)
# P_topo (ms)      =  714.552052221414  +/- 0.000576
# P'_topo (s/s)    =  -0                +/- 3.04e-10
# P''_topo (s/s^2) =  0                 +/- 1.34e-13
# P_bary (ms)      =  N/A
# P'_bary (s/s)    =  N/A
# P''_bary (s/s^2) =  N/A
# P_orb (s)        =  N/A
# asin(i)/c (s)    =  N/A
# eccentricity     =  N/A
# w (rad)          =  N/A
# T_peri           =  N/A
######################################################
   0  921.1777
   1  910.855
   2  773.7662
   3  578.5129
   4  511.9731
   5  404.8257
   6  293.5858
   7  308.0614
   8  430.7187
   9  426.8999
  10  402.5348
  11  429.6586
  12  495.9216
  13  416.349
  14  408.0269
  15  401.9865
  16  352.1642
  17  389.1122
  18  338.0966
  19  382.8381
  20  336.9498
  21  414.9691
  22  405.2193
  23  365.6305
  24  428.4307
  25  238.7582
  26  337.2527
  27  428.0248
  28  468.2429
  29  450.3406
  30  511.524
  31  473.9839
  32  508.3427
  33  402.0036
  34  358.989
  35  353.3576
  36  372.0699
  37  396.1639
  38  390.2517
  39  387.7962
  40  283.9324
  41  248.6595
  42  510.2602
  43  513.9888
  44  466.9576
  45  379.0798
  46  477.9507
  47  455.9442
  48  480.0631
  49  426.8305
  50  409.4364
  51  420.6777
  52  368.6644
  53  309.5255
  54  382.8295
  55  529.0851
  56  431.2949
  57  382.2713
  58  365.604
  59  371.2257
  60  406.5765
  61  376.155
  62  380.6555
  63  353.7344
  64  210.1125
  65  231.316
  66  413.2738
  67  441.3306
  68  436.6476
  69  416.2004
  70  439.578
  71  403.6088
  72  438.7608
  73  406.5578
  74  421.8059
  75  475.7868
  76  430.6583
  77  380.7644
  78  377.3238
  79  379.0752
  80  419.4523
  81  451.8913
  82  365.6197
  83  344.4448
  84  441.8489
  85  491.2889
  86  374.0267
  87  449.2367
  88  383.9115
  89  367.6566
  90  380.4211
  91  396.239
  92  398.0127
  93  382.7204
  94  327.2034
  95  452.1866
  96  325.705
  97  272.6499
  98  312.4214
  99  338.3539
 100  281.5545
 101  325.0716
 102  334.6786
 103  274.8447
 104  477.1309
 105  508.5031
 106  483.0925
 107  364.1443
 108  389.1284
 109  351.8445
 110  459.785
 111  472.8107
 112  352.8254
 113  341.3933
 114  256.7344
 115  287.6897
 116  465.9295
 117  443.4237
 118  298.6646
 119  309.136
 120  368.8008
 121  328.8135
 122  421.2161
 123  398.8057
 124  391.4385
 125  359.1617
 126  470.6755
 127  456.4888
 128  368.0237
 129  344.6537
 130  399.0186
 131  434.1653
 132  461.0835
 133  439.7053
 134  460.4636
 135  437.0172
 136  331.179
 137  402.7859
 138  468.128
 139  395.9241
 140  337.6877
 141  325.6766
 142  341.6338
 143  374.443
 144  386.7019
 145  320.7212
 146  419.2437
 147  408.2837
 148  437.1503
 149  462.0004
 150  369.7297
 151  346.0984
 152  430.7637
 153  561.874
 154  414.8872
 155  391.9928
 156  454.2733
 157  394.7946
 158  394.1331
 159  419.8557
 160  457.5542
 161  372.269
 162  385.3532
 163  522.6434
 164  521.8625
 165  435.1979
 166  535.4861
 167  415.7096
 168  434.2484
 169  403.8853
 170  344.5075
 171  435.1526
 172  408.8339
 173  435.3324
 174  478.6833
 175  442.1778
 176  439.4835
 177  438.7197
 178  437.4417
 179  405.29
 180  523.9604
 181  527.8972
 182  437.9653
 183  296.7262
 184  449.5087
 185  476.7366
 186  426.1595
 187  539.9587
 188  493.3112
 189  427.1162
 190  358.9883
 191  455.237
 192  405.702
 193  325.008
 194  401.0863
 195  283.1935
 196  240.1107
 197  456.9153
 198  471.8984
 199  353.8804
 200  342.2091
 201  476.8807
 202  436.7604
 203  376.2207
 204  460.7896
 205  433.8206
 206  404.6023
 207  305.0406
 208  368.1346
 209  406.9681
 210  440.5258
 211  323.5684
 212  342.9688
 213  394.6099
 214  485.7013
 215  427.2463
 216  488.5063
 217  376.6201
 218  294.3754
 219  415.6776
 220  423.9185
 221  465.6108
 222  351.6454
 223  215.7745
 224  353.5408
 225  433.7406
 226  456.5023
 227  363.2256
 228  338.876
 229  439.1475
 230  519.6421
 231  385.4353
 232  363.2475
 233  430.4333
 234  441.9625
 235  299.4268
 236  300.4319
 237  363.0916
 238  407.9339
 239  433.9697
 240  376.4132
 241  448.1133
 242  440.4331
 243  418.0184
 244  378.5642
 245  297.7614
 246  381.0588
 247  382.5368
 248  454.5833
 249  425.5988
 250  436.2387
 251  597.6046
 252  529.8683
 253  464.4818
 254  541.0494
 255  485.3488
 256  333.3836
 257  317.6304
 258  253.7577
 259  387.8885
 260  440.7418
 261  507.3881
 262  492.6412
 263  424.3229
 264  479.6031
 265  476.3597
 266  463.7578
 267  528.6791
 268  445.1775
 269  355.3805
 270  320.9726
 271  347.9622
 272  366.1709
 273  426.0058
 274  475.2398
 275  524.3597
 276  510.897
 277  281.6065
 278  234.7401
 279  455.4215
 280  464.849
 281  469.4539
 282  382.2489
 283  333.8696
 284  389.2739
 285  413.123
 286  552.9205
 287  485.472
 288  497.3226
 289  488.4179
 290  521.2556
 291  544.0792
 292  359.4184
 293  270.5555
 294  268.5929
 295  356.0071
 296  302.4114
 297  445.0075
 298  542.4526
 299  440.3589
 300  422.1483
 301  333.8996
 302  367.4206
 303  503.6223
 304  366.9505
 305  345.1995
 306  318.4323
 307  329.8314
 308  478.0884
 309  490.4899
 310  391.5712
 311  379.4815
 312  316.9271
 313  375.3728
 314  378.3485
 315  328.8389
 316  491.9359
 317  387.2882
 318  365.9552
 319  439.6477
 320  475.2157
 321  368.9963
 322  457.1983
 323  470.4793
 324  329.3417
 325  383.4338
 326  330.9087
 327  255.3234
 328  309.3932
 329  448.5095
 330  384.1377
 331  287.0324
 332  322.4245
 333  430.7931
 334  292.701
 335  307.0353
 336  351.7289
 337  397.9647
 338  505.8031
 339  494.5099
 340  395.8261
 341  387.722
 342  423.9678
 343  447.3965
 344  476.2008
 345  496.3812
 346  421.0814
 347  421.8445
 348  506.5192
 349  417.8938
 350  475.9942
 351  434.9261
 352  540.6038
 353  583.229
 354  455.6327
 355  393.4057
 356  387.4743
 357  445.3816
 358  451.9492
 359  386.2448
 360  571.2231
 361  549.0941
 362  400.8864
 363  438.14
 364  508.1402
 365  514.1689
 366  514.9746
 367  540.9633
 368  511.3073
 369  431.4522
 370  356.0537
 371  337.7939
 372  416.013
 373  362.9404
 374  355.9752
 375  386.7209
 376  353.0564
 377  359.7139
 378  346.9724
 379  365.5804
 380  480.618
 381  415.4558
 382  310.3802
 383  433.7246
 384  489.8904
 385  480.4304
 386  470.4112
 387  414.3456
 388  364.5434
 389  417.0168
 390  521.1922
 391  488.0246
 392  428.1944
 393  381.3973
 394  539.936
 395  508.6095
 396  504.7797
 397  619.8606
 398  603.5231
 399  409.8723
 400  342.5381
 401  463.7947
 402  530.1814
 403  512.9705
 404  517.0311
 405  476.5128
 406  528.13
 407  595.5711
 408  519.4645
 409  423.3847
 410  363.4722
 411  441.2293
 412  528.2729
 413  473.8208
 414  342.3105
 415  310.6883
 416  464.3659
 417  465.7077
 418  363.7986
 419  367.3672
 420  482.5725
 421  475.3192
 422  399.486
 423  413.7568
 424  413.0001
 425  383.1218
 426  327.6128
 427  275.4738
 428  341.2932
 429  436.9698
 430  460.4478
 431  358.0403
 432  373.0536
 433  430.3297
 434  386.4878
 435  429.579
 436  430.7668
 437  487.4753
 438  415.3246
 439  391.7863
 440  402.5697
 441  489.2769
 442  499.0168
 443  466.1241
 444  488.4451
 445  519.1268
 446  368.7047
 447  311.5699
 448  430.2286
 449  495.4227
 450  418.3231
 451  363.9095
 452  359.0804
 453  317.7714
 454  350.3956
 455  374.6295
 456  389.4387
 457  434.6808
 458  475.2423
 459  380.2722
 460  373.5899
 461  341.3391
 462  362.332
 463  367.6761
 464  429.7864
 465  399.2813
 466  385.665
 467  401.5417
 468  346.5945
 469  327.353
 470  376.0223
 471  471.6645
 472  520.358
 473  488.0422
 474  416.4823
 475  293.3333
 476  426.8532
 477  398.4391
 478  372.6982
 479  347.8471
 480  400.6558
 481  477.7433
 482  438.5188
 483  415.6425
 484  424.7532
 485  501.3508
 486  540.5031
 487  598.3876
 488  575.0157
 489  412.7007
 490  403.4762
 491  385.6867
 492  320.414
 493  418.1137
 494  443.5572
 495  459.0647
 496  428.1433
 497  314.5266
 498  317.3712
 499  379.8855
 500  492.812
 501  438.3663
 502  387.3888
 503  407.1418
 504  489.9604
 505  451.7054
 506  608.9068
 507  546.4142
 508  531.735
 509  645.4464
 510  748.2711
 511  796.3574
