# Input file       =  1198518415.115674-PSRB0329-2ms-sampling-dd.dat
# Candidate        =  PSR_0332+5434
# Telescope        =  AR
# Epoch_topo       =  58115.741135598080
# Epoch_bary       =  N/A
# T_sample         =  0.002
# Data Folded      =  7340032
# Data Avg         =  -1.18705094430926e-09
# Data StdDev      =  25.305075114269  
# Profile Bins     =  512
# Profile Avg      =  -0.138742498489708
# Profile StdDev   =  3029.85347917357 
# Reduced chi-sqr  =  1.265
# Prob(Noise)      <  4.12e-05   (~3.9 sigma)
# P_topo (ms)      =  714.552952846422  +/- 0.000288
# P'_topo (s/s)    =  -0                +/- 1.52e-10
# P''_topo (s/s^2) =  0                 +/- 6.7e-14
# P_bary (ms)      =  N/A
# P'_bary (s/s)    =  N/A
# P''_bary (s/s^2) =  N/A
# P_orb (s)        =  N/A
# asin(i)/c (s)    =  N/A
# eccentricity     =  N/A
# w (rad)          =  N/A
# T_peri           =  N/A
######################################################
   0  -904.5817
   1  -232.4906
   2  -430.2974
   3  -355.1015
   4  -127.8465
   5  423.8734
   6  1314.195
   7  1336.321
   8  1689.932
   9  716.2793
  10  -506.3558
  11  -1240.863
  12  -540.5391
  13  -425.552
  14  96.19576
  15  -392.9406
  16  -1670.949
  17  -1666.801
  18  -1632.029
  19  -1165.197
  20  -1288.506
  21  -1504.733
  22  -1911.843
  23  -1898.724
  24  -1648.24
  25  -387.6673
  26  -287.5565
  27  42.48841
  28  771.4333
  29  2553.358
  30  3904.192
  31  4775.156
  32  7289.472
  33  6581.846
  34  5043.806
  35  10731.81
  36  10964.41
  37  10843.57
  38  10855.25
  39  6072.098
  40  2756.095
  41  -1797.859
  42  -897.4233
  43  -688.676
  44  -1081.653
  45  -769.3844
  46  -876.5447
  47  -1047.318
  48  -741.1685
  49  -508.5558
  50  -385.2945
  51  -637.4473
  52  -1467.67
  53  -1270.072
  54  -1043.21
  55  -773.8234
  56  205.8795
  57  100.0754
  58  -625.6336
  59  -1503.864
  60  -2048.488
  61  -1883.586
  62  -2118.661
  63  -2100.247
  64  -80.04485
  65  545.9496
  66  1494.138
  67  1795.057
  68  1145.798
  69  -351.8155
  70  -1363.077
  71  855.8005
  72  3134.092
  73  3574.547
  74  2756.755
  75  1810.895
  76  -818.8856
  77  -1226.81
  78  -1938.045
  79  -2026.682
  80  -1937.144
  81  -2256.504
  82  -1716.822
  83  -1452.721
  84  -1435.676
  85  -1270.392
  86  -1649.238
  87  -2048.474
  88  -2537.489
  89  -2360.588
  90  -1831.996
  91  -1977.755
  92  -2135.395
  93  -2039.228
  94  -2142.317
  95  -2431.691
  96  -2714.519
  97  -2246.069
  98  -1730.761
  99  -1224.526
 100  -1377.816
 101  -1396.663
 102  -1906.696
 103  -2159.804
 104  -2130.073
 105  -2274.175
 106  -2495
 107  -1870.038
 108  -1679.235
 109  -1265.481
 110  -130.5369
 111  -413.2425
 112  -472.802
 113  159.108
 114  2079.951
 115  2768.565
 116  3467.612
 117  3609.375
 118  1902.422
 119  554.9099
 120  1059.438
 121  135.1373
 122  -340.426
 123  -1026.672
 124  -1132.348
 125  -1573.66
 126  -1646.222
 127  -1374.942
 128  -1161.944
 129  -987.2348
 130  -1295.662
 131  -729.9007
 132  -361.5844
 133  -584.7228
 134  -893.515
 135  -775.738
 136  -1029.332
 137  -1824.336
 138  -921.3765
 139  -488.7328
 140  -369.9831
 141  158.77
 142  -197.3937
 143  -810.286
 144  -1811.908
 145  -2184.144
 146  -2088.307
 147  -2146.316
 148  -1714.525
 149  -1978.481
 150  -2216.547
 151  -1790.892
 152  -980.6263
 153  -920.36
 154  -936.0677
 155  -1278.245
 156  -1464.506
 157  -908.6202
 158  -205.6555
 159  -101.7199
 160  -135.8463
 161  -979.3502
 162  -1230.577
 163  -2211.108
 164  -2095.109
 165  -1913.273
 166  -2286.071
 167  -2147.974
 168  -1941.947
 169  -1933.82
 170  -2146.508
 171  -1923.292
 172  -1742.006
 173  -967.6642
 174  -1018.475
 175  -768.4531
 176  -469.5203
 177  -1151.152
 178  -954.0503
 179  -667.9953
 180  -392.1918
 181  -223.8209
 182  216.3172
 183  4.777251
 184  78.02979
 185  361.891
 186  355.4234
 187  -512.1898
 188  -873.1342
 189  -1067.84
 190  -1296.505
 191  -1264.158
 192  -1035.62
 193  -690.9141
 194  -536.2048
 195  -588.6497
 196  -691.3087
 197  -635.1906
 198  -232.3699
 199  49.3232
 200  558.8088
 201  -107.2362
 202  -627.3183
 203  -259.9807
 204  -472.4645
 205  -1199.823
 206  -1462.156
 207  -1178.393
 208  -825.6624
 209  -799.7657
 210  -338.3543
 211  387.9139
 212  537.5174
 213  394.5959
 214  -540.4199
 215  -45.96975
 216  -231.7818
 217  -358.1602
 218  -86.36803
 219  -482.5951
 220  -1178.029
 221  -1507.208
 222  -1543.279
 223  -1677.75
 224  -1827.475
 225  -1411.588
 226  -1270.479
 227  -1330.897
 228  -1239.878
 229  -1005.131
 230  -688.7986
 231  17.43212
 232  973.5198
 233  786.6075
 234  369.4811
 235  552.5067
 236  1710.191
 237  1897.868
 238  3935.015
 239  4659.38
 240  3468.899
 241  2789.644
 242  2864.727
 243  1646.582
 244  5505.839
 245  11742.79
 246  16701.71
 247  14116.66
 248  10653.26
 249  6968.936
 250  3391.036
 251  2749.474
 252  6458.756
 253  6992.469
 254  7753.401
 255  7153.221
 256  6484.912
 257  4826.831
 258  3146.869
 259  1553.198
 260  -95.30747
 261  -81.508
 262  771.2339
 263  1474.877
 264  2075.546
 265  2822.375
 266  2032.809
 267  938.7617
 268  -323.1125
 269  -686.4364
 270  -683.8477
 271  -660.9755
 272  -1000.421
 273  -939.3539
 274  -929.4477
 275  -858.8756
 276  -950.1526
 277  -937.6223
 278  -391.1139
 279  605.1516
 280  1266.309
 281  1413.69
 282  1672.033
 283  1427.774
 284  610.529
 285  67.17725
 286  504.4486
 287  1644.478
 288  1669.208
 289  1609.689
 290  2700.625
 291  1940.352
 292  1651.007
 293  1281.215
 294  1578.414
 295  2127.907
 296  3741.741
 297  3156.992
 298  2517.36
 299  -347.5901
 300  -626.2259
 301  -870.3671
 302  -1146.029
 303  -1041.244
 304  -1520.721
 305  -1186.184
 306  -546.9503
 307  105.6282
 308  434.0787
 309  435.6446
 310  -763.7968
 311  -420.5973
 312  179.0196
 313  1128.978
 314  1164.28
 315  910.8637
 316  116.2356
 317  -284.1934
 318  -673.8673
 319  -368.7109
 320  -265.0485
 321  -1214.267
 322  -1694.719
 323  -1364.573
 324  -470.574
 325  1024.979
 326  3929.643
 327  3142.386
 328  2303.018
 329  189.3676
 330  -870.5111
 331  -975.9056
 332  -554.246
 333  -248.7145
 334  -144.1467
 335  -323.6788
 336  -1170.694
 337  -1567.092
 338  -1684.088
 339  -2235.948
 340  -2272.837
 341  -1717.722
 342  -1647.629
 343  -1432.608
 344  -1390.116
 345  -1434.223
 346  -1963.321
 347  -1660.239
 348  -1668.351
 349  -1674.214
 350  -1710.077
 351  -1802.208
 352  -1522.749
 353  -1666.552
 354  -1666.221
 355  -1658.148
 356  -1765.051
 357  -1603.018
 358  -1440.048
 359  -990.8471
 360  721.1925
 361  1124.963
 362  1218.861
 363  1207.385
 364  -1218.59
 365  -756.2562
 366  -84.19006
 367  1848.539
 368  2734.519
 369  3318.698
 370  3200.304
 371  1587.242
 372  129.8138
 373  59.33567
 374  -1612.079
 375  -1172.226
 376  -868.0818
 377  -1282.897
 378  -1461.061
 379  -1305.516
 380  -1459.91
 381  -1298.788
 382  -1074.242
 383  -951.2467
 384  -579.5221
 385  327.6035
 386  551.1696
 387  370.3474
 388  125.3287
 389  -385.8212
 390  -917.771
 391  -46.84334
 392  1485.295
 393  2774.206
 394  3454.088
 395  3178.553
 396  506.6034
 397  -279.8103
 398  -135.1863
 399  -333.9433
 400  -42.38543
 401  869.3284
 402  460.7677
 403  -694.3622
 404  -1131.024
 405  -1660.173
 406  -1985.514
 407  -1693.57
 408  -1469.826
 409  -1808.509
 410  -1782.584
 411  -1295.612
 412  -1377.675
 413  -1286.582
 414  -1272.49
 415  -1389.897
 416  -1117.954
 417  -850.4349
 418  369.6615
 419  401.4418
 420  852.2831
 421  2564.109
 422  42.49945
 423  -225.6198
 424  60.41703
 425  6969.236
 426  9081.378
 427  10799.39
 428  10402.46
 429  3273.011
 430  -681.9175
 431  -1027.947
 432  -1026.951
 433  -934.134
 434  -587.9817
 435  -189.7744
 436  -573.2665
 437  -601.0631
 438  -578.4996
 439  499.4929
 440  486.1759
 441  631.5602
 442  271.7623
 443  276.942
 444  -185.5837
 445  -536.3667
 446  -808.5083
 447  -1076.374
 448  -644.1042
 449  -686.0837
 450  -1076.108
 451  -1587.51
 452  -1520.8
 453  -938.2152
 454  -678.7214
 455  41.41039
 456  -198.8402
 457  -801.542
 458  -671.1505
 459  -1016.979
 460  -1260.841
 461  -1800.977
 462  -1714.664
 463  -1705.597
 464  -1765.526
 465  -1645.315
 466  -1673.334
 467  -1902.844
 468  -1492.905
 469  -1913.143
 470  -2141.216
 471  -2031.442
 472  -1772.202
 473  -1717.448
 474  -1577.814
 475  -1515.572
 476  -1141.858
 477  -1185.467
 478  -1629.974
 479  -1254.211
 480  223.2726
 481  -254.3586
 482  -661.8854
 483  -800.0452
 484  -41.74224
 485  800.501
 486  1853.618
 487  1612.541
 488  524.4131
 489  -1857.671
 490  -1725.793
 491  -1850.397
 492  -2169.515
 493  -1901.841
 494  -1983.135
 495  -1876.379
 496  -1865.821
 497  -2031.132
 498  -1917.532
 499  -1813.467
 500  -1271.029
 501  -1135.872
 502  -1407.41
 503  -1417.559
 504  -1279.085
 505  -1377.204
 506  -1588.646
 507  -1245.207
 508  -1293.874
 509  -1018.981
 510  -786.3427
 511  -788.7285
