# Input file       =  1198330917.113058-PSRB0329-2ms-sampling-dd.dat
# Candidate        =  PSR_0332+5434
# Telescope        =  AR
# Epoch_topo       =  58113.571019827061
# Epoch_bary       =  N/A
# T_sample         =  0.002
# Data Folded      =  7208960
# Data Avg         =  8.43123265482701e-10
# Data StdDev      =  75.261380720228  
# Profile Bins     =  512
# Profile Avg      =  0.321394964273352
# Profile StdDev   =  8930.45340534537 
# Reduced chi-sqr  =  0.987
# Prob(Noise)      <  0.572   (~0.0 sigma)
# P_topo (ms)      =  714.550982024145  +/- 0.000421
# P'_topo (s/s)    =  -0                +/- 2.26e-10
# P''_topo (s/s^2) =  0                 +/- 1.02e-13
# P_bary (ms)      =  N/A
# P'_bary (s/s)    =  N/A
# P''_bary (s/s^2) =  N/A
# P_orb (s)        =  N/A
# asin(i)/c (s)    =  N/A
# eccentricity     =  N/A
# w (rad)          =  N/A
# T_peri           =  N/A
######################################################
   0  2049.199
   1  -4385.191
   2  -3917.611
   3  -5454.23
   4  -3056.087
   5  -2785.007
   6  -3144.346
   7  -3375.603
   8  -5967.455
   9  -6398.899
  10  -7159.638
  11  -8321.99
  12  -8788.098
  13  -4941.97
  14  -1619.125
  15  771.296
  16  61.12059
  17  -667.4818
  18  -2629.382
  19  -3815.706
  20  -1143.978
  21  -152.8776
  22  -1110.039
  23  -1912.023
  24  -1663.762
  25  -3354.199
  26  -4317.88
  27  -6039.942
  28  -6264.611
  29  -5004.571
  30  -5783.567
  31  -6599.432
  32  -7039.114
  33  -7065.411
  34  -7472.034
  35  -6764.183
  36  -6292.79
  37  -5946.143
  38  -6122.736
  39  -3504.243
  40  -1799.381
  41  -2497.525
  42  -2838.104
  43  -3921.187
  44  -4136.46
  45  -1574.493
  46  321.6831
  47  349.6624
  48  -1027.166
  49  -4096.235
  50  -6210.644
  51  -5859.416
  52  -2625.149
  53  -3676.313
  54  -1827.967
  55  -3370.603
  56  -4250.313
  57  -4789.968
  58  -3166.485
  59  -2511.839
  60  -2510.45
  61  -1192.271
  62  -3293.828
  63  -4151.958
  64  -5266.333
  65  -3730.817
  66  -4430.532
  67  -2529.939
  68  -1738.768
  69  -3060.417
  70  -3827.24
  71  -4136.5
  72  -4708.207
  73  -3267.615
  74  -4287.312
  75  -3993.702
  76  -3460.836
  77  -3486.773
  78  138.5994
  79  2478.728
  80  2509.561
  81  1413.247
  82  -296.0257
  83  -2283.902
  84  -3906.356
  85  -2811.24
  86  305.0344
  87  1815.928
  88  3807.65
  89  4675.273
  90  9001.317
  91  11235.2
  92  14694.6
  93  16657.78
  94  14665.84
  95  12827.94
  96  8100.859
  97  7062.856
  98  7668.198
  99  12883.84
 100  14330.08
 101  13751.48
 102  11461.62
 103  6662.715
 104  4583.381
 105  1238.22
 106  -575.583
 107  -7089.585
 108  -1948.108
 109  5347.626
 110  8979.409
 111  9236.912
 112  8771.949
 113  1211.914
 114  -2414.349
 115  -2798.139
 116  -1651.442
 117  -532.1579
 118  -284.1087
 119  -1466.795
 120  -3725.727
 121  -3647.073
 122  -5048.054
 123  -6203.267
 124  -2352.298
 125  -1948.467
 126  1611.126
 127  6281.572
 128  5199.146
 129  5732.846
 130  4761.852
 131  -712.9345
 132  -3485.406
 133  -1997.93
 134  5416.871
 135  5183.107
 136  5243.463
 137  6742.022
 138  -2160.227
 139  698.0361
 140  21.98115
 141  -2059.78
 142  -4287.648
 143  -5391.809
 144  -3146.888
 145  -1172.836
 146  -84.10607
 147  -483.5595
 148  -2786.03
 149  -6835.901
 150  -8504.287
 151  -9219.452
 152  -9787.47
 153  -9399.789
 154  -9131.953
 155  -9573.634
 156  -8219.196
 157  -6480.878
 158  -4128.361
 159  -3312.326
 160  -4519.818
 161  -5747.205
 162  -5980.893
 163  -4295.712
 164  -1666.518
 165  -1260.58
 166  -2950.101
 167  -4269.225
 168  -7272.387
 169  -6998.36
 170  -7771.303
 171  -5079.542
 172  -5017.113
 173  -5727.912
 174  -6167.721
 175  -9793.677
 176  -10681.21
 177  -8905.289
 178  -6203.397
 179  -4948.755
 180  -4026.238
 181  -5183.193
 182  -6840.377
 183  -9468.882
 184  -10677.05
 185  -12184.6
 186  -11112.73
 187  -9765.974
 188  -8672.853
 189  -7308.702
 190  -7134.859
 191  -5808.897
 192  -4097.774
 193  -2122.509
 194  -1824.906
 195  -785.3671
 196  -1627.697
 197  -4668.937
 198  -614.0106
 199  946.6451
 200  2756.8
 201  3369.08
 202  2656.21
 203  3197.688
 204  1334.603
 205  2709.43
 206  1714.681
 207  -2527.572
 208  -396.9752
 209  1080.736
 210  1483.165
 211  6519.655
 212  5543.602
 213  2231.569
 214  -1573.514
 215  -5530.252
 216  -6956.609
 217  -7433.151
 218  -5528.3
 219  -4434.991
 220  -4878.674
 221  -6068.085
 222  -6596.647
 223  -7231.785
 224  -6979.839
 225  -5268.111
 226  -4147.484
 227  -2404.617
 228  -2670.588
 229  -5517.085
 230  -5935.329
 231  -7865.427
 232  -3866.009
 233  -2054.199
 234  1250.603
 235  450.2513
 236  -3594.22
 237  -5103.569
 238  -6292.883
 239  -6547.502
 240  -5852.902
 241  -5306.75
 242  -6591.351
 243  -6384.737
 244  -4528.361
 245  -4246.001
 246  -2495.4
 247  -2494.943
 248  -5030.355
 249  -5558.948
 250  -6737.718
 251  -6376.486
 252  1135.337
 253  8750.363
 254  10933.89
 255  11913.06
 256  11170.98
 257  2856.317
 258  6730.381
 259  11832.22
 260  26055.07
 261  36591.85
 262  34755.09
 263  33645.79
 264  19188.26
 265  15289.82
 266  8831.914
 267  10689.12
 268  14530.08
 269  14458.75
 270  12810.82
 271  7085.099
 272  4222.394
 273  -145.6538
 274  2995.03
 275  2384.342
 276  1220.135
 277  1575.45
 278  -1134.27
 279  1045.927
 280  4896.85
 281  5700.034
 282  7168.631
 283  8976.274
 284  5851.487
 285  4344.408
 286  2175.302
 287  1665.997
 288  2204.628
 289  3781.67
 290  7246.177
 291  7139.9
 292  4312.25
 293  1903.524
 294  -1628.879
 295  -5012.333
 296  -7072.696
 297  -6303.504
 298  -5763.706
 299  -5244.455
 300  -5674.308
 301  -6086.295
 302  -5891.79
 303  -4288.194
 304  -3724.357
 305  -5062.756
 306  -3385.551
 307  -1540.059
 308  -89.08595
 309  663.1548
 310  -1317.625
 311  -3756.167
 312  -3021.026
 313  -3118.635
 314  -2059.93
 315  -2718.406
 316  -1685.991
 317  -3132.423
 318  -4677.075
 319  -1494.421
 320  2303.521
 321  5253.311
 322  5995.574
 323  6667.656
 324  -3193.061
 325  -5789.284
 326  -4685.21
 327  4646.474
 328  6050.633
 329  6351.412
 330  5359.174
 331  -4421.558
 332  -6340.696
 333  -5120.228
 334  -5049.278
 335  -2930.338
 336  -2367.322
 337  -3292.76
 338  -2301.91
 339  -1783.261
 340  619.7218
 341  862.1175
 342  874.5521
 343  -692.5988
 344  -1921.192
 345  -3086.811
 346  -4311.52
 347  -5173.438
 348  -2743.879
 349  -752.6973
 350  28.7244
 351  -121.2895
 352  -729.2867
 353  -2048.581
 354  -97.82946
 355  8054.709
 356  12485.67
 357  16998.38
 358  16028.97
 359  13259.21
 360  6280.7
 361  6540.693
 362  11522.13
 363  12452.09
 364  11275.3
 365  12152.51
 366  8763.232
 367  3055.255
 368  -201.2274
 369  -619.3994
 370  -5057.099
 371  -5479.226
 372  -5057.355
 373  -5583.067
 374  -4825.859
 375  -4259.012
 376  -1720.251
 377  -2203.222
 378  -2923.723
 379  -4599.992
 380  -4502.849
 381  2530.689
 382  8278.163
 383  10286.74
 384  9994.024
 385  2057.56
 386  -3494.844
 387  -3654.728
 388  7051.753
 389  10164.35
 390  10923.31
 391  7683.826
 392  261.8112
 393  -1775.829
 394  -916.5848
 395  846.9766
 396  716.8679
 397  286.667
 398  408.5582
 399  -1082.219
 400  471.7623
 401  -1335.153
 402  -1322.765
 403  -553.3463
 404  106.8388
 405  -513.9361
 406  -1793.857
 407  -3218.718
 408  -3725.921
 409  -4312.363
 410  -4586.49
 411  -2802.831
 412  -2152.595
 413  70.63063
 414  27.25152
 415  1258.676
 416  489.8
 417  -1618.982
 418  -3186.95
 419  -5013.413
 420  -3368.756
 421  -3131.291
 422  -60.27184
 423  2001.108
 424  1382.601
 425  -8.813547
 426  -826.466
 427  -3366.287
 428  -1712.998
 429  1065.5
 430  3826.949
 431  6551.978
 432  8325.164
 433  5218.885
 434  2908.114
 435  2344.969
 436  707.5741
 437  804.3013
 438  3416.988
 439  7112.81
 440  7836.627
 441  6513.792
 442  5814.467
 443  5973.641
 444  7439.885
 445  7678.216
 446  9293.96
 447  9656.355
 448  5990.143
 449  13844.02
 450  15471.63
 451  17271.8
 452  16654.2
 453  11878.54
 454  9370.883
 455  7154.816
 456  5488.744
 457  4564.537
 458  4259.306
 459  4594.742
 460  1159.133
 461  -1955.68
 462  -4201.086
 463  -7353.152
 464  -8857.202
 465  -5526.933
 466  -754.9673
 467  1692.089
 468  3084.792
 469  1882.761
 470  -196.7879
 471  -3188.054
 472  -1199.165
 473  1811.456
 474  6266.694
 475  6517.516
 476  7001.729
 477  6530.4
 478  2277.733
 479  5505.173
 480  4740.04
 481  3897.23
 482  1508.647
 483  432.8167
 484  -315.6313
 485  706.7653
 486  3521.837
 487  3399.95
 488  545.0694
 489  -2300.627
 490  -3301.171
 491  -6507.395
 492  -6951.23
 493  -4977.298
 494  -5192.628
 495  -5215.843
 496  -4209.02
 497  -3708.373
 498  -2606.679
 499  -3073.632
 500  -1517.5
 501  -2440.31
 502  -3323.547
 503  -2420.857
 504  -103.7002
 505  1211.806
 506  -36.7339
 507  -305.3073
 508  -613.0368
 509  2734.685
 510  1608.136
 511  3652.34
