# Input file       =  1198618942.110888_cleaned.dat
# Candidate        =  PSR_0332+5434
# Telescope        =  AR
# Epoch_topo       =  58116.904642487127
# Epoch_bary       =  N/A
# T_sample         =  0.002
# Data Folded      =  7340032
# Data Avg         =  0.0333680542950508
# Data StdDev      =  1.00007749202154 
# Profile Bins     =  512
# Profile Avg      =  478.387228394874 
# Profile StdDev   =  119.7423147318   
# Reduced chi-sqr  =  0.838
# Prob(Noise)      <  0.997   (~0.0 sigma)
# P_topo (ms)      =  714.554302883264  +/- 0.000344
# P'_topo (s/s)    =  -0                +/- 1.81e-10
# P''_topo (s/s^2) =  0                 +/- 8e-14
# P_bary (ms)      =  N/A
# P'_bary (s/s)    =  N/A
# P''_bary (s/s^2) =  N/A
# P_orb (s)        =  N/A
# asin(i)/c (s)    =  N/A
# eccentricity     =  N/A
# w (rad)          =  N/A
# T_peri           =  N/A
######################################################
   0  454.8514
   1  424.7418
   2  365.4287
   3  283.1149
   4  437.0715
   5  532.7785
   6  441.8972
   7  431.4531
   8  442.9448
   9  414.9585
  10  390.2057
  11  434.0717
  12  481.976
  13  503.9103
  14  413.2176
  15  532.4963
  16  560.0844
  17  481.5387
  18  346.3701
  19  292.1634
  20  410.6289
  21  414.5283
  22  464.9713
  23  443.7821
  24  483.619
  25  472.2925
  26  392.744
  27  417.5066
  28  445.5117
  29  521.8181
  30  555.5464
  31  463.515
  32  483.8337
  33  560.1216
  34  533.7292
  35  444.36
  36  471.9969
  37  405.0018
  38  445.3204
  39  440.1823
  40  533.0864
  41  478.0787
  42  373.4132
  43  436.427
  44  557.1338
  45  598.2138
  46  575.6791
  47  570.8057
  48  437.132
  49  540.4523
  50  484.4796
  51  501.7892
  52  602.7223
  53  493.3032
  54  464.9338
  55  473.9335
  56  465.0462
  57  411.9772
  58  448.7349
  59  520.7461
  60  505.4376
  61  537.9083
  62  471.6637
  63  517.1759
  64  432.4463
  65  359.1031
  66  427.3197
  67  522.9086
  68  508.18
  69  517.6703
  70  466.993
  71  531.0498
  72  445.0661
  73  465.473
  74  500.5669
  75  510.6513
  76  490.4134
  77  462.5635
  78  543.1122
  79  510.321
  80  579.9831
  81  522.7047
  82  480.875
  83  513.0549
  84  532.1895
  85  525.7899
  86  531.5014
  87  487.4364
  88  517.1885
  89  407.269
  90  506.8078
  91  572.5477
  92  518.061
  93  550.5616
  94  471.5884
  95  437.724
  96  417.8241
  97  592.7121
  98  577.4941
  99  533.8417
 100  608.5208
 101  598.4709
 102  546.7818
 103  573.5902
 104  542.6964
 105  438.6791
 106  582.0857
 107  588.62
 108  644.376
 109  615.8728
 110  568.2758
 111  576.8486
 112  525.0505
 113  438.0711
 114  431.7733
 115  409.8244
 116  531.108
 117  543.5832
 118  479.1788
 119  437.2992
 120  510.9472
 121  535.2635
 122  379.1867
 123  541.1026
 124  622.8546
 125  583.0178
 126  582.9799
 127  619.9884
 128  475.2276
 129  327.7697
 130  503.7549
 131  485.0536
 132  437.0618
 133  422.2607
 134  501.933
 135  593.953
 136  493.7998
 137  437.4974
 138  564.4676
 139  533.2933
 140  426.2896
 141  499.2797
 142  500.4149
 143  524.6588
 144  433.8459
 145  486.6548
 146  491.8874
 147  476.6719
 148  507.036
 149  576.807
 150  498.8843
 151  502.7732
 152  470.4574
 153  512.4088
 154  503.9912
 155  404.686
 156  382.9549
 157  465.2846
 158  458.2992
 159  393.399
 160  524.977
 161  526.0405
 162  359.8919
 163  484.1854
 164  545.7972
 165  524.239
 166  469.8662
 167  478.7063
 168  590.0222
 169  563.2477
 170  430.7065
 171  425.6691
 172  354.8388
 173  413.0253
 174  414.5908
 175  422.3988
 176  363.0271
 177  450.5992
 178  536.6819
 179  537.2441
 180  490.6664
 181  553.077
 182  576.2753
 183  552.0535
 184  452.5445
 185  428.1763
 186  552.7529
 187  563.5108
 188  397.3843
 189  387.6891
 190  445.6979
 191  427.4264
 192  436.0869
 193  437.1455
 194  455.2549
 195  418.1331
 196  486.8234
 197  532.2837
 198  465.6013
 199  533.5931
 200  511.9684
 201  542.019
 202  583.2488
 203  630.9668
 204  521.5796
 205  447.0931
 206  425.8427
 207  440.7932
 208  378.3849
 209  422.7832
 210  304.6637
 211  297.093
 212  475.6414
 213  566.657
 214  576.2635
 215  505.9814
 216  385.3022
 217  358.2974
 218  302.7289
 219  351.8486
 220  390.5835
 221  357.7771
 222  380.4891
 223  418.3078
 224  473.898
 225  463.8622
 226  505.15
 227  417.6216
 228  480.642
 229  491.0895
 230  548.5153
 231  629.6144
 232  555.6263
 233  475.8551
 234  344.8663
 235  428.3248
 236  516.6243
 237  453.9172
 238  354.4049
 239  444.6257
 240  443.6995
 241  455.8928
 242  506.2035
 243  522.3882
 244  563.3894
 245  541.9998
 246  523.8591
 247  538.227
 248  438.8055
 249  521.6653
 250  492.3848
 251  518.7931
 252  491.6967
 253  381.0207
 254  421.2893
 255  390.9268
 256  491.6932
 257  489.8407
 258  557.5135
 259  555.0023
 260  562.7139
 261  518.2331
 262  550.9089
 263  639.5316
 264  694.4246
 265  837.4509
 266  750.2643
 267  789.431
 268  838.3439
 269  704.1216
 270  635.7325
 271  596.3455
 272  554.6609
 273  477.8211
 274  518.9642
 275  548.0162
 276  565.3208
 277  466.3584
 278  382.8103
 279  493.7408
 280  559.2075
 281  579.5168
 282  564.1188
 283  502.5031
 284  512.827
 285  343.4822
 286  469.1286
 287  559.7371
 288  499.5196
 289  546.6688
 290  562.174
 291  487.7621
 292  472.6186
 293  546.9863
 294  454.2781
 295  570.2573
 296  577.201
 297  461.0563
 298  464.2041
 299  387.071
 300  386.2511
 301  409.4905
 302  527.4384
 303  516.1208
 304  576.3777
 305  538.6608
 306  512.3635
 307  425.8702
 308  455.2324
 309  551.2364
 310  624.4495
 311  655.3524
 312  516.2673
 313  428.3347
 314  394.5538
 315  460.6219
 316  586.3572
 317  592.5745
 318  404.8344
 319  422.3995
 320  432.7956
 321  343.77
 322  472.7007
 323  471.2747
 324  443.3811
 325  519.5577
 326  477.7115
 327  415.7342
 328  523.3603
 329  503.2521
 330  537.434
 331  583.7266
 332  627.7525
 333  488.6236
 334  486.4916
 335  450.6455
 336  550.7411
 337  512.3381
 338  432.3474
 339  380.703
 340  354.159
 341  461.8228
 342  511.6209
 343  437.9296
 344  556.3378
 345  474.5636
 346  487.237
 347  448.2096
 348  471.4435
 349  411.0153
 350  377.3825
 351  392.13
 352  410.3412
 353  486.5846
 354  412.4112
 355  386.1959
 356  483.1225
 357  491.46
 358  553.1664
 359  446.4505
 360  487.7085
 361  534.8414
 362  434.4928
 363  433.7943
 364  514.4553
 365  493.9147
 366  392.5129
 367  400.6867
 368  490.9453
 369  467.269
 370  391.1899
 371  334.7743
 372  313.5713
 373  439.7438
 374  538.8619
 375  468.2547
 376  483.6942
 377  447.2503
 378  414.7368
 379  317.9429
 380  304.314
 381  373.6242
 382  378.4769
 383  339.3115
 384  371.2043
 385  398.5962
 386  459.954
 387  418.2353
 388  445.3318
 389  561.6516
 390  679.4716
 391  541.5164
 392  521.4224
 393  527.2161
 394  458.3945
 395  503.5343
 396  545.1089
 397  513.4249
 398  478.1997
 399  452.3059
 400  483.596
 401  600.5196
 402  571.3225
 403  579.3683
 404  418.3107
 405  478.9413
 406  480.7257
 407  482.0165
 408  575.2506
 409  533.8976
 410  597.78
 411  640.0104
 412  503.6761
 413  405.0952
 414  372.1572
 415  419.9933
 416  380.1758
 417  505.9319
 418  568.5829
 419  471.312
 420  351.7395
 421  391.6915
 422  434.6995
 423  389.5789
 424  252.3288
 425  475.5867
 426  470.5956
 427  506.1966
 428  326.1059
 429  429.3319
 430  442.4174
 431  425.3031
 432  477.766
 433  472.9766
 434  453.8138
 435  410.6062
 436  512.9183
 437  543.4342
 438  481.2608
 439  511.6039
 440  470.3629
 441  463.8074
 442  379.1974
 443  569.7576
 444  490.9529
 445  324.429
 446  369.6898
 447  502.9166
 448  546.0119
 449  360.263
 450  388.2361
 451  468.7816
 452  403.272
 453  401.1326
 454  448.2491
 455  442.8729
 456  446.0718
 457  411.5015
 458  371.5268
 459  379.5358
 460  425.454
 461  266.0582
 462  264.5729
 463  307.6683
 464  298.3755
 465  412.8367
 466  399.4142
 467  443.2668
 468  486.6244
 469  448.598
 470  447.5279
 471  465.1503
 472  409.7697
 473  443.4725
 474  477.7832
 475  430.4016
 476  532.358
 477  511.3893
 478  403.4893
 479  427.9371
 480  387.151
 481  376.5345
 482  365.7963
 483  445.821
 484  482.8263
 485  546.0224
 486  474.0449
 487  455.5117
 488  412.1524
 489  510.6325
 490  445.8257
 491  473.0877
 492  453.222
 493  432.7241
 494  485.2197
 495  315.6394
 496  373.6889
 497  493.3017
 498  458.6338
 499  487.9299
 500  444.3919
 501  473.4616
 502  566.5528
 503  516.0441
 504  445.7725
 505  477.814
 506  590.5804
 507  461.2263
 508  462.9891
 509  515.7899
 510  527.0037
 511  525.8422
