# Input file       =  1198705058.107936_cleaned.dat
# Candidate        =  PSR_0332+5434
# Telescope        =  AR
# Epoch_topo       =  58117.901355415925
# Epoch_bary       =  N/A
# T_sample         =  0.002
# Data Folded      =  7340032
# Data Avg         =  0.175804962739806
# Data StdDev      =  5.22691976735487 
# Profile Bins     =  512
# Profile Avg      =  2520.3904023676  
# Profile StdDev   =  625.834974643139 
# Reduced chi-sqr  =  0.491
# Prob(Noise)      <  1   (~0.0 sigma)
# P_topo (ms)      =  714.55516419376   +/- 0.00145
# P'_topo (s/s)    =  -0                +/- 7.64e-10
# P''_topo (s/s^2) =  0                 +/- 3.37e-13
# P_bary (ms)      =  N/A
# P'_bary (s/s)    =  N/A
# P''_bary (s/s^2) =  N/A
# P_orb (s)        =  N/A
# asin(i)/c (s)    =  N/A
# eccentricity     =  N/A
# w (rad)          =  N/A
# T_peri           =  N/A
######################################################
   0  2713.456
   1  2728.996
   2  2249.961
   3  2354.972
   4  2468.591
   5  2750.234
   6  2861.205
   7  2866.14
   8  2737.038
   9  2740.496
  10  2346.126
  11  2483.544
  12  2840.056
  13  2913.189
  14  2846.463
  15  2434.577
  16  2561.136
  17  2516.378
  18  2204.79
  19  2692.129
  20  2955.707
  21  2718.474
  22  2894.739
  23  2931.439
  24  2984.675
  25  3009.272
  26  3247.341
  27  2998.572
  28  3016.357
  29  3160.063
  30  2880.859
  31  2698.077
  32  3017.356
  33  3397.65
  34  3155.944
  35  2831.383
  36  2476.883
  37  2672.619
  38  2871.579
  39  3058.108
  40  3080.097
  41  2934.384
  42  3069.794
  43  2672.236
  44  2342.76
  45  2678.438
  46  2649.432
  47  2704.468
  48  3016.435
  49  3124.237
  50  2900.026
  51  2482.398
  52  2655.458
  53  2669.215
  54  2896.987
  55  2900.062
  56  2345.404
  57  2579.989
  58  2493.801
  59  2458.025
  60  2337.37
  61  2318.863
  62  2239.895
  63  2266.413
  64  2724.438
  65  2551.155
  66  2115.542
  67  2733.785
  68  2698.622
  69  2226.503
  70  2205.422
  71  2330.775
  72  2566.233
  73  2776.784
  74  2683.907
  75  2373.288
  76  2184.8
  77  2538.061
  78  2814.25
  79  2617.507
  80  2442.962
  81  2206.055
  82  2349.499
  83  2926.107
  84  2553.669
  85  2138.448
  86  2505.289
  87  2338.349
  88  2624.119
  89  2429.974
  90  2221.44
  91  2283.307
  92  2383.463
  93  2191.318
  94  2146.534
  95  2435.271
  96  2047.504
  97  2253.949
  98  2728.699
  99  3196.586
 100  2883.982
 101  2610.379
 102  2753.027
 103  2996.177
 104  3101.652
 105  2860.321
 106  2744.934
 107  2835.585
 108  2699.316
 109  2176.423
 110  2359.692
 111  2372.796
 112  2610.949
 113  2561.48
 114  2209.737
 115  2301.53
 116  2191.515
 117  1918.143
 118  2255.82
 119  2467.862
 120  2468.639
 121  2459.694
 122  2780.676
 123  3019.614
 124  2917.176
 125  2642.118
 126  2303.313
 127  2510.293
 128  2560.105
 129  2436.925
 130  2536.345
 131  2570.04
 132  3178.189
 133  2903.355
 134  2508.853
 135  2601.821
 136  2700.783
 137  2873.704
 138  2923.417
 139  2868.469
 140  2801.531
 141  2527.399
 142  3016.594
 143  2955.919
 144  2537.167
 145  2467.832
 146  2651.532
 147  2750.681
 148  3026.258
 149  2998.402
 150  2744.467
 151  2436.821
 152  2576.16
 153  2539.469
 154  2681.015
 155  2863.143
 156  3087.635
 157  2935.771
 158  2559.948
 159  2531.085
 160  2494.502
 161  2150.07
 162  2356.652
 163  2197.129
 164  2485.706
 165  2640.653
 166  2805.644
 167  2502.926
 168  2616.934
 169  2612.258
 170  2412.784
 171  2532.383
 172  2591.971
 173  2497.138
 174  2915.268
 175  2590.542
 176  2194.094
 177  2259.633
 178  2323.245
 179  2631.709
 180  2888.099
 181  3055.334
 182  2604.867
 183  2389.463
 184  2330.387
 185  2051.769
 186  2151.979
 187  2379.717
 188  2545.148
 189  2468.395
 190  2397.468
 191  2098.046
 192  1984.261
 193  2005.349
 194  2369.864
 195  2541.296
 196  2428.47
 197  2622.594
 198  2479.69
 199  2538.546
 200  2449.552
 201  2395.304
 202  2246.177
 203  2504.491
 204  2496.094
 205  2534.884
 206  2373.542
 207  2068.091
 208  2052.223
 209  2358.164
 210  2704.627
 211  2409.895
 212  2673.525
 213  2637.486
 214  2389.712
 215  2384.663
 216  2517.919
 217  2383.288
 218  2365.408
 219  2760.698
 220  2708.479
 221  2459.079
 222  2724.494
 223  2853.549
 224  2892.966
 225  2281.431
 226  2477.972
 227  2876.124
 228  2563.319
 229  2372.798
 230  2651.162
 231  2846.442
 232  2806.184
 233  2890.024
 234  2830.721
 235  2607.196
 236  2455.641
 237  2833.341
 238  2971.959
 239  3005.368
 240  2770.675
 241  2812.889
 242  2642.676
 243  2470.669
 244  2778.705
 245  2911.24
 246  2990.946
 247  3171.034
 248  2920.01
 249  2959.594
 250  2812.052
 251  2628.029
 252  2406.995
 253  2887.448
 254  2985.249
 255  3195.217
 256  3106.58
 257  2875.691
 258  2791.886
 259  3138.491
 260  3312.16
 261  3509.449
 262  3362.225
 263  3131.66
 264  2810.471
 265  2214.98
 266  2482.893
 267  2784.166
 268  2617.479
 269  2841.242
 270  2631.472
 271  2775.365
 272  2657.372
 273  2814.895
 274  2416.522
 275  2268.658
 276  2397.835
 277  2337.385
 278  2406.451
 279  2534.812
 280  2706.154
 281  2505.92
 282  1973.197
 283  2175.694
 284  2400.158
 285  2900.491
 286  2639.918
 287  2043.791
 288  2371.187
 289  2709.343
 290  2359.747
 291  2220.235
 292  2322.689
 293  2485.942
 294  2721.15
 295  2642.679
 296  2457.941
 297  2254.586
 298  2553.919
 299  2752.669
 300  2542.084
 301  2292.933
 302  2672.492
 303  2346.093
 304  2472.188
 305  2646.632
 306  2226.893
 307  2365.496
 308  2508.98
 309  2110.672
 310  2217.614
 311  2339.913
 312  2567.35
 313  2381.169
 314  2063.867
 315  2586.93
 316  2587.986
 317  2186.153
 318  2213.408
 319  2478.226
 320  2617.827
 321  2343.14
 322  2270.92
 323  1781.628
 324  1948.901
 325  2070.632
 326  2281.075
 327  2219.826
 328  2239.915
 329  2549.946
 330  2564.085
 331  2462.673
 332  2624.367
 333  2592.232
 334  2719.669
 335  2921.362
 336  2798.563
 337  2821.788
 338  2882.63
 339  2687.049
 340  2578.678
 341  2386.818
 342  2445.192
 343  2778.284
 344  2700.473
 345  2560.907
 346  2413.93
 347  2303.666
 348  2128.129
 349  2133.33
 350  2217.642
 351  1848.448
 352  1825.068
 353  2352.229
 354  2433.693
 355  2079.77
 356  1778.978
 357  2066.877
 358  2327.112
 359  2539.456
 360  2620.948
 361  2341.307
 362  2231.462
 363  2467.776
 364  2694.461
 365  2508.672
 366  2634.42
 367  2594.666
 368  2339.831
 369  1969.185
 370  1762.862
 371  2149.076
 372  2397.494
 373  2358.667
 374  2147.48
 375  2400.573
 376  2047.837
 377  1884.441
 378  1838.57
 379  2053.04
 380  2056.338
 381  1945.548
 382  2232.585
 383  2251.51
 384  2171.022
 385  1716.236
 386  1764.62
 387  2098.135
 388  2190.492
 389  2145.323
 390  2164.108
 391  2013.936
 392  1726.372
 393  1989.872
 394  1750.401
 395  1748.26
 396  2248.277
 397  2317.979
 398  2362.588
 399  2317.525
 400  2376.828
 401  2285.207
 402  2566.711
 403  2929.736
 404  2808.712
 405  2531.232
 406  2655.375
 407  2514.989
 408  2514.974
 409  2756.078
 410  2688.101
 411  2707.429
 412  2488.694
 413  2147.504
 414  1995.812
 415  2051.464
 416  2525.927
 417  2894.18
 418  2845.587
 419  2402.039
 420  2240.837
 421  2559.272
 422  2415.055
 423  2632.029
 424  2926.586
 425  2676.178
 426  2417.79
 427  2393.974
 428  2653.402
 429  2524.574
 430  2673.81
 431  2567.998
 432  2583.892
 433  2714.01
 434  2636.236
 435  2470.516
 436  2117.143
 437  2225.277
 438  2188.492
 439  2382.725
 440  2382.05
 441  2810.361
 442  2743.01
 443  2608.446
 444  2767.85
 445  3114.13
 446  2700.604
 447  2652.992
 448  2492.912
 449  2324.492
 450  2418.413
 451  2432.662
 452  2244.726
 453  1911.935
 454  2054.588
 455  2571.449
 456  2620.828
 457  2476.646
 458  2241.288
 459  2201.087
 460  2081.935
 461  1931.945
 462  1770.244
 463  2095.335
 464  2326.495
 465  2074.393
 466  1967.438
 467  1654.563
 468  1943.178
 469  1811.699
 470  1999.663
 471  2027.84
 472  2577.593
 473  2463.49
 474  2420.363
 475  2318.36
 476  2381.642
 477  2797.191
 478  2502.747
 479  2420.966
 480  2156.135
 481  2327.679
 482  2773.087
 483  2765.539
 484  2709.012
 485  2454.784
 486  2202.19
 487  2069.136
 488  2161.562
 489  2495.441
 490  2906.036
 491  2837.695
 492  2653.674
 493  2182.302
 494  1945.859
 495  2321.755
 496  2523.055
 497  2570.566
 498  2969.659
 499  2706.378
 500  2200.012
 501  2425.539
 502  2737.342
 503  2650.494
 504  3020.584
 505  2715.723
 506  2433.019
 507  2524.574
 508  2908.611
 509  2948.196
 510  2811.099
 511  2824.323
