# Input file       =  1198431712.104709_cleaned.dat
# Candidate        =  PSR_0332+5434
# Telescope        =  AR
# Epoch_topo       =  58114.737628526724
# Epoch_bary       =  N/A
# T_sample         =  0.002
# Data Folded      =  7340032
# Data Avg         =  0.15280342645253 
# Data StdDev      =  4.34759447553793 
# Profile Bins     =  512
# Profile Avg      =  2190.56010118208 
# Profile StdDev   =  520.55068749101  
# Reduced chi-sqr  =  0.553
# Prob(Noise)      <  1   (~0.0 sigma)
# P_topo (ms)      =  714.552053561779  +/- 0.000827
# P'_topo (s/s)    =  -0                +/- 4.36e-10
# P''_topo (s/s^2) =  0                 +/- 1.93e-13
# P_bary (ms)      =  N/A
# P'_bary (s/s)    =  N/A
# P''_bary (s/s^2) =  N/A
# P_orb (s)        =  N/A
# asin(i)/c (s)    =  N/A
# eccentricity     =  N/A
# w (rad)          =  N/A
# T_peri           =  N/A
######################################################
   0  2345.775
   1  2429.836
   2  2033.227
   3  2184.743
   4  2140.95
   5  2210.323
   6  1876.181
   7  1838.086
   8  2005.815
   9  2184.742
  10  2052.193
  11  1942.226
  12  2041.123
  13  2307.597
  14  2215.156
  15  2341.875
  16  2176.443
  17  1843.358
  18  2054.743
  19  2215.874
  20  2159.75
  21  2093.622
  22  1681.872
  23  1818.889
  24  2233.76
  25  2071.15
  26  2034.327
  27  1840.57
  28  2166.16
  29  2389.768
  30  2346.383
  31  1944.369
  32  1937.929
  33  2154.115
  34  1854.931
  35  1821.142
  36  2044.086
  37  2205.78
  38  2407.252
  39  2132.019
  40  2112.449
  41  2364.611
  42  2361.067
  43  2207.571
  44  1998.327
  45  2021.885
  46  2078.253
  47  2298.38
  48  2324.234
  49  2222.421
  50  2549.573
  51  2652.024
  52  2261.421
  53  2521.731
  54  2657.399
  55  2254.253
  56  2018.594
  57  1686.401
  58  1968.847
  59  2213.413
  60  2521.613
  61  2534.58
  62  2260.018
  63  2373.758
  64  2457.023
  65  2461.478
  66  2734.635
  67  2638.792
  68  2122.036
  69  2078.838
  70  2107.306
  71  2182.821
  72  2464.133
  73  2563.798
  74  2686.906
  75  2696.414
  76  2271.96
  77  1729.786
  78  2309.137
  79  2525.904
  80  2743.656
  81  2609.164
  82  2279.714
  83  2384.013
  84  2356.449
  85  2473.993
  86  2498.255
  87  2569.675
  88  2645.818
  89  2687.108
  90  2829.933
  91  2315.891
  92  1869.862
  93  1652.634
  94  1917.036
  95  1859.237
  96  2015.443
  97  2329.389
  98  2273.545
  99  2054.66
 100  1898.618
 101  1827.855
 102  2346.144
 103  2098.681
 104  2010.816
 105  2074.221
 106  1879.703
 107  2152.811
 108  2342.706
 109  2089.919
 110  1980.692
 111  1836.353
 112  2118.83
 113  2383.605
 114  2081.609
 115  2378.091
 116  2255.743
 117  1945.191
 118  2007.086
 119  2221.905
 120  2063.063
 121  2256.297
 122  2480.218
 123  2104.006
 124  2049.061
 125  1926.516
 126  1479.976
 127  1590.681
 128  1987.324
 129  2180.828
 130  1856.253
 131  1822.016
 132  2216.386
 133  1769.076
 134  1788.71
 135  1943.99
 136  2121.585
 137  2328.161
 138  2423.892
 139  2303.101
 140  2221.84
 141  2029.278
 142  2171.24
 143  2329.442
 144  2423.693
 145  2323.585
 146  2168.048
 147  2349.147
 148  2022.642
 149  2189.276
 150  2261.843
 151  2350.297
 152  2662.669
 153  2382.287
 154  2131.596
 155  2019.004
 156  2167.989
 157  2292.854
 158  2013.057
 159  2238.695
 160  2634.852
 161  2409.664
 162  2245.987
 163  2414.341
 164  2361.926
 165  2420.585
 166  2581.96
 167  2666.666
 168  2389.355
 169  2116.202
 170  2024.426
 171  2165.786
 172  2204.196
 173  1972.231
 174  2053.698
 175  1945.936
 176  1775.346
 177  1782.999
 178  1895.019
 179  2282.246
 180  2365.68
 181  1833.165
 182  2019.9
 183  2403.365
 184  2404.785
 185  2478.309
 186  2448.086
 187  2246.967
 188  2321.131
 189  2703.55
 190  2618.354
 191  2433.555
 192  2115.141
 193  2565.578
 194  2717.454
 195  2653.357
 196  2875.429
 197  2994.119
 198  2395.043
 199  1905.514
 200  2253.833
 201  2700.327
 202  2566.838
 203  2463.891
 204  2531.633
 205  2514.678
 206  2563.105
 207  2509.268
 208  2138.528
 209  1871.82
 210  2042.917
 211  2379.49
 212  2457.231
 213  2266.804
 214  1881.456
 215  2267.815
 216  2401.946
 217  2042.638
 218  1819.334
 219  2140.199
 220  2282.811
 221  2097.082
 222  2106.667
 223  2159.294
 224  2009.69
 225  1828.883
 226  1654.56
 227  1920.098
 228  2068.931
 229  2163.242
 230  2113.089
 231  1934.353
 232  1933.031
 233  1799.336
 234  2027.266
 235  2221.889
 236  2219.021
 237  2193.908
 238  2263.22
 239  2178.786
 240  2190
 241  2143.447
 242  2091.561
 243  2180.46
 244  2539.02
 245  2343.806
 246  1961.495
 247  2084.683
 248  2341.212
 249  2251.199
 250  1944.249
 251  2032.584
 252  1729.366
 253  1787.453
 254  1977.591
 255  2221.364
 256  2169.034
 257  2375.487
 258  2064.783
 259  1824.88
 260  1856.573
 261  1846.31
 262  2019.719
 263  2252.737
 264  2287.532
 265  2165.976
 266  2222.531
 267  2049.361
 268  1971.724
 269  2215.639
 270  2364.614
 271  2623.516
 272  2522.863
 273  2589.72
 274  2020.421
 275  2298.67
 276  2279.948
 277  2224.005
 278  2173.556
 279  2433.396
 280  2613.847
 281  2402.042
 282  2159.59
 283  2224.521
 284  2419.915
 285  2585.483
 286  2603.092
 287  2756.969
 288  2379.114
 289  2333.493
 290  2229.286
 291  2034.098
 292  2210.486
 293  2319.461
 294  2400.64
 295  2453.414
 296  2088.64
 297  2072.341
 298  2167.06
 299  2290.527
 300  2389.846
 301  2139.785
 302  2227.772
 303  2260.232
 304  2293.681
 305  2597.64
 306  2650.82
 307  2358.311
 308  2890.574
 309  3273.361
 310  3289.46
 311  3627.271
 312  3641.491
 313  3305.703
 314  2802.236
 315  2475.353
 316  2170.107
 317  1996.676
 318  1875.519
 319  2091.624
 320  2149.47
 321  2290.754
 322  2125.297
 323  2492.896
 324  2459.406
 325  2328.094
 326  2168.369
 327  2023.693
 328  2015.369
 329  2031.485
 330  2150.46
 331  2016.563
 332  2058.122
 333  2206.802
 334  1938.286
 335  2011.292
 336  1727.659
 337  1794.06
 338  2199.242
 339  2444.644
 340  2344.866
 341  2346.487
 342  2208.572
 343  2346.99
 344  2081.638
 345  1779.223
 346  1901.861
 347  1978.262
 348  2068.572
 349  2073.039
 350  2160.629
 351  1882.821
 352  1590.062
 353  2253.662
 354  2431.977
 355  2390.5
 356  2029.932
 357  2178.489
 358  2307.043
 359  2454.921
 360  2303.035
 361  2091.992
 362  2116.856
 363  2031.057
 364  1896.41
 365  2105.539
 366  2575.418
 367  2503.295
 368  2050.265
 369  1951.415
 370  1852.063
 371  1850.161
 372  1878.429
 373  2170.393
 374  2111.76
 375  1819.435
 376  1445.332
 377  1890.057
 378  2083.133
 379  2068.292
 380  2077.866
 381  2355.692
 382  2192.465
 383  2092.165
 384  2092.808
 385  2099.675
 386  2073.625
 387  2193.662
 388  2024.883
 389  2014.485
 390  2097.313
 391  2222.314
 392  2367.575
 393  2168.932
 394  2182.043
 395  2250.043
 396  2664.417
 397  2294.689
 398  2361.397
 399  2197.327
 400  2111.731
 401  2018.437
 402  2000.094
 403  2091.799
 404  2137.293
 405  2059.631
 406  2355.683
 407  2203.429
 408  1768.452
 409  1756.297
 410  1783.057
 411  1738.064
 412  1716.29
 413  1994.184
 414  1779.973
 415  2299.05
 416  2389.327
 417  2333.837
 418  1922.796
 419  1969.185
 420  1802.472
 421  1848.604
 422  2234.315
 423  1796.516
 424  1889.249
 425  1749.132
 426  1826.748
 427  2071.52
 428  2066.051
 429  1732.421
 430  1693.628
 431  1780.054
 432  1766.42
 433  1961.76
 434  2032.689
 435  2050.019
 436  1968.137
 437  2093.068
 438  2267.755
 439  2056.41
 440  1704.738
 441  1881.805
 442  2144.454
 443  2317.025
 444  2100.483
 445  2270.822
 446  2307.01
 447  2065.619
 448  1965.867
 449  2084.25
 450  1977.961
 451  1722.733
 452  1721.899
 453  1687.251
 454  1898.625
 455  1926.156
 456  1913.77
 457  2152.111
 458  2323.065
 459  2208.414
 460  2298.78
 461  2044.857
 462  1769.553
 463  1940.038
 464  2354.542
 465  2278.021
 466  2054.777
 467  2196.28
 468  2192.238
 469  2186.461
 470  2172.733
 471  2162.51
 472  2019.467
 473  2119.165
 474  2495.808
 475  2441.466
 476  2081.927
 477  2369.108
 478  2114.511
 479  1980.907
 480  2022.479
 481  2051.961
 482  2197.639
 483  2211.338
 484  2194.965
 485  2461.582
 486  2530.148
 487  2383.231
 488  2313.581
 489  2259.237
 490  2337.398
 491  2646.338
 492  2612.289
 493  2527.358
 494  2003.012
 495  2326.72
 496  2609.954
 497  2515.475
 498  2531.149
 499  2513.45
 500  2285.708
 501  2102.543
 502  2094.824
 503  2264.429
 504  2103.252
 505  2094.921
 506  2141.08
 507  1692.502
 508  2129.262
 509  2464.708
 510  2248.921
 511  2060.942
