# Input file       =  1198087057.131620-PSRB0329-2ms-sampling-dd.dat
# Candidate        =  PSR_0332+5434
# Telescope        =  AR
# Epoch_topo       =  58110.748566338196
# Epoch_bary       =  N/A
# T_sample         =  0.002
# Data Folded      =  7340032
# Data Avg         =  3.52480931199246e-10
# Data StdDev      =  5.1785415989499  
# Profile Bins     =  512
# Profile Avg      =  0.60049188247646 
# Profile StdDev   =  620.042509645665 
# Reduced chi-sqr  =  0.514
# Prob(Noise)      <  1   (~0.0 sigma)
# P_topo (ms)      =  714.548409576203  +/- 0.0016
# P'_topo (s/s)    =  -0                +/- 8.42e-10
# P''_topo (s/s^2) =  0                 +/- 3.72e-13
# P_bary (ms)      =  N/A
# P'_bary (s/s)    =  N/A
# P''_bary (s/s^2) =  N/A
# P_orb (s)        =  N/A
# asin(i)/c (s)    =  N/A
# eccentricity     =  N/A
# w (rad)          =  N/A
# T_peri           =  N/A
######################################################
   0  -187.2026
   1  67.01463
   2  -350.7704
   3  -424.313
   4  -437.9154
   5  -562.4932
   6  -590.0762
   7  -476.9901
   8  -89.27208
   9  129.6584
  10  -198.8289
  11  -447.7062
  12  -533.0589
  13  -547.275
  14  -386.4683
  15  -388.3689
  16  -98.81995
  17  -73.55633
  18  -256.4286
  19  -215.253
  20  -346.9449
  21  -236.6734
  22  -243.0387
  23  -263.3504
  24  -268.5984
  25  -653.8616
  26  -529.0915
  27  -699.1738
  28  -897.9167
  29  -471.6817
  30  -209.1182
  31  -554.4992
  32  -287.5657
  33  58.39683
  34  50.43859
  35  -218.2856
  36  -238.6702
  37  -286.0976
  38  -366.9824
  39  -185.0852
  40  240.6494
  41  95.38625
  42  -51.89988
  43  -233.7173
  44  -529.681
  45  -436.2698
  46  -296.9837
  47  -230.9638
  48  -464.6626
  49  -394.8103
  50  -178.8624
  51  -53.82603
  52  -51.32296
  53  -239.3046
  54  -438.6689
  55  -63.51889
  56  75.48363
  57  -38.5206
  58  -189.1216
  59  -53.16862
  60  14.78293
  61  173.8956
  62  110.591
  63  245.1641
  64  349.5881
  65  0.2960145
  66  -122.4387
  67  -186.7328
  68  -8.192796
  69  -51.96648
  70  -250.7224
  71  -286.0577
  72  -155.2881
  73  58.58342
  74  39.4344
  75  -4.672887
  76  68.43591
  77  -117.103
  78  -92.72716
  79  -101.5592
  80  -180.9894
  81  -60.75357
  82  -43.5497
  83  -218.5316
  84  133.7952
  85  100.4639
  86  211.6627
  87  116.3605
  88  187.9295
  89  -28.6212
  90  71.65258
  91  233.3516
  92  -247.3785
  93  -49.18079
  94  27.08689
  95  155.5232
  96  242.9369
  97  103.0565
  98  105.2634
  99  -341.5411
 100  -76.05585
 101  -172.0891
 102  -143.1643
 103  -0.5282422
 104  361.0398
 105  317.2473
 106  80.10863
 107  111.3051
 108  131.5147
 109  83.78339
 110  296.9374
 111  260.3535
 112  40.50249
 113  100.0781
 114  550.5009
 115  156.7309
 116  80.99432
 117  182.0282
 118  490.2421
 119  347.7142
 120  81.533
 121  301.2839
 122  499.578
 123  380.369
 124  396.744
 125  140.3919
 126  182.3463
 127  330.5497
 128  159.6675
 129  241.03
 130  528.1546
 131  335.688
 132  43.91828
 133  382.8207
 134  481.7174
 135  344.1498
 136  510.775
 137  398.5314
 138  75.8683
 139  123.2777
 140  192.343
 141  344.4409
 142  35.99316
 143  -7.605739
 144  56.42763
 145  -50.44794
 146  98.7486
 147  -23.2234
 148  -163.6694
 149  -353.1641
 150  42.72819
 151  197.8641
 152  233.5098
 153  382.9012
 154  327.6022
 155  65.45139
 156  26.07171
 157  234.2034
 158  245.046
 159  -69.15582
 160  69.72557
 161  275.7524
 162  363.5292
 163  345.3765
 164  125.8976
 165  288.5233
 166  55.04273
 167  -36.35044
 168  237.0043
 169  144.325
 170  210.2181
 171  109.399
 172  196.212
 173  -1.173212
 174  -128.0151
 175  -123.0353
 176  -402.565
 177  -628.1365
 178  -199.0553
 179  -306.7222
 180  -295.4169
 181  -213.6849
 182  -198.9301
 183  -219.7152
 184  -297.1986
 185  -817.3076
 186  -733.8975
 187  -510.4186
 188  -192.838
 189  -63.704
 190  -152.0812
 191  -388.1583
 192  -213.149
 193  -16.07176
 194  -138.5942
 195  -67.60619
 196  50.39735
 197  157.9893
 198  -15.23325
 199  -432.1378
 200  -208.8299
 201  -142.9579
 202  -69.6011
 203  -105.1182
 204  15.37576
 205  86.2125
 206  -311.1805
 207  -390.118
 208  -237.6801
 209  -532.1378
 210  -897.6229
 211  -479.2918
 212  39.65876
 213  -34.95761
 214  -220.3731
 215  -6.644318
 216  -28.38109
 217  -277.7482
 218  -103.9032
 219  133.9329
 220  -68.73912
 221  295.4321
 222  222.5294
 223  -118.801
 224  -234.9285
 225  139.6443
 226  117.6767
 227  -313.8266
 228  -413.9601
 229  38.54649
 230  288.546
 231  -126.4281
 232  -310.032
 233  45.41466
 234  -59.32114
 235  -46.83215
 236  131.4561
 237  300.9648
 238  251.1178
 239  202.1013
 240  422.5204
 241  145.6994
 242  43.83172
 243  159.4
 244  223.9942
 245  336.3817
 246  434.7796
 247  268.8454
 248  80.10012
 249  -29.75621
 250  154.5815
 251  146.7496
 252  602.3796
 253  607.4368
 254  485.862
 255  1131.817
 256  1305.787
 257  889.5399
 258  1082.87
 259  1064.368
 260  655.4454
 261  614.4972
 262  322.3597
 263  242.1729
 264  170.6138
 265  331.806
 266  650.92
 267  544.5309
 268  786.0165
 269  735.2471
 270  369.8611
 271  211.8474
 272  212.6569
 273  196.5362
 274  81.66077
 275  316.0959
 276  595.0362
 277  533.1071
 278  -51.87548
 279  120.3138
 280  129.8538
 281  -75.75439
 282  1.317193
 283  192.4066
 284  402.187
 285  389.0583
 286  798.8912
 287  278.0549
 288  -29.12844
 289  540.522
 290  -29.03368
 291  106.8159
 292  116.2347
 293  375.0418
 294  455.9061
 295  746.209
 296  441.1659
 297  508.3751
 298  724.0355
 299  363.6791
 300  306.9049
 301  510.8973
 302  684.1765
 303  439.3111
 304  437.6223
 305  248.5469
 306  184.3533
 307  420.3365
 308  156.2773
 309  250.7814
 310  699.2384
 311  818.33
 312  891.4094
 313  930.3014
 314  287.6281
 315  -89.17646
 316  -55.66671
 317  298.1122
 318  204.4899
 319  393.1729
 320  213.8504
 321  53.47126
 322  216.5213
 323  389.7237
 324  243.7638
 325  141.2583
 326  578.2468
 327  44.26245
 328  -153.4643
 329  -20.95163
 330  83.9417
 331  300.6094
 332  345.3708
 333  266.4838
 334  -77.98641
 335  -158.0599
 336  15.73971
 337  137.5765
 338  162.1499
 339  74.53464
 340  -73.58952
 341  149.7943
 342  110.0911
 343  -108.6655
 344  -131.3882
 345  -30.66711
 346  -282.0685
 347  65.99881
 348  -134.2037
 349  60.83846
 350  412.4271
 351  554.0682
 352  272.3809
 353  362.0892
 354  17.46111
 355  -286.2811
 356  -370.0836
 357  -46.87213
 358  29.73798
 359  319.2698
 360  76.89384
 361  -370.1821
 362  -376.9695
 363  -264.4821
 364  -336.918
 365  -315.5456
 366  143.199
 367  456.7828
 368  249.8111
 369  158.5567
 370  -50.70255
 371  -460.9968
 372  -215.0935
 373  -199.2195
 374  -10.39626
 375  92.42735
 376  -130.5598
 377  -354.4902
 378  -438.165
 379  -569.44
 380  -494.7545
 381  -398.9083
 382  -315.5628
 383  -299.4013
 384  -293.4973
 385  -469.5195
 386  -597.7767
 387  -275.6098
 388  193.9476
 389  -97.61783
 390  -92.73021
 391  11.3603
 392  -40.2187
 393  -214.7315
 394  -64.4274
 395  -103.4756
 396  -211.9082
 397  -252.3542
 398  -314.3801
 399  -261.5471
 400  -258.3271
 401  -148.316
 402  -262.3382
 403  207.6964
 404  66.81754
 405  -358.9212
 406  -168.5535
 407  -263.167
 408  -154.3974
 409  85.75156
 410  -305.7857
 411  -120.4945
 412  -192.4483
 413  -239.3276
 414  -592.7984
 415  -345.9618
 416  -145.8231
 417  -325.8802
 418  -133.1722
 419  105.3429
 420  112.3242
 421  165.1769
 422  -78.0808
 423  29.56761
 424  106.9061
 425  303.723
 426  509.0713
 427  166.1351
 428  -240.1323
 429  -171.92
 430  -181.3381
 431  -166.2235
 432  -125.5308
 433  293.8474
 434  216.3419
 435  104.7789
 436  77.81252
 437  -108.6404
 438  156.9003
 439  105.4965
 440  47.033
 441  -35.55207
 442  -45.12378
 443  -235.5895
 444  -158.0505
 445  -270.5045
 446  -338.5962
 447  -32.59883
 448  455.6571
 449  40.91035
 450  -169.1419
 451  -477.2952
 452  -582.9655
 453  -463.3163
 454  -264.6595
 455  -286.6902
 456  -412.8111
 457  -170.4066
 458  218.1361
 459  48.93124
 460  -106.7443
 461  -104.5486
 462  -429.009
 463  -542.8275
 464  -147.284
 465  14.79116
 466  -157.5623
 467  -392.3948
 468  -115.0239
 469  83.90751
 470  -20.6922
 471  -258.505
 472  -162.4885
 473  -20.01232
 474  -9.598047
 475  -209.9113
 476  -198.3299
 477  65.6287
 478  -9.118623
 479  -220.7836
 480  -242.8118
 481  -572.5327
 482  -748.2107
 483  -493.6605
 484  -659.3163
 485  -697.6088
 486  -355.7288
 487  -144.1287
 488  -588.5948
 489  -550.0909
 490  -413.6546
 491  -220.079
 492  -9.164843
 493  -105.5184
 494  271.3744
 495  -142.5335
 496  -167.0908
 497  -52.34322
 498  106.3861
 499  101.6249
 500  111.2745
 501  272.3309
 502  39.96873
 503  -175.701
 504  32.65293
 505  174.2944
 506  -0.1565458
 507  -309.5939
 508  -442.204
 509  -299.6867
 510  -34.66071
 511  -31.28755
