# Input file       =  1198158626.106533-PSRB0329-2ms-sampling-dd.dat
# Candidate        =  PSR_0332+5434
# Telescope        =  AR
# Epoch_topo       =  58111.576910955242
# Epoch_bary       =  N/A
# T_sample         =  0.002
# Data Folded      =  7471104
# Data Avg         =  2.61394941560381e-10
# Data StdDev      =  8.074016336978   
# Profile Bins     =  512
# Profile Avg      =  0.19643049117029 
# Profile StdDev   =  975.319785149682 
# Reduced chi-sqr  =  0.513
# Prob(Noise)      <  1   (~0.0 sigma)
# P_topo (ms)      =  714.549156213518  +/- 4.24e-05
# P'_topo (s/s)    =  -0                +/- 2.2e-11
# P''_topo (s/s^2) =  0                 +/- 9.53e-15
# P_bary (ms)      =  N/A
# P'_bary (s/s)    =  N/A
# P''_bary (s/s^2) =  N/A
# P_orb (s)        =  N/A
# asin(i)/c (s)    =  N/A
# eccentricity     =  N/A
# w (rad)          =  N/A
# T_peri           =  N/A
######################################################
   0  -184.1931
   1  -83.17107
   2  67.27251
   3  -911.5772
   4  -1248.643
   5  -1037.743
   6  -1114.607
   7  -1269.079
   8  -685.4079
   9  -179.0411
  10  -97.02051
  11  -627.8166
  12  34.55402
  13  328.5533
  14  29.14251
  15  -218.1342
  16  437.614
  17  699.0322
  18  548.6951
  19  838.268
  20  1071.981
  21  575.4324
  22  -288.8356
  23  93.79155
  24  -49.64955
  25  -263.8651
  26  -146.0004
  27  136.5358
  28  -275.1518
  29  -832.1436
  30  -525.4343
  31  -828.3549
  32  -981.178
  33  -475.6679
  34  -79.90028
  35  -669.1704
  36  -492.8065
  37  -420.3314
  38  -475.1621
  39  -682.8956
  40  -764.5439
  41  -514.4516
  42  -186.9093
  43  -470.8384
  44  -433.1063
  45  -327.7513
  46  -408.3819
  47  -806.0007
  48  -772.8703
  49  -787.1046
  50  -462.3609
  51  -141.0237
  52  31.78931
  53  -291.351
  54  -452.5327
  55  -335.7518
  56  -558.4319
  57  -306.8279
  58  22.42509
  59  86.33783
  60  -525.3495
  61  -74.23931
  62  40.82865
  63  83.74834
  64  -111.2649
  65  -847.6063
  66  -343.8226
  67  -541.5784
  68  -1144.206
  69  -763.8602
  70  -543.5391
  71  -461.8956
  72  -420.1414
  73  -251.9632
  74  -382.9675
  75  -827.165
  76  -883.5792
  77  -344.3655
  78  -310.5271
  79  -912.3792
  80  -1020.551
  81  -389.442
  82  -801.4044
  83  -536.4451
  84  -73.85857
  85  255.9876
  86  -10.42689
  87  207.5314
  88  575.1323
  89  -78.86268
  90  -766.9199
  91  -366.7276
  92  -651.6043
  93  -610.9023
  94  -268.4244
  95  19.93035
  96  -691.3103
  97  -871.3973
  98  -316.9066
  99  -98.19865
 100  -261.4603
 101  -646.3694
 102  -64.04705
 103  -174.0098
 104  -775.4796
 105  -367.9243
 106  513.8161
 107  189.2536
 108  -236.9668
 109  -138.4412
 110  -511.4669
 111  -718.1398
 112  -550.6464
 113  -25.61462
 114  -284.1855
 115  -414.1718
 116  33.82895
 117  247.3571
 118  -441.2453
 119  -179.9263
 120  8.993628
 121  -228.3762
 122  -511.7261
 123  -210.8524
 124  -226.1089
 125  -633.2626
 126  -961.9269
 127  -301.7198
 128  -180.9491
 129  -309.1177
 130  3.928123
 131  345.8836
 132  -145.8783
 133  -382.3853
 134  -681.2289
 135  -323.3842
 136  325.4898
 137  211.3794
 138  213.1176
 139  -65.63172
 140  -648.1677
 141  241.1894
 142  290.6251
 143  534.1537
 144  675.0869
 145  699.4321
 146  902.3706
 147  837.2211
 148  655.6118
 149  452.2324
 150  1120.293
 151  1166.415
 152  1410.953
 153  888.2952
 154  517.7678
 155  675.7778
 156  635.7462
 157  154.7308
 158  -84.45923
 159  -270.2857
 160  47.44008
 161  200.3596
 162  507.2332
 163  438.8539
 164  27.62497
 165  277.118
 166  366.7567
 167  481.1915
 168  4.983223
 169  95.56377
 170  676.4338
 171  471.8613
 172  151.3183
 173  -119.968
 174  -224.9062
 175  -92.62306
 176  -134.7428
 177  223.8662
 178  -102.0633
 179  148.1864
 180  209.5122
 181  498.3842
 182  135.0685
 183  63.86252
 184  388.5709
 185  62.29368
 186  -574.1977
 187  -251.345
 188  432.0508
 189  201.3114
 190  -85.03409
 191  205.0234
 192  135.0779
 193  80.4847
 194  972.7929
 195  1329.976
 196  777.9589
 197  201.914
 198  837.1094
 199  1067.137
 200  608.8014
 201  759.8339
 202  669.8698
 203  1017.107
 204  293.4125
 205  749.6706
 206  992.187
 207  411.1068
 208  1006.776
 209  882.6242
 210  622.4882
 211  -343.1566
 212  -5.944809
 213  76.00171
 214  -201.2421
 215  249.1935
 216  493.4901
 217  495.5718
 218  462.0185
 219  478.4773
 220  156.1199
 221  -509.8894
 222  -743.2789
 223  -428.7311
 224  651.8293
 225  384.0836
 226  150.7646
 227  810.7852
 228  1035.739
 229  316.4127
 230  -19.63533
 231  412.212
 232  248.9021
 233  -316.1573
 234  -27.65744
 235  535.8141
 236  281.0526
 237  324.9767
 238  674.9482
 239  296.2025
 240  -470.374
 241  -323.6622
 242  -306.0306
 243  -745.0718
 244  -648.323
 245  -48.30781
 246  -134.2253
 247  -368.9041
 248  -836.6185
 249  -671.1633
 250  -741.2407
 251  -687.9675
 252  -327.8775
 253  385.5043
 254  -170.4029
 255  -559.6132
 256  31.62494
 257  -179.2561
 258  32.84939
 259  -219.134
 260  254.9241
 261  -235.5027
 262  -448.9885
 263  -406.9159
 264  -666.7414
 265  -458.8036
 266  -623.7251
 267  -396.0329
 268  -52.69015
 269  259.1088
 270  741.6819
 271  253.0422
 272  -550.658
 273  -837.8538
 274  -621.5243
 275  -893.89
 276  -925.3608
 277  -318.0541
 278  -50.03725
 279  -671.6619
 280  -1008.43
 281  -508.8187
 282  -672.3934
 283  -941.7117
 284  -365.5011
 285  -246.5924
 286  -68.56429
 287  -302.9731
 288  241.8882
 289  355.4563
 290  77.44948
 291  -377.3945
 292  -461.2882
 293  -434.6712
 294  -196.221
 295  14.36602
 296  269.6786
 297  85.95934
 298  65.91512
 299  172.0475
 300  -474.4288
 301  518.733
 302  722.6504
 303  682.0829
 304  311.649
 305  64.85545
 306  297.287
 307  -380.187
 308  -465.449
 309  -115.5818
 310  160.1142
 311  29.05869
 312  -271.0387
 313  719.4072
 314  569.7414
 315  117.4362
 316  -93.85747
 317  202.2596
 318  -161.096
 319  -426.1911
 320  -123.0297
 321  -188.6788
 322  -530.3912
 323  -745.397
 324  -363.435
 325  401.0424
 326  -281.8575
 327  -9.405894
 328  374.6671
 329  326.6516
 330  296.2197
 331  261.7356
 332  466.2036
 333  -48.31716
 334  702.0536
 335  773.8202
 336  214.9677
 337  -35.79568
 338  -119.3632
 339  204.8692
 340  -469.33
 341  -157.2524
 342  215.2161
 343  -161.0832
 344  148.933
 345  426.0032
 346  752.3323
 347  588.2318
 348  532.6546
 349  787.4656
 350  170.1169
 351  -413.0679
 352  337.4244
 353  815.8423
 354  100.7311
 355  -206.6968
 356  121.1567
 357  -369.3788
 358  -349.7475
 359  4.751371
 360  251.7614
 361  506.659
 362  430.3454
 363  597.3151
 364  560.5541
 365  345.5605
 366  533.171
 367  427.4133
 368  535.8115
 369  335.4818
 370  196.2535
 371  187.2318
 372  -429.8111
 373  -444.7093
 374  -301.984
 375  223.3002
 376  179.5252
 377  -10.10458
 378  495.0253
 379  47.72686
 380  578.0012
 381  669.641
 382  402.3641
 383  -78.59444
 384  -169.3579
 385  571.8627
 386  358.9966
 387  376.0013
 388  82.9009
 389  -243.157
 390  -993.7806
 391  -411.2658
 392  77.47978
 393  202.4842
 394  304.9266
 395  228.1385
 396  522.0071
 397  481.3855
 398  80.57999
 399  295.816
 400  143.9927
 401  -105.1298
 402  -0.9190524
 403  577.0745
 404  286.5456
 405  -891.3732
 406  -393.4003
 407  250.1206
 408  159.0437
 409  -204.2453
 410  174.2027
 411  287.4624
 412  -112.0815
 413  -219.9615
 414  -154.6116
 415  134.5049
 416  590.8106
 417  919.3483
 418  617.4776
 419  10.63095
 420  -752.6063
 421  -499.2771
 422  -297.7673
 423  254.9601
 424  440.1537
 425  234.1646
 426  33.51728
 427  -639.463
 428  -356.4689
 429  135.5515
 430  362.7678
 431  879.1561
 432  235.4655
 433  -452.0603
 434  -224.4853
 435  -257.5267
 436  -141.7095
 437  -24.06341
 438  353.9071
 439  682.3746
 440  -211.5299
 441  -353.768
 442  36.71061
 443  28.53216
 444  -20.97118
 445  841.145
 446  900.1722
 447  683.1798
 448  368.0085
 449  1173.321
 450  1658.049
 451  1282.474
 452  1130.228
 453  1284.119
 454  702.1655
 455  181.2261
 456  408.2465
 457  392.7636
 458  -60.00865
 459  -505.9096
 460  327.3329
 461  396.0584
 462  389.5322
 463  1059.674
 464  832.4431
 465  -134.1357
 466  -356.1194
 467  315.0595
 468  448.4704
 469  -62.44903
 470  562.0691
 471  727.3718
 472  198.168
 473  -432.8644
 474  -546.7014
 475  -304.3129
 476  -348.2224
 477  -377.9198
 478  -69.17822
 479  -57.46047
 480  -227.6661
 481  106.1056
 482  883.8769
 483  229.1558
 484  -478.9951
 485  -124.8905
 486  -37.14301
 487  -336.0298
 488  -109.0802
 489  100.0557
 490  51.97358
 491  358.6967
 492  1150.556
 493  731.5592
 494  -204.2399
 495  -585.3572
 496  56.21669
 497  131.8308
 498  123.2095
 499  783.4576
 500  765.9548
 501  -82.00906
 502  -871.7945
 503  -657.946
 504  -589.0153
 505  -626.392
 506  -615.8925
 507  -401.5363
 508  -564.3173
 509  -675.3915
 510  -572.5408
 511  -512.6259
