# Input file       =  1198705058.107936_cleaned.dat
# Candidate        =  PSR_0332+5434
# Telescope        =  AR
# Epoch_topo       =  58117.901355415925
# Epoch_bary       =  N/A
# T_sample         =  0.002
# Data Folded      =  7340032
# Data Avg         =  0.175804962739806
# Data StdDev      =  5.22691976735487 
# Profile Bins     =  512
# Profile Avg      =  2520.39040243818 
# Profile StdDev   =  625.834974643139 
# Reduced chi-sqr  =  0.491
# Prob(Noise)      <  1   (~0.0 sigma)
# P_topo (ms)      =  714.555164036465  +/- 0.00145
# P'_topo (s/s)    =  -0                +/- 7.63e-10
# P''_topo (s/s^2) =  0                 +/- 3.37e-13
# P_bary (ms)      =  N/A
# P'_bary (s/s)    =  N/A
# P''_bary (s/s^2) =  N/A
# P_orb (s)        =  N/A
# asin(i)/c (s)    =  N/A
# eccentricity     =  N/A
# w (rad)          =  N/A
# T_peri           =  N/A
######################################################
   0  1793.941
   1  1977.705
   2  2256.198
   3  2191.637
   4  2029.122
   5  1743.52
   6  1819.248
   7  1870.579
   8  1903.858
   9  1999.698
  10  2391.334
  11  2577.089
  12  2393.139
  13  2376.709
  14  2269.77
  15  2709.667
  16  2652.098
  17  2440.11
  18  2251.868
  19  2205.399
  20  2599.522
  21  2836.418
  22  2731.181
  23  2610.416
  24  2273.258
  25  2053.883
  26  2054.994
  27  2353.609
  28  2823.125
  29  2888.812
  30  2774.179
  31  2327.919
  32  1964.043
  33  2130.427
  34  2563.358
  35  2536.31
  36  2845.159
  37  2872.316
  38  2266.341
  39  2321.777
  40  2670.704
  41  2648.226
  42  2922.676
  43  2888.748
  44  2517.597
  45  2392.729
  46  2832.218
  47  2934.184
  48  2825.121
  49  2855.45
  50  2693.654
  51  2848.807
  52  2317.807
  53  2359.028
  54  2390.049
  55  2649.075
  56  2806.988
  57  2919.637
  58  2747.033
  59  2819.965
  60  2410.569
  61  2387.26
  62  2785.141
  63  2886.874
  64  2913.408
  65  2540.633
  66  2501.056
  67  2600.855
  68  2239.284
  69  2446.06
  70  2978.352
  71  2794.415
  72  2763.01
  73  3002.659
  74  2937.399
  75  2970.774
  76  3203.532
  77  3098.155
  78  2966.564
  79  3108.105
  80  3044.995
  81  2685.491
  82  2859.337
  83  3307.859
  84  3307.646
  85  2939.178
  86  2559.663
  87  2585.526
  88  2828.582
  89  3030.883
  90  3055.202
  91  2950.784
  92  3070.086
  93  2802.823
  94  2433.601
  95  2452.134
  96  2804.344
  97  2592.732
  98  2957.056
  99  3089.34
 100  2992.51
 101  2621.891
 102  2525.759
 103  2751.789
 104  2732.7
 105  3020.082
 106  2457.769
 107  2501.092
 108  2582.268
 109  2462.117
 110  2342.253
 111  2332.191
 112  2293.916
 113  2213.986
 114  2534.429
 115  2735.801
 116  2133.424
 117  2494.574
 118  2846.925
 119  2378.708
 120  2129.21
 121  2315.552
 122  2440.366
 123  2753.744
 124  2754.526
 125  2482.715
 126  2225.003
 127  2336.905
 128  2810.76
 129  2673.395
 130  2537.875
 131  2264.878
 132  2222.417
 133  2738.901
 134  2825.081
 135  2147.844
 136  2458.495
 137  2330.269
 138  2546.235
 139  2504.191
 140  2319.388
 141  2166.995
 142  2456.598
 143  2197.027
 144  2174.528
 145  2331.1
 146  2200.317
 147  2164.465
 148  2499.844
 149  3163.618
 150  2914.151
 151  2727.91
 152  2648.457
 153  2897.755
 154  3171.272
 155  2905.562
 156  2795.541
 157  2776.151
 158  2839.303
 159  2295.817
 160  2291.984
 161  2348.884
 162  2517.841
 163  2627.039
 164  2321.369
 165  2250.069
 166  2258.927
 167  1964.395
 168  2071.177
 169  2489.752
 170  2441.373
 171  2466.161
 172  2652.726
 173  2953.771
 174  2995.354
 175  2746.405
 176  2363.694
 177  2413.018
 178  2586.233
 179  2493.132
 180  2488.101
 181  2516.246
 182  2983.487
 183  3111.05
 184  2579.732
 185  2560.145
 186  2648.658
 187  2856.048
 188  2925.714
 189  2816.286
 190  2878.318
 191  2553.633
 192  2869.062
 193  3040.266
 194  2673.816
 195  2426.051
 196  2628.458
 197  2633.706
 198  2992.239
 199  2990.567
 200  2927.623
 201  2397.042
 202  2630.526
 203  2505.797
 204  2674.364
 205  2762.722
 206  2992.939
 207  3075.102
 208  2610.142
 209  2565.746
 210  2538.299
 211  2217.797
 212  2287.255
 213  2253.305
 214  2384.81
 215  2581.971
 216  2820.091
 217  2582.093
 218  2581.669
 219  2615.716
 220  2481.349
 221  2433.94
 222  2625.133
 223  2480.845
 224  2752.393
 225  2825.053
 226  2221.452
 227  2287.049
 228  2239.768
 229  2528.07
 230  2773.323
 231  3077.96
 232  2822.786
 233  2353.309
 234  2446.771
 235  2067.075
 236  2089.027
 237  2295.331
 238  2540.795
 239  2467.816
 240  2492.429
 241  2156.598
 242  2023.256
 243  1980.312
 244  2184.186
 245  2628.652
 246  2397.952
 247  2558.673
 248  2514.949
 249  2523.488
 250  2504.179
 251  2420.162
 252  2232.967
 253  2416.517
 254  2543.381
 255  2540.732
 256  2444.883
 257  2143.383
 258  1979.086
 259  2253.591
 260  2639.662
 261  2490.405
 262  2609.311
 263  2645.653
 264  2536.185
 265  2267.547
 266  2546.118
 267  2429.812
 268  2348.242
 269  2580.346
 270  2830.036
 271  2471.486
 272  2626.966
 273  2819.563
 274  2947.732
 275  2494.876
 276  2308.771
 277  2759.249
 278  2765.523
 279  2322.539
 280  2616.744
 281  2723.245
 282  2931.578
 283  2750.434
 284  2953.276
 285  2672.513
 286  2474.396
 287  2687.96
 288  2911.492
 289  3079.106
 290  2791.416
 291  2790.083
 292  2730.031
 293  2503.932
 294  2670.023
 295  2904.074
 296  2901.462
 297  3153.125
 298  3025.982
 299  2883.645
 300  2893.535
 301  2707.719
 302  2458.355
 303  2686.105
 304  2997.15
 305  3094.33
 306  3211.023
 307  2936.607
 308  2781.922
 309  3004.402
 310  3243.636
 311  3423.691
 312  3499.471
 313  3193.833
 314  2975.47
 315  2366.646
 316  2325.347
 317  2728.993
 318  2626.294
 319  2796.769
 320  2685.781
 321  2745.506
 322  2690.078
 323  2766.617
 324  2645.553
 325  2237.488
 326  2360.766
 327  2390.736
 328  2369.364
 329  2467.492
 330  2621.901
 331  2693.772
 332  2062.538
 333  2092.991
 334  2277.879
 335  2729.295
 336  2885.82
 337  2187.244
 338  2143.773
 339  2703.616
 340  2475.416
 341  2202.256
 342  2260.581
 343  2510.101
 344  2594.139
 345  2762.694
 346  2444.787
 347  2388.624
 348  2341.189
 349  2763.15
 350  2592.391
 351  2323.565
 352  2563.59
 353  2505.322
 354  2394.887
 355  2665.309
 356  2398.792
 357  2193.929
 358  2543.854
 359  2262.574
 360  2079.168
 361  2384.007
 362  2427.514
 363  2571.534
 364  2030.866
 365  2408.917
 366  2650.155
 367  2317.116
 368  2141.787
 369  2386.315
 370  2655.551
 371  2376.524
 372  2356.197
 373  1915.426
 374  1850.552
 375  2040.25
 376  2206.872
 377  2285.956
 378  2188.097
 379  2446.133
 380  2598.704
 381  2469.149
 382  2565.267
 383  2610.953
 384  2635.293
 385  2904.964
 386  2796.559
 387  2846.776
 388  2864.82
 389  2799.152
 390  2588.796
 391  2450.965
 392  2393.56
 393  2643.878
 394  2791.39
 395  2571.809
 396  2474.935
 397  2350.106
 398  2196.818
 399  2111.831
 400  2240.147
 401  1949.732
 402  1722.944
 403  2208.88
 404  2437.454
 405  2289.102
 406  1771.579
 407  1988.728
 408  2204.974
 409  2575.239
 410  2520.767
 411  2560.396
 412  2118.83
 413  2400.516
 414  2633.332
 415  2591.387
 416  2554.361
 417  2664.997
 418  2435.448
 419  2119.754
 420  1725.098
 421  2036.079
 422  2293.225
 423  2511.324
 424  2058.944
 425  2420.454
 426  2147.678
 427  1956.707
 428  1825.688
 429  1990.443
 430  2075.126
 431  1911.264
 432  2161.208
 433  2250.596
 434  2253.02
 435  1851.491
 436  1666.118
 437  2032.391
 438  2209.315
 439  2105.17
 440  2142.107
 441  2142.161
 442  1762.003
 443  1936.933
 444  1880.065
 445  1615.779
 446  2122.979
 447  2270.053
 448  2388.625
 449  2301.671
 450  2369.636
 451  2280.798
 452  2433.608
 453  2881.41
 454  2887.226
 455  2554.615
 456  2625.79
 457  2610.067
 458  2419.607
 459  2726.884
 460  2758.018
 461  2704.373
 462  2584.48
 463  2232.038
 464  1999.816
 465  2021.225
 466  2343.257
 467  2788.569
 468  2933.679
 469  2564.349
 470  2223.629
 471  2478.535
 472  2503.221
 473  2463.582
 474  2894.208
 475  2787.452
 476  2466.75
 477  2395.955
 478  2586.514
 479  2584.079
 480  2556.609
 481  2636.197
 482  2543.504
 483  2726.952
 484  2662.54
 485  2589.635
 486  2159.051
 487  2199.944
 488  2160.398
 489  2339.871
 490  2359.33
 491  2654.804
 492  2834.841
 493  2622.077
 494  2672.441
 495  3036.894
 496  2854.464
 497  2672.976
 498  2554.169
 499  2398.558
 500  2321.902
 501  2485.054
 502  2296.823
 503  2009.956
 504  1964.479
 505  2404.502
 506  2668.57
 507  2525.802
 508  2329.562
 509  2187.61
 510  2132.049
 511  1979.15
