# Input file       =  1198173788.111938-PSRB0329-2ms-sampling-dd.dat
# Candidate        =  PSR_0332+5434
# Telescope        =  AR
# Epoch_topo       =  58111.752397128912
# Epoch_bary       =  N/A
# T_sample         =  0.002
# Data Folded      =  7340032
# Data Avg         =  -2.16664767811977e-10
# Data StdDev      =  4.9283270529719  
# Profile Bins     =  512
# Profile Avg      =  0.154976838025724
# Profile StdDev   =  590.083562310086 
# Reduced chi-sqr  =  0.454
# Prob(Noise)      <  1   (~0.0 sigma)
# P_topo (ms)      =  714.549349780547  +/- 0.000763
# P'_topo (s/s)    =  -0                +/- 4.02e-10
# P''_topo (s/s^2) =  0                 +/- 1.78e-13
# P_bary (ms)      =  N/A
# P'_bary (s/s)    =  N/A
# P''_bary (s/s^2) =  N/A
# P_orb (s)        =  N/A
# asin(i)/c (s)    =  N/A
# eccentricity     =  N/A
# w (rad)          =  N/A
# T_peri           =  N/A
######################################################
   0  -743.6754
   1  -469.5003
   2  -320.1601
   3  -139.3029
   4  -81.21912
   5  -274.4149
   6  -601.2473
   7  -709.1724
   8  -447.9571
   9  113.1777
  10  309.727
  11  267.156
  12  64.71652
  13  104.1477
  14  -7.68039
  15  -326.2601
  16  -291.2549
  17  -117.1805
  18  -79.78751
  19  -196.7727
  20  -126.6828
  21  -123.5047
  22  -247.065
  23  63.47103
  24  -224.5093
  25  -275.3818
  26  -288.8079
  27  -455.1862
  28  -514.6838
  29  -628.2107
  30  -368.2541
  31  -157.3579
  32  -210.8493
  33  -428.2971
  34  -439.8391
  35  -271.2646
  36  -286.1841
  37  -293.8694
  38  -381.7792
  39  -46.4324
  40  -41.28531
  41  63.6535
  42  -132.911
  43  -415.6871
  44  -97.41399
  45  -353.1605
  46  -449.553
  47  -403.2133
  48  -233.5571
  49  -71.89842
  50  -15.61122
  51  17.85782
  52  -121.5811
  53  -316.1754
  54  -253.0795
  55  -92.71272
  56  -167.0126
  57  303.2717
  58  236.1465
  59  270.9363
  60  227.1624
  61  158.2309
  62  -37.76129
  63  -238.8436
  64  243.997
  65  -38.04208
  66  227.8212
  67  435.2174
  68  60.75956
  69  129.9154
  70  -10.45387
  71  -3.383418
  72  -28.04377
  73  -32.78578
  74  348.5974
  75  390.1447
  76  315.6263
  77  171.0588
  78  132.4088
  79  64.994
  80  17.31922
  81  -343.7924
  82  -292.8942
  83  153.7449
  84  303.7757
  85  174.323
  86  -263.8519
  87  -101.905
  88  193.434
  89  -219.1069
  90  -222.7973
  91  -225.2047
  92  -233.7075
  93  -314.3883
  94  -357.5051
  95  -399.3114
  96  -399.1693
  97  -268.9613
  98  -186.12
  99  30.31431
 100  -181.8676
 101  -263.6788
 102  -198.3724
 103  -53.24482
 104  -119.9911
 105  -226.508
 106  -255.9164
 107  -263.6393
 108  -354.1356
 109  -126.7558
 110  79.76912
 111  4.321208
 112  64.30135
 113  124.0553
 114  -392.3708
 115  -586.4064
 116  -339.8963
 117  73.14302
 118  115.181
 119  -336.0601
 120  -388.7205
 121  -281.6257
 122  -216.8056
 123  -251.229
 124  -348.0784
 125  -439.2391
 126  -341.7245
 127  -35.59393
 128  275.6077
 129  335.5018
 130  -35.41318
 131  -18.91769
 132  -188.4539
 133  190.6792
 134  474.8323
 135  237.9818
 136  68.67542
 137  147.8103
 138  383.0594
 139  99.28618
 140  428.0754
 141  404.5938
 142  227.6531
 143  267.309
 144  -21.61358
 145  -1.310905
 146  84.01319
 147  146.2305
 148  200.2598
 149  246.0266
 150  420.351
 151  434.0283
 152  135.54
 153  75.6451
 154  63.67442
 155  286.9576
 156  689.2647
 157  484.7683
 158  212.8554
 159  229.6665
 160  299.8955
 161  419.4419
 162  532.5745
 163  923.4228
 164  212.4454
 165  -173.3912
 166  109.0174
 167  490.3105
 168  156.3704
 169  225.8732
 170  198.1125
 171  -136.4253
 172  -141.3256
 173  -140.55
 174  -158.8645
 175  188.0857
 176  325.8595
 177  211.2434
 178  -106.0607
 179  -146.0226
 180  68.93003
 181  155.3115
 182  89.00655
 183  8.730565
 184  142.4222
 185  229.4848
 186  113.4963
 187  -199.4128
 188  -13.72892
 189  139.3334
 190  -84.20506
 191  -209.8932
 192  -477.6064
 193  -209.3109
 194  -314.6522
 195  -465.2777
 196  -379.2149
 197  -375.6585
 198  -314.2997
 199  -43.9494
 200  -250.1149
 201  -390.897
 202  -243.4069
 203  -4.381593
 204  59.79567
 205  -109.3951
 206  -151.5498
 207  -29.80047
 208  10.06602
 209  -179.5268
 210  -56.1973
 211  55.02289
 212  -115.4716
 213  -215.9254
 214  -400.8279
 215  -106.1393
 216  -20.80425
 217  185.2802
 218  282.9517
 219  238.0807
 220  326.0054
 221  316.2067
 222  404.1418
 223  215.4892
 224  456.8637
 225  604.5088
 226  768.6416
 227  467.2589
 228  47.96436
 229  -8.117594
 230  -6.125066
 231  147.1104
 232  225.2321
 233  194.1189
 234  227.2203
 235  399.6806
 236  498.3953
 237  279.5253
 238  162.7441
 239  91.22964
 240  89.13705
 241  326.468
 242  513.3334
 243  335.2547
 244  28.98652
 245  -1.093203
 246  -1.033445
 247  -36.15546
 248  151.4663
 249  154.1903
 250  -73.72524
 251  -65.63326
 252  -8.462471
 253  92.1391
 254  12.60428
 255  82.8475
 256  13.99215
 257  -30.69153
 258  140.6708
 259  80.72911
 260  -137.4802
 261  -158.3008
 262  -81.64841
 263  -49.8686
 264  24.45536
 265  257.838
 266  305.2907
 267  414.8052
 268  457.0331
 269  274.2274
 270  334.9594
 271  153.5349
 272  6.307057
 273  250.7814
 274  126.9645
 275  182.8362
 276  251.9859
 277  317.3811
 278  86.57442
 279  14.93159
 280  164.7924
 281  273.5482
 282  338.2857
 283  457.3452
 284  201.396
 285  318.3123
 286  387.381
 287  -0.7521999
 288  -152.9995
 289  25.92571
 290  343.4133
 291  448.6465
 292  425.9032
 293  250.3037
 294  -60.06087
 295  44.6203
 296  206.0014
 297  339.2637
 298  392.7961
 299  508.5623
 300  457.1571
 301  207.0073
 302  77.91069
 303  108.6822
 304  256.0111
 305  361.229
 306  250.7355
 307  -55.55936
 308  -8.477064
 309  92.64828
 310  284.7778
 311  192.6339
 312  -204.7869
 313  -97.7438
 314  109.6878
 315  78.83699
 316  23.19127
 317  -238.6295
 318  -403.2408
 319  -281.7438
 320  -122.6437
 321  -250.528
 322  -424.2171
 323  -264.3033
 324  -177.9481
 325  -92.72965
 326  -258.6993
 327  -244.4622
 328  -192.7968
 329  -530.7327
 330  -487.5934
 331  -279.4238
 332  -24.15761
 333  3.994812
 334  -32.84467
 335  222.0434
 336  541.8522
 337  281.3779
 338  12.68752
 339  -130.5644
 340  -33.35229
 341  -154.0668
 342  -243.2659
 343  58.61304
 344  -76.54427
 345  -79.23723
 346  105.1179
 347  -299.4638
 348  -334.6187
 349  48.68444
 350  -73.09188
 351  -240.6844
 352  -207.3132
 353  29.65675
 354  2.326326
 355  -314.641
 356  -266.0755
 357  -221.4917
 358  -66.8237
 359  74.78826
 360  226.8472
 361  22.15802
 362  -95.84333
 363  73.11124
 364  231.6329
 365  219.5388
 366  395.9711
 367  473.3729
 368  302.6807
 369  71.04366
 370  312.8793
 371  298.6064
 372  340.3147
 373  588.2392
 374  414.3577
 375  680.0725
 376  502.407
 377  208.0314
 378  91.13081
 379  -7.388619
 380  254.9341
 381  289.8328
 382  261.7529
 383  70.9609
 384  86.41997
 385  271.3393
 386  45.0858
 387  -35.15422
 388  -251.1232
 389  -384.9392
 390  -197.9486
 391  -326.7518
 392  -141.8769
 393  107.1498
 394  13.86228
 395  -44.16269
 396  -232.0445
 397  134.9534
 398  93.07456
 399  -82.05875
 400  -118.0072
 401  -155.8868
 402  118.4527
 403  91.04539
 404  121.0997
 405  244.2052
 406  319.9295
 407  38.29238
 408  -274.2783
 409  -284.3368
 410  -267.5683
 411  -103.5919
 412  -347
 413  -278.5274
 414  -335.5399
 415  -328.9908
 416  -346.0818
 417  -540.8165
 418  -338.6585
 419  -384.7616
 420  -208.8108
 421  -482.111
 422  -217.3012
 423  -148.431
 424  -118.2416
 425  12.09505
 426  -411.248
 427  -502.3626
 428  -371.735
 429  -321.3336
 430  -474.8923
 431  -344.4751
 432  49.14975
 433  -107.6157
 434  -239.6066
 435  117.3712
 436  -26.34229
 437  -359.55
 438  -451.4743
 439  -245.8988
 440  -42.72367
 441  150.318
 442  414.9642
 443  405.2368
 444  63.28923
 445  155.4734
 446  87.65482
 447  -6.214532
 448  65.76707
 449  289.9249
 450  518.4951
 451  289.5725
 452  300.0249
 453  247.8427
 454  -62.68001
 455  50.35416
 456  299.6644
 457  652.4714
 458  785.4421
 459  1061.824
 460  1241.326
 461  1097.609
 462  612.7152
 463  462.1332
 464  362.3549
 465  251.3484
 466  312.2034
 467  284.9479
 468  108.2714
 469  -152.1493
 470  -129.579
 471  95.77952
 472  268.5797
 473  74.94508
 474  -341.8584
 475  -436.6508
 476  -391.7606
 477  -406.0986
 478  -347.7818
 479  -322.1971
 480  -504.5548
 481  -340.4638
 482  -8.31446
 483  39.18056
 484  -362.609
 485  -368.6174
 486  -47.25477
 487  7.074682
 488  214.67
 489  10.34371
 490  -200.0816
 491  -290.6867
 492  -103.8285
 493  31.69075
 494  -42.57355
 495  13.9958
 496  -270.8871
 497  -381.3038
 498  -479.365
 499  -177.615
 500  -356.0784
 501  -310.9003
 502  -393.7197
 503  -226.4524
 504  -253.7406
 505  -480.7215
 506  -212.3202
 507  72.76604
 508  28.49519
 509  -229.8588
 510  -321.6012
 511  -426.6669
