# Input file       =  1198015849.104194_cleaned.dat
# Candidate        =  PSR_0332+5434
# Telescope        =  AR
# Epoch_topo       =  58109.924399354095
# Epoch_bary       =  N/A
# T_sample         =  0.002
# Data Folded      =  7340032
# Data Avg         =  0.121574662649696
# Data StdDev      =  3.90990503911733 
# Profile Bins     =  512
# Profile Avg      =  1742.85677867054 
# Profile StdDev   =  468.144802278337 
# Reduced chi-sqr  =  0.540
# Prob(Noise)      <  1   (~0.0 sigma)
# P_topo (ms)      =  714.547977235074  +/- 0.000898
# P'_topo (s/s)    =  -0                +/- 4.74e-10
# P''_topo (s/s^2) =  0                 +/- 2.09e-13
# P_bary (ms)      =  N/A
# P'_bary (s/s)    =  N/A
# P''_bary (s/s^2) =  N/A
# P_orb (s)        =  N/A
# asin(i)/c (s)    =  N/A
# eccentricity     =  N/A
# w (rad)          =  N/A
# T_peri           =  N/A
######################################################
   0  1918.441
   1  1936.381
   2  1751.239
   3  1806.781
   4  1804.456
   5  1901.082
   6  1639.815
   7  1833.755
   8  2078.931
   9  2161.393
  10  2081.36
  11  1695.92
  12  1897.658
  13  1972.175
  14  2047.416
  15  1949.991
  16  1894.995
  17  1949.879
  18  2133.821
  19  2089.564
  20  1841
  21  1822.134
  22  1868.259
  23  1917.883
  24  1931.81
  25  2110.01
  26  2118.053
  27  2002.644
  28  2032.588
  29  2206.684
  30  2610.719
  31  2525.241
  32  2066.688
  33  1713.77
  34  2053.594
  35  2172.122
  36  1617.741
  37  1908.653
  38  1778.869
  39  2108.484
  40  2085.594
  41  1944.262
  42  2105.998
  43  1976.942
  44  2012.981
  45  1947.692
  46  2125.664
  47  2024.081
  48  1810.604
  49  1768.828
  50  1854.304
  51  2112.962
  52  1746.236
  53  1564.453
  54  1423.269
  55  1612.594
  56  1495.293
  57  1567.097
  58  1539.256
  59  1670.093
  60  1530.892
  61  1570.669
  62  1896.403
  63  1800.293
  64  1995.311
  65  2030.855
  66  2129.596
  67  2208.081
  68  2180.222
  69  2128.274
  70  1731.904
  71  1372.916
  72  1645.646
  73  1855.302
  74  1702.098
  75  1591.52
  76  1412.485
  77  1584.759
  78  1807.874
  79  1490.882
  80  1879.356
  81  2364.137
  82  1780.627
  83  1694.389
  84  1847.211
  85  1671.978
  86  1208.712
  87  1879.195
  88  2072.389
  89  2145.619
  90  1930.452
  91  1687.571
  92  1507.359
  93  1296.993
  94  1537.012
  95  1608.839
  96  1441.499
  97  1725.225
  98  1736.973
  99  1406.217
 100  1428.117
 101  1866.959
 102  1871.947
 103  1613.596
 104  1576.707
 105  1717.096
 106  2101.81
 107  2146.766
 108  2077.356
 109  1939.933
 110  1526.058
 111  1856.979
 112  1929.402
 113  1955.386
 114  1976.701
 115  1556.226
 116  1964.084
 117  1696.878
 118  1589.632
 119  1503.535
 120  1648.429
 121  1609.049
 122  1598.495
 123  1783.597
 124  1868.561
 125  1857.127
 126  1988.595
 127  1781.779
 128  1530.285
 129  1541.96
 130  1728.639
 131  1469.134
 132  1505.985
 133  1726.838
 134  1833.996
 135  1418.62
 136  1371.303
 137  1538.504
 138  1444.06
 139  1570.36
 140  1790.952
 141  1984.469
 142  1622.595
 143  1343.071
 144  1443.622
 145  1605.064
 146  1627.38
 147  1649.716
 148  1702.24
 149  1854.297
 150  1908.968
 151  1959.654
 152  1585.84
 153  1448.941
 154  1799.91
 155  2285.349
 156  2233.293
 157  1769.227
 158  1959.567
 159  1869.749
 160  1662.664
 161  2045.01
 162  2118.752
 163  1667.522
 164  1926.355
 165  1908.182
 166  2025.401
 167  2196.558
 168  2066.139
 169  2108.024
 170  2257.022
 171  2046.627
 172  1807.346
 173  1974.232
 174  1960.655
 175  1813.634
 176  1559.774
 177  1505.376
 178  1609.514
 179  1848.82
 180  1893.664
 181  1915.826
 182  2129.615
 183  2019.926
 184  1689.685
 185  1331.657
 186  1260.401
 187  1120.507
 188  1744.962
 189  1859.052
 190  1956.41
 191  1767.4
 192  1411.45
 193  1167.504
 194  1033.804
 195  1455.421
 196  1842.882
 197  1752.477
 198  1834.276
 199  1921.681
 200  1783.831
 201  1694.37
 202  1449.979
 203  1570.26
 204  1663.556
 205  1831.2
 206  1832.538
 207  1703.657
 208  1779.46
 209  1594.733
 210  1583.605
 211  1655.459
 212  1676.581
 213  1685.761
 214  1611.796
 215  1506.222
 216  1633.523
 217  2004.588
 218  2105.382
 219  1648.79
 220  1666.29
 221  1662.944
 222  1672.62
 223  1932.885
 224  1656.724
 225  1684.614
 226  1808.706
 227  1890.596
 228  1630.913
 229  1502.475
 230  1453.099
 231  1332.698
 232  1458.992
 233  1483.912
 234  1426.731
 235  1606.836
 236  1149.498
 237  1200.406
 238  1454.516
 239  1547.047
 240  1456.713
 241  1470.442
 242  1730.71
 243  1920.982
 244  1644.449
 245  1854.718
 246  1488.927
 247  1565.93
 248  1717.52
 249  1887.865
 250  2127.852
 251  2025.199
 252  2057.605
 253  1695.547
 254  1516.524
 255  1941.785
 256  1725.49
 257  2093.85
 258  1829.558
 259  1531.867
 260  1434.82
 261  1432.069
 262  1710.235
 263  1768.112
 264  1465.823
 265  1427.568
 266  1281.99
 267  1684.281
 268  1495.383
 269  1570.755
 270  1623.643
 271  1762.783
 272  1967.81
 273  1762.118
 274  1500.478
 275  1539.802
 276  1466.356
 277  1348.599
 278  1353.962
 279  1309.911
 280  1532.45
 281  1113.524
 282  1379.308
 283  1452.089
 284  1506.167
 285  1831.579
 286  1580.109
 287  1722.387
 288  1587.126
 289  1543.892
 290  1435.537
 291  1561.922
 292  1847.787
 293  1426.858
 294  1707.989
 295  1940.14
 296  1615.373
 297  1378.765
 298  1527.973
 299  1943.087
 300  1583.759
 301  1322.865
 302  1580.356
 303  1878.324
 304  1885.015
 305  2022.22
 306  1918.308
 307  1950.642
 308  2191.522
 309  2469.903
 310  2087.775
 311  2093.13
 312  2235.064
 313  2539.87
 314  1977.095
 315  1750.421
 316  1706.7
 317  2044.16
 318  1384.307
 319  1219.722
 320  1485.585
 321  1712.304
 322  1819.599
 323  1619.379
 324  1619.817
 325  1674.981
 326  1563.486
 327  1876.201
 328  2110.075
 329  1603.148
 330  1529.294
 331  1601.567
 332  1901.34
 333  1813.923
 334  1467.397
 335  1568.553
 336  1716.76
 337  2038.977
 338  1719.771
 339  1928.669
 340  1584.799
 341  1672.551
 342  1694.915
 343  1649.498
 344  1718.448
 345  1903.442
 346  1872.747
 347  1661.504
 348  1726.042
 349  1955.499
 350  1470.862
 351  1489.677
 352  1650.607
 353  1626.834
 354  1824.682
 355  1801.762
 356  1792.691
 357  1559.631
 358  1602.713
 359  1838.638
 360  1485.322
 361  1612.676
 362  1734.666
 363  1593.598
 364  1852.826
 365  1679.563
 366  1671.867
 367  1852.989
 368  1840.116
 369  1865.134
 370  1792.647
 371  1682.329
 372  1715.613
 373  1806.952
 374  1930.26
 375  1681.131
 376  1703.161
 377  1625.346
 378  1724.386
 379  1743.332
 380  1850.564
 381  1675.056
 382  1850.551
 383  1683.924
 384  1961.53
 385  1937.609
 386  2121.529
 387  1924.112
 388  1574.643
 389  1563.886
 390  1597.15
 391  1593.861
 392  1736.184
 393  1685.185
 394  2014.947
 395  2094.379
 396  2073.118
 397  2070.854
 398  1681.469
 399  1473.555
 400  1678.457
 401  1809.041
 402  1984.966
 403  1924.961
 404  1491.353
 405  1596.512
 406  1540.803
 407  1415.806
 408  1430.934
 409  1509.639
 410  1472.297
 411  1490.835
 412  1660.782
 413  1720.481
 414  1594.159
 415  1456.397
 416  1741.562
 417  1658.269
 418  1626.542
 419  1320.406
 420  1453.237
 421  1263.71
 422  1505.976
 423  1407.327
 424  1624.828
 425  1689.741
 426  1960.033
 427  1746.934
 428  1881.048
 429  1719.885
 430  1871.365
 431  1864.504
 432  1824.242
 433  1892.971
 434  1777.534
 435  1861.603
 436  1670.7
 437  1280.587
 438  1254.875
 439  1630.75
 440  1582.148
 441  1633.311
 442  1854.721
 443  1735.612
 444  1400.402
 445  1361.646
 446  1438.359
 447  1718.638
 448  1429.287
 449  1402.848
 450  1275.365
 451  1444.563
 452  1662.365
 453  1786.786
 454  1478.306
 455  1842.897
 456  2106.999
 457  2025.274
 458  2043.848
 459  2132.852
 460  2125.563
 461  1752.381
 462  1433.155
 463  1783.343
 464  1811.435
 465  1690.348
 466  1772.423
 467  2063.93
 468  1944.196
 469  2071.169
 470  2215.441
 471  1975.04
 472  1710.363
 473  1469.731
 474  1460.283
 475  1517.175
 476  1406.456
 477  1603.34
 478  1784.041
 479  2237.746
 480  2213.056
 481  2130.505
 482  1793.458
 483  1678.567
 484  1803.04
 485  2208.143
 486  1957.492
 487  1687.656
 488  1704.253
 489  1927.734
 490  1556.825
 491  1281.382
 492  1631.368
 493  1741.41
 494  2070.83
 495  2397.711
 496  2026.238
 497  1549.253
 498  1419.113
 499  1499.506
 500  1743.616
 501  1700.329
 502  2076.777
 503  2093.41
 504  1780.419
 505  1396.961
 506  1493.849
 507  1558.933
 508  1460.22
 509  1571.753
 510  1836.991
 511  1934.073
