# Input file       =  1198618942.110888_cleaned.dat
# Candidate        =  PSR_0332+5434
# Telescope        =  AR
# Epoch_topo       =  58116.904642487127
# Epoch_bary       =  N/A
# T_sample         =  0.002
# Data Folded      =  7340032
# Data Avg         =  0.286935622443187
# Data StdDev      =  6.58257247444074 
# Profile Bins     =  512
# Profile Avg      =  4113.55209684577 
# Profile StdDev   =  788.151389534912 
# Reduced chi-sqr  =  0.480
# Prob(Noise)      <  1   (~0.0 sigma)
# P_topo (ms)      =  714.554302942724  +/- 0.000787
# P'_topo (s/s)    =  -0                +/- 4.15e-10
# P''_topo (s/s^2) =  0                 +/- 1.83e-13
# P_bary (ms)      =  N/A
# P'_bary (s/s)    =  N/A
# P''_bary (s/s^2) =  N/A
# P_orb (s)        =  N/A
# asin(i)/c (s)    =  N/A
# eccentricity     =  N/A
# w (rad)          =  N/A
# T_peri           =  N/A
######################################################
   0  3770.607
   1  3766.315
   2  3739.585
   3  3923.483
   4  3751.733
   5  3787.77
   6  4080.273
   7  4033.571
   8  4424.432
   9  4171.509
  10  3888.029
  11  3884.119
  12  3748.526
  13  3818.11
  14  3817.292
  15  4082.39
  16  4364.875
  17  4378.881
  18  4150.698
  19  3975.647
  20  4023.647
  21  3977.584
  22  3765.054
  23  3818.829
  24  3730.578
  25  4117.322
  26  4393.167
  27  3905.205
  28  3883.898
  29  4018.809
  30  3887.565
  31  3951.637
  32  3994.76
  33  4082.79
  34  4342.254
  35  4235.54
  36  3871.073
  37  3970.566
  38  4426.684
  39  4002.687
  40  3898.259
  41  4026.971
  42  3985.887
  43  3866.256
  44  3694.01
  45  3631.703
  46  3257.632
  47  3017.927
  48  3858.178
  49  4132.818
  50  3736.693
  51  3805.582
  52  3873.963
  53  3627.056
  54  3592.099
  55  3651.609
  56  3918.639
  57  4089.504
  58  3759.153
  59  3900.355
  60  3876.391
  61  3568.337
  62  3638.1
  63  3465.65
  64  3536.771
  65  3503.913
  66  3649.639
  67  3501.277
  68  3698.558
  69  3914.03
  70  3645.303
  71  3749.115
  72  3761.77
  73  3905.879
  74  3937.621
  75  3817.176
  76  3889.466
  77  4168.799
  78  4240.086
  79  3858.084
  80  3682.034
  81  3250.505
  82  3459.771
  83  3527.821
  84  3925.882
  85  4094.973
  86  3743.452
  87  3761.703
  88  4123.578
  89  4353.645
  90  4091.86
  91  4195.176
  92  3984.625
  93  4231.499
  94  3970.248
  95  4144.905
  96  4455.693
  97  4225.105
  98  4112.571
  99  4260.229
 100  4029.306
 101  3809.042
 102  4004.865
 103  4086.656
 104  3914.963
 105  4109.196
 106  3964.824
 107  4183.755
 108  3734.092
 109  3392.881
 110  3395.383
 111  3641.237
 112  3840.824
 113  3991.777
 114  3981.36
 115  4118.394
 116  3715.846
 117  3651.821
 118  3902.119
 119  4273.496
 120  4491.878
 121  4555.435
 122  4513.703
 123  4213.919
 124  4361.034
 125  4220.438
 126  4215.201
 127  4384.574
 128  4329.946
 129  4443.822
 130  4347.456
 131  3919.028
 132  4066.482
 133  3777.433
 134  4232.247
 135  4458.983
 136  4391.726
 137  4329.057
 138  4184.413
 139  4048.085
 140  4092.697
 141  4735.781
 142  4546.05
 143  4752.713
 144  5083.891
 145  5016.666
 146  4726.251
 147  4733.012
 148  4719.613
 149  4231.487
 150  4745.742
 151  4663.663
 152  4669.84
 153  4590.194
 154  4615.032
 155  4603.25
 156  4135.576
 157  3864.241
 158  3990.197
 159  3945.708
 160  4318.903
 161  4535.809
 162  4168.397
 163  4037.84
 164  4112.571
 165  4447.724
 166  3871.375
 167  4246.271
 168  4632.736
 169  4730.752
 170  4736.904
 171  4852.679
 172  4353.972
 173  3900.093
 174  4283.942
 175  4311.796
 176  4222.326
 177  4161.056
 178  4329
 179  4446.954
 180  3992.387
 181  3597.886
 182  4181.499
 183  4134.781
 184  4045.741
 185  4236.406
 186  4078.408
 187  4183.062
 188  3660.411
 189  3501.694
 190  3868.4
 191  3859.574
 192  3847.888
 193  4309
 194  4000.202
 195  4030.198
 196  3777.499
 197  3986.857
 198  3921.307
 199  3546.925
 200  3616.276
 201  4119.375
 202  4297.906
 203  4256.043
 204  4181.507
 205  4318.41
 206  4168.024
 207  4460.485
 208  4522.07
 209  4441.645
 210  4458.963
 211  4322.466
 212  4604.08
 213  4573.389
 214  4065.503
 215  3870.145
 216  3533.401
 217  3751.114
 218  3790.875
 219  3866.886
 220  3799.644
 221  4084.771
 222  4201.868
 223  4038.345
 224  3985.37
 225  4375.06
 226  4658.804
 227  4737.707
 228  4464.26
 229  4305.527
 230  4427.465
 231  4187.116
 232  3759.278
 233  3753.258
 234  4054.927
 235  4214.556
 236  4242.198
 237  4024.975
 238  4055.18
 239  3946.235
 240  3919.894
 241  4107.062
 242  4205.243
 243  4439.834
 244  4365.623
 245  4411.169
 246  4794.465
 247  4801.08
 248  4290.447
 249  4081.562
 250  4091.918
 251  4368.346
 252  4064.065
 253  3867.976
 254  3307.309
 255  3409.337
 256  4066.019
 257  4506.343
 258  4447.363
 259  4147.002
 260  3707.514
 261  3568.444
 262  3395.188
 263  3629.355
 264  3641.772
 265  3640.323
 266  3570.911
 267  3572.968
 268  4142.764
 269  4296.501
 270  4507.851
 271  4113.776
 272  4349.106
 273  4511.875
 274  4469.979
 275  4471.608
 276  4479.183
 277  4344.324
 278  4047.967
 279  4204.744
 280  4437.16
 281  4310.54
 282  3822.21
 283  4145.347
 284  4156.086
 285  4232.278
 286  4477.55
 287  4450.583
 288  4779.296
 289  4569.942
 290  4604.79
 291  4660.233
 292  4408.073
 293  4745.933
 294  4834.253
 295  4766.191
 296  4745.188
 297  4401.629
 298  4431.836
 299  4058.625
 300  4121.314
 301  4173.549
 302  4318.235
 303  4276.438
 304  4454.075
 305  4393.777
 306  4563.957
 307  4911.432
 308  5255.44
 309  5455.968
 310  5351.708
 311  5501.041
 312  5561.868
 313  5314.909
 314  4852.828
 315  4718.413
 316  4522.301
 317  4419.418
 318  4494.35
 319  4423.266
 320  4337.702
 321  3986.817
 322  3936.112
 323  3965.772
 324  4199.222
 325  4268.972
 326  4452.219
 327  4121.518
 328  4180.735
 329  3535.681
 330  4094.923
 331  4329.214
 332  4054.108
 333  4046.856
 334  4113.908
 335  4039.191
 336  3978.824
 337  3997.579
 338  3851.011
 339  4277.218
 340  4335.978
 341  4079.335
 342  4178.46
 343  3779.823
 344  3646.622
 345  3952.404
 346  4296.945
 347  4243.094
 348  4559.103
 349  4480.772
 350  4469.609
 351  4140.696
 352  4265.101
 353  4562.388
 354  4726.404
 355  4886.752
 356  4273.932
 357  4139.576
 358  4050.77
 359  4301.098
 360  4766.676
 361  4615.678
 362  3874.161
 363  3868.528
 364  4012.932
 365  3841.232
 366  4066.902
 367  4052.502
 368  4173.08
 369  4577.018
 370  4490.213
 371  4177.815
 372  4503.759
 373  4455.728
 374  4514.007
 375  4486.301
 376  4765.382
 377  4310.505
 378  4426.359
 379  4634.892
 380  4994.726
 381  4677.796
 382  4150.984
 383  4051.35
 384  3977.099
 385  4131.347
 386  4327.771
 387  4327.159
 388  4636.471
 389  4075.444
 390  3965.123
 391  3919.794
 392  3787.698
 393  3742.444
 394  3534.71
 395  3784.301
 396  3944.238
 397  4210.125
 398  3812.494
 399  3481.701
 400  3962.108
 401  4214.533
 402  4346.035
 403  4101.442
 404  4356.026
 405  4551.15
 406  4156.197
 407  3933.91
 408  4135.939
 409  3947.846
 410  3899.163
 411  4004.215
 412  4174.613
 413  4128.238
 414  3822.121
 415  3597.166
 416  3504.198
 417  4018.725
 418  4429.503
 419  4347.115
 420  4554.675
 421  3948.021
 422  3828.039
 423  3530.423
 424  3474.188
 425  3643.089
 426  3715.161
 427  3489.754
 428  3684.871
 429  3831.597
 430  4063.463
 431  3826.891
 432  3771.942
 433  4126.368
 434  4773
 435  4592.765
 436  4649.796
 437  4540.936
 438  4308.973
 439  4300.05
 440  4381.993
 441  4336.86
 442  4195.18
 443  4162.13
 444  4406.275
 445  4650.517
 446  4657.514
 447  4570.903
 448  4220.67
 449  4487.12
 450  4409.311
 451  4399.93
 452  4663.237
 453  4605.373
 454  4967.967
 455  5102.744
 456  4482.525
 457  4030.053
 458  3887.971
 459  3988.61
 460  3752.157
 461  4082.932
 462  4317.725
 463  4226.877
 464  3722.459
 465  3782.519
 466  3958.908
 467  3801.708
 468  3395.263
 469  4226.252
 470  4128.249
 471  4151.114
 472  3483.692
 473  3756.279
 474  3968.976
 475  3886.676
 476  4273.463
 477  4049.151
 478  4024.862
 479  3857.888
 480  4275.605
 481  4283.443
 482  4350.293
 483  4510.527
 484  4104.653
 485  4016.121
 486  3702.44
 487  3978.987
 488  3923.829
 489  3634.646
 490  3535.127
 491  3847.227
 492  3931.669
 493  3288.773
 494  3404.67
 495  3644.524
 496  3579.525
 497  3702.051
 498  3885.446
 499  3630.515
 500  3421.391
 501  3397.558
 502  3220.234
 503  3239.483
 504  3625.586
 505  3190.331
 506  3060.694
 507  3221.692
 508  3068.964
 509  3352.928
 510  3238.355
 511  3482.311
