# Input file       =  1198589328.111569-PSRB0329-2ms-sampling-dd.dat
# Candidate        =  PSR_0332+5434
# Telescope        =  AR
# Epoch_topo       =  58116.561887865384
# Epoch_bary       =  N/A
# T_sample         =  0.002
# Data Folded      =  7208960
# Data Avg         =  1.42627372232439e-09
# Data StdDev      =  68.6800247370487 
# Profile Bins     =  512
# Profile Avg      =  0.905984198820561
# Profile StdDev   =  8149.51512877749 
# Reduced chi-sqr  =  1.274
# Prob(Noise)      <  2.45e-05   (~4.1 sigma)
# P_topo (ms)      =  714.553644284054  +/- 0.000255
# P'_topo (s/s)    =  -0                +/- 1.37e-10
# P''_topo (s/s^2) =  0                 +/- 6.17e-14
# P_bary (ms)      =  N/A
# P'_bary (s/s)    =  N/A
# P''_bary (s/s^2) =  N/A
# P_orb (s)        =  N/A
# asin(i)/c (s)    =  N/A
# eccentricity     =  N/A
# w (rad)          =  N/A
# T_peri           =  N/A
######################################################
   0  14991.95
   1  9893.337
   2  14279.28
   3  8497.6
   4  5980.684
   5  7255.111
   6  1986.626
   7  -330.6802
   8  -2851.572
   9  -1611.853
  10  -19.13877
  11  403.0363
  12  2525.633
  13  1585.46
  14  434.1389
  15  -3350.13
  16  -2647.746
  17  -1060.676
  18  1791.459
  19  1723.007
  20  848.8102
  21  -1240.875
  22  -2771.401
  23  -2232.198
  24  -1882.539
  25  445.5424
  26  601.2679
  27  1412.445
  28  457.378
  29  1226.331
  30  1736.37
  31  -1131.549
  32  2025.497
  33  2825.34
  34  2929.33
  35  1202.741
  36  -1583.333
  37  -2951.328
  38  -4357.225
  39  -3569.12
  40  -4053.116
  41  -4038.465
  42  -4073.983
  43  -4693.576
  44  -5778.778
  45  -5773.445
  46  -5776.009
  47  -4953.334
  48  -3662.497
  49  -3784.32
  50  -2340.138
  51  -1882.261
  52  -89.51167
  53  1511.706
  54  1798.658
  55  249.4989
  56  -1224.016
  57  -324.9386
  58  1410.739
  59  1175.121
  60  2377.381
  61  6328.356
  62  3880.431
  63  3294.727
  64  4208.477
  65  2459.871
  66  3618.278
  67  4183.236
  68  9051.096
  69  8321.989
  70  9366.624
  71  9040.048
  72  8411.366
  73  4362.646
  74  610.9733
  75  -117.9013
  76  1734.889
  77  3184.746
  78  6554.264
  79  14667.8
  80  18880.51
  81  20214.7
  82  23612.76
  83  21513.43
  84  10253.09
  85  13934.39
  86  18646.24
  87  24460.73
  88  18409.33
  89  19625.03
  90  15975.51
  91  4781.926
  92  1691.651
  93  -912.8004
  94  -3465.592
  95  -5196.292
  96  -5393.538
  97  -4977.527
  98  -4455.663
  99  -4916.503
 100  -4128.384
 101  -1942.447
 102  898.6832
 103  156.2353
 104  -113.5782
 105  -1090.629
 106  -4464.772
 107  -3844.512
 108  -2219.57
 109  -115.1835
 110  -1043.351
 111  -1709.09
 112  -3835.363
 113  -5891.226
 114  -5882.598
 115  -5616.283
 116  -4544.068
 117  -4828.053
 118  -5633.77
 119  -5729.989
 120  -5458.463
 121  -5176.126
 122  -4496.553
 123  -3540.042
 124  -4746.986
 125  -5034.965
 126  -4612.517
 127  -3016.74
 128  4852.008
 129  8031.848
 130  9985.213
 131  8871.746
 132  2456.58
 133  -747.1635
 134  -2173.724
 135  8451.537
 136  10908.33
 137  9984.813
 138  7326.105
 139  1788.517
 140  -2447.443
 141  -3999.334
 142  309.0061
 143  1244.043
 144  565.4888
 145  688.3909
 146  -3365.938
 147  -4628.854
 148  -5273.868
 149  -942.3881
 150  -222.842
 151  -399.138
 152  -521.731
 153  -2138.699
 154  -4405.093
 155  -6640.018
 156  -4927.284
 157  -4046.537
 158  -1818.866
 159  10865.2
 160  16371.11
 161  16878.11
 162  14277.42
 163  5623.266
 164  777.7456
 165  -2555.973
 166  24529.45
 167  31832.71
 168  34675.68
 169  30844.83
 170  15139.75
 171  2672.757
 172  -8463.107
 173  3873.836
 174  4812.413
 175  6148.405
 176  5818.032
 177  667.7375
 178  -3264.114
 179  -5604.252
 180  -6090.468
 181  -5258.469
 182  -3624.935
 183  -3661.544
 184  -4260.562
 185  -5007.627
 186  -5726.747
 187  -4329.836
 188  -4270.791
 189  -4072.513
 190  -3880.986
 191  -5733.856
 192  -5634.822
 193  -5191.051
 194  -4247.672
 195  -4228.426
 196  -3207.277
 197  -3411.389
 198  -4059.587
 199  -3924.321
 200  -5329.336
 201  -5421.757
 202  -4942.312
 203  -2498.444
 204  -2279.377
 205  -1687.324
 206  -2274.383
 207  -3689.968
 208  -3291.183
 209  665.9196
 210  1998.987
 211  3873.285
 212  5528.41
 213  2506.476
 214  2051.092
 215  669.0057
 216  2402.799
 217  1044.733
 218  6512.808
 219  4349.942
 220  1532.467
 221  -120.8598
 222  -3288.099
 223  1560.624
 224  5418.449
 225  9830.944
 226  9194.414
 227  5582.04
 228  731.1926
 229  -4192.363
 230  1029.418
 231  8217.507
 232  9440.717
 233  9944.559
 234  7602.271
 235  -2778.161
 236  -3175.4
 237  -779.213
 238  -1597.474
 239  -2273.54
 240  -3087.615
 241  -4232.196
 242  -1184.354
 243  6572.079
 244  10345.53
 245  12204.63
 246  12088.33
 247  3487.26
 248  -883.4714
 249  -1008.96
 250  6007.897
 251  11281.96
 252  11797.53
 253  8214.284
 254  2072.198
 255  -4286.992
 256  -5011.511
 257  -3601.861
 258  -878.9257
 259  2109.842
 260  1863.785
 261  725.3758
 262  -2572.406
 263  -4241.051
 264  -1076.131
 265  4483.243
 266  5893.635
 267  5680.506
 268  3533.508
 269  -3180.945
 270  -5280.648
 271  -6006.229
 272  -3425.252
 273  -2895.126
 274  -2618.284
 275  -2822.647
 276  -5661.186
 277  -6738.561
 278  -7022.175
 279  -5305.448
 280  -4108.37
 281  -2223.55
 282  -1117.16
 283  -1575.781
 284  -2127.607
 285  -3355.045
 286  -5202.841
 287  -1102.617
 288  1963.313
 289  4740.193
 290  3532.545
 291  1586.526
 292  -1504.159
 293  -4572.743
 294  -1836.556
 295  -662.0262
 296  1065.752
 297  1291.521
 298  -773.7441
 299  -4511.658
 300  -3977.228
 301  -1117.781
 302  -495.8233
 303  -1243.701
 304  -2201.78
 305  -5829.301
 306  -6306.366
 307  -6608.958
 308  -5230.404
 309  -4684.29
 310  -4881.82
 311  -5387.936
 312  -6334.423
 313  -6938.93
 314  -7443.983
 315  -7129.633
 316  -7340.739
 317  -6192.839
 318  -5491.932
 319  -4687.65
 320  -4635.878
 321  -5161.307
 322  -4957.985
 323  -5784.497
 324  -3095.844
 325  2049.105
 326  8309.537
 327  7652.471
 328  6756.737
 329  1786.592
 330  -5074.939
 331  639.4498
 332  10172.58
 333  19970.9
 334  20401.69
 335  19139.01
 336  12303.33
 337  1040.163
 338  1899.01
 339  5751.153
 340  9970.157
 341  10507.85
 342  7821.619
 343  2301.347
 344  -1661.595
 345  -4080.449
 346  -3335.516
 347  -1455.07
 348  792.2468
 349  2928.273
 350  2637.329
 351  1606.391
 352  -121.9855
 353  -3400.82
 354  -1862.343
 355  -312.1397
 356  1168.288
 357  -635.5948
 358  -1717.593
 359  -4245.197
 360  -6293.699
 361  -6172.199
 362  -6791.171
 363  -2708.128
 364  -330.6302
 365  1566.503
 366  1937.437
 367  -555.6486
 368  -4713.65
 369  -4069.559
 370  -126.1694
 371  3843.299
 372  3367.68
 373  2712.85
 374  1085.142
 375  -2081.314
 376  -3079.728
 377  -3004.987
 378  -3250.952
 379  -1465.224
 380  -2380.918
 381  -2544.315
 382  -632.973
 383  -1238.26
 384  -907.0782
 385  -1531.795
 386  -4121.338
 387  -6187.785
 388  -5806.461
 389  -3373.821
 390  -2207.769
 391  -3278.604
 392  -3270.062
 393  -4233.805
 394  -4423.556
 395  -3688.76
 396  -4192.356
 397  -5417.843
 398  -6680.323
 399  -4617.883
 400  -2772.416
 401  -3777.806
 402  -3913.273
 403  -4740.667
 404  -5381.904
 405  -6136.001
 406  -5147.989
 407  -5411.817
 408  -5502.86
 409  -6454.63
 410  -6141.967
 411  -6234.313
 412  -6062.781
 413  -5186.362
 414  -5090.265
 415  -4280.779
 416  -3814.148
 417  -4282.542
 418  -5103.355
 419  -5764.013
 420  -6230.216
 421  -6170.523
 422  -5398.029
 423  -4543.277
 424  -4918.768
 425  -5452.334
 426  -5947.327
 427  -7065.947
 428  -6640.021
 429  -6375.01
 430  -7039.822
 431  -5773.132
 432  -5229.526
 433  -5068.038
 434  1803.667
 435  6900.026
 436  11204.88
 437  10245.34
 438  6518.318
 439  1351.751
 440  -1576.683
 441  6027.598
 442  13872.53
 443  13265.86
 444  10212.82
 445  5858.576
 446  -2565.988
 447  -4489.852
 448  -4458.678
 449  -4047.799
 450  -4495.159
 451  -5261.841
 452  -6626.983
 453  -6657.019
 454  -6370.94
 455  -6014.89
 456  -6520.868
 457  -5976.462
 458  -5643.788
 459  -6350.368
 460  -6741.726
 461  -7346.999
 462  -7118.331
 463  -7239.075
 464  -6434.79
 465  -5589.104
 466  -5756.228
 467  -6600.291
 468  -7361.326
 469  -7250.331
 470  -6768.087
 471  -5727.217
 472  -4919.028
 473  -4408.124
 474  -1665.111
 475  -896.7032
 476  104.3642
 477  346.0028
 478  -1256.799
 479  -2544.334
 480  -4282.921
 481  -1138.056
 482  -363.5061
 483  -551.2927
 484  -2936.205
 485  -4730.524
 486  -5766.325
 487  -6944.958
 488  -6895.654
 489  -5576.455
 490  -5446.118
 491  -5846.318
 492  -5731.964
 493  -6143.826
 494  -5714.611
 495  -4976.372
 496  -4858.316
 497  -4901.471
 498  -4273.566
 499  -4931.41
 500  -5504.96
 501  -5103.156
 502  -5738.128
 503  -691.5571
 504  2182.949
 505  4509.079
 506  7572.08
 507  8849.548
 508  10371.84
 509  6007.044
 510  14741.77
 511  20121.16
