# Input file       =  1198015849.104194-PSRB0329-2ms-sampling-dd.dat
# Candidate        =  PSR_0332+5434
# Telescope        =  AR
# Epoch_topo       =  58109.924399354095
# Epoch_bary       =  N/A
# T_sample         =  0.002
# Data Folded      =  7340032
# Data Avg         =  -8.16547651964675e-10
# Data StdDev      =  5.97183875800965 
# Profile Bins     =  512
# Profile Avg      =  0.0300217388340622
# Profile StdDev   =  715.026387248951 
# Reduced chi-sqr  =  0.471
# Prob(Noise)      <  1   (~0.0 sigma)
# P_topo (ms)      =  714.547977352135  +/- 0.000135
# P'_topo (s/s)    =  -0                +/- 7.12e-11
# P''_topo (s/s^2) =  0                 +/- 3.14e-14
# P_bary (ms)      =  N/A
# P'_bary (s/s)    =  N/A
# P''_bary (s/s^2) =  N/A
# P_orb (s)        =  N/A
# asin(i)/c (s)    =  N/A
# eccentricity     =  N/A
# w (rad)          =  N/A
# T_peri           =  N/A
######################################################
   0  -85.62101
   1  262.0457
   2  -70.12145
   3  -3.185176
   4  -55.68922
   5  -91.54916
   6  -131.6017
   7  -558.0501
   8  -22.10023
   9  -82.66954
  10  194.8993
  11  304.7777
  12  89.26231
  13  -20.7501
  14  8.386134
  15  -162.6008
  16  -292.0463
  17  -464.2649
  18  -467.927
  19  -883.5403
  20  -1192.471
  21  -585.9731
  22  -726.7789
  23  -226.3586
  24  -295.1947
  25  -187.2791
  26  -175.392
  27  -642.465
  28  -674.8892
  29  -718.7352
  30  -281.7714
  31  -266.1077
  32  -525.6641
  33  -134.7234
  34  -155.1555
  35  -563.4102
  36  -712.6887
  37  -466.9193
  38  -259.8023
  39  -1074.946
  40  -740.3644
  41  -312.2796
  42  -39.39036
  43  -132.4805
  44  -159.8939
  45  -181.7099
  46  192.1429
  47  535.3492
  48  576.4443
  49  217.0986
  50  624.2977
  51  580.5261
  52  326.9422
  53  -70.83269
  54  -238.3272
  55  85.77982
  56  -165.1735
  57  -533.1582
  58  -595.6349
  59  -357.6108
  60  -193.7049
  61  -205.126
  62  -211.851
  63  -159.2202
  64  -124.0352
  65  -164.138
  66  162.3993
  67  47.51736
  68  -382.3159
  69  -166.7524
  70  226.9167
  71  323.2033
  72  -182.5958
  73  -350.9752
  74  -253.6236
  75  17.13064
  76  49.99355
  77  -7.785345
  78  62.28161
  79  -290.4749
  80  -131.8543
  81  -321.8859
  82  -223.2912
  83  29.43125
  84  216.4665
  85  -53.51015
  86  -375.3799
  87  -187.173
  88  -394.5613
  89  -768.6973
  90  -148.9517
  91  -228.6405
  92  -0.5742832
  93  -260.4066
  94  -148.151
  95  -245.5282
  96  -437.0327
  97  -62.72505
  98  -230.5504
  99  -162.4763
 100  -172.8074
 101  -257.2745
 102  -246.1766
 103  -190.5381
 104  -263.7758
 105  54.14149
 106  -42.5341
 107  629.3788
 108  408.1459
 109  235.5406
 110  -223.6033
 111  173.6427
 112  279.6881
 113  230.2617
 114  191.8217
 115  162.2381
 116  258.3574
 117  188.3362
 118  -153.7472
 119  -61.79576
 120  -232.7925
 121  -162.5529
 122  -218.2921
 123  301.8478
 124  573.2352
 125  357.3724
 126  -227.4006
 127  -409.6031
 128  -275.9959
 129  -208.144
 130  -145.872
 131  370.4719
 132  554.1345
 133  855.9219
 134  846.4971
 135  327.3343
 136  389.1512
 137  -31.62328
 138  126.8458
 139  302.442
 140  265.9578
 141  483.241
 142  38.14982
 143  71.5313
 144  89.83264
 145  -46.74841
 146  153.9859
 147  140.0264
 148  533.933
 149  364.5798
 150  70.1925
 151  -52.46411
 152  -249.0131
 153  -386.1882
 154  -423.2717
 155  -315.9885
 156  -62.87551
 157  47.76169
 158  182.9751
 159  -20.98758
 160  -287.184
 161  -196.2621
 162  -355.3355
 163  81.53935
 164  530.7283
 165  790.8442
 166  549.7413
 167  275.0045
 168  70.09828
 169  -247.1402
 170  82.9939
 171  -12.53549
 172  133.6535
 173  273.7057
 174  369.7618
 175  117.9391
 176  -374.6883
 177  -147.2361
 178  131.5501
 179  -239.9231
 180  -221.0804
 181  160.1524
 182  183.9939
 183  -165.4784
 184  -441.7294
 185  -119.3148
 186  -293.0728
 187  -796.1876
 188  -940.9158
 189  -680.3937
 190  98.38906
 191  159.1701
 192  -234.6748
 193  -377.2145
 194  -214.8059
 195  -152.0752
 196  -397.09
 197  -54.04058
 198  243.7668
 199  442.6986
 200  11.61718
 201  -464.9988
 202  -310.6228
 203  -331.8288
 204  -440.0258
 205  416.9995
 206  473.9604
 207  510.3148
 208  415.946
 209  -8.116236
 210  -77.03489
 211  -377.6371
 212  -269.1886
 213  -536.5497
 214  -442.6643
 215  -115.8427
 216  -82.11026
 217  356.436
 218  304.9952
 219  429.4311
 220  278.0158
 221  -82.16677
 222  -139.4334
 223  75.1264
 224  176.8047
 225  46.75709
 226  -162.3225
 227  -18.91153
 228  -118.6122
 229  -729.4083
 230  -608.2071
 231  -284.1226
 232  -64.1096
 233  317.7827
 234  261.0702
 235  -505.2397
 236  -1043.311
 237  -656.1686
 238  -81.70653
 239  294.0496
 240  491.1437
 241  352.7848
 242  43.1496
 243  -759.2489
 244  -625.1823
 245  -317.7297
 246  -243.9948
 247  -94.243
 248  -159.0687
 249  128.6729
 250  11.45719
 251  -65.55368
 252  -110.2908
 253  -204.5015
 254  -210.8472
 255  -291.1056
 256  -98.72225
 257  -134.6593
 258  76.09579
 259  387.9829
 260  182.4769
 261  -169.7931
 262  -421.807
 263  -238.6355
 264  78.36338
 265  240.3468
 266  -25.37141
 267  95.32239
 268  73.18156
 269  248.008
 270  -9.631747
 271  -124.2908
 272  229.3266
 273  443.0222
 274  437.9431
 275  473.0337
 276  354.2952
 277  321.3543
 278  94.11992
 279  559.4811
 280  609.0231
 281  1168.742
 282  552.5314
 283  -121.2592
 284  -217.9565
 285  201.2641
 286  96.94541
 287  -216.4072
 288  -132.5483
 289  -152.1133
 290  81.95911
 291  24.4957
 292  14.70597
 293  18.31156
 294  -173.5634
 295  -123.4975
 296  -118.3808
 297  -26.41141
 298  366.119
 299  274.6589
 300  171.8497
 301  155.3094
 302  170.8384
 303  -209.7812
 304  -179.3715
 305  -121.3412
 306  78.53725
 307  44.01892
 308  238.9467
 309  290.1863
 310  -2.817898
 311  104.7064
 312  204.7912
 313  381.9844
 314  367.722
 315  631.7297
 316  574.6144
 317  418.9868
 318  423.6288
 319  492.0318
 320  353.1434
 321  184.1677
 322  70.22301
 323  527.5393
 324  114.0683
 325  -99.94127
 326  -45.01224
 327  -227.3121
 328  58.7417
 329  -143.9499
 330  -115.6156
 331  351.237
 332  540.4503
 333  169.0137
 334  235.7225
 335  100.7431
 336  -57.51509
 337  -70.23315
 338  627.6644
 339  800.9155
 340  781.2913
 341  453.0252
 342  -162.4941
 343  -60.22232
 344  -114.8926
 345  -110.4925
 346  -11.60273
 347  76.22163
 348  633.0522
 349  55.58348
 350  -112.7824
 351  462.7299
 352  542.9811
 353  409.8889
 354  150.8862
 355  357.784
 356  411.0731
 357  482.1576
 358  536.4189
 359  377.9424
 360  48.54176
 361  -16.18431
 362  506.0679
 363  354.154
 364  337.2368
 365  91.6822
 366  -208.7971
 367  83.46331
 368  -105.6248
 369  -439.0676
 370  -476.0021
 371  -167.7482
 372  -422.1196
 373  -72.7574
 374  124.2277
 375  61.08848
 376  -315.877
 377  -323.9636
 378  -357.5135
 379  -527.636
 380  -419.7115
 381  -197.3363
 382  -502.3634
 383  -705.8152
 384  -752.2994
 385  -407.1476
 386  -1011.882
 387  -827.0223
 388  -481.8822
 389  -453.0906
 390  -262.2514
 391  -433.642
 392  -113.1448
 393  -495.8942
 394  -579.6681
 395  -165.1933
 396  -9.761267
 397  165.8416
 398  -23.57851
 399  99.16958
 400  184.8802
 401  607.6176
 402  672.5915
 403  -183.0386
 404  -43.91159
 405  279.1473
 406  769.5459
 407  297.0641
 408  247.7665
 409  205.605
 410  37.16475
 411  -262.4758
 412  348.0815
 413  252.1018
 414  -123.2353
 415  172.1541
 416  159.0575
 417  487.7527
 418  505.8632
 419  227.3339
 420  539.0203
 421  318.7113
 422  429.719
 423  342.1413
 424  441.1969
 425  -40.07044
 426  -100.8694
 427  -124.0213
 428  -333.5172
 429  316.9244
 430  424.8954
 431  391.8372
 432  539.8665
 433  622.3787
 434  702.7528
 435  -40.22504
 436  -420.7791
 437  -484.5198
 438  -409.1611
 439  413.7365
 440  549.5885
 441  878.9963
 442  516.7015
 443  -25.63601
 444  -532.2222
 445  -888.8167
 446  56.50301
 447  369.7686
 448  308.4899
 449  173.2534
 450  152.3255
 451  33.57809
 452  -298.8927
 453  -565.3339
 454  -224.2879
 455  -76.2211
 456  -24.13232
 457  -109.3505
 458  -238.6775
 459  136.1508
 460  -346.253
 461  -115.3594
 462  -163.812
 463  -31.25641
 464  114.7911
 465  -310.3983
 466  -183.1606
 467  22.0654
 468  378.1066
 469  263.7599
 470  -30.2764
 471  291.262
 472  -250.455
 473  328.251
 474  257.8497
 475  201.8203
 476  599.8187
 477  770.8001
 478  665.5521
 479  133.3816
 480  100.6422
 481  -14.6733
 482  -298.7373
 483  -125.142
 484  67.06234
 485  -93.01558
 486  -266.8502
 487  -463.3893
 488  -202.8421
 489  -56.9176
 490  -31.45153
 491  184.3779
 492  -19.305
 493  320.4078
 494  194.7781
 495  184.0871
 496  315.4505
 497  -268.8352
 498  197.4081
 499  129.3891
 500  643.8642
 501  414.639
 502  384.9634
 503  313.7219
 504  -490.4775
 505  -99.97888
 506  258.3247
 507  467.0488
 508  591.3909
 509  92.84253
 510  -133.3846
 511  -565.7874
