# Input file       =  1198503255.12908_cleaned.dat
# Candidate        =  PSR_0332+5434
# Telescope        =  AR
# Epoch_topo       =  58115.565672790275
# Epoch_bary       =  N/A
# T_sample         =  0.002
# Data Folded      =  7471104
# Data Avg         =  0.0195309237148125
# Data StdDev      =  1.0000681900895  
# Profile Bins     =  512
# Profile Avg      =  284.950709000256 
# Profile StdDev   =  120.805588146506 
# Reduced chi-sqr  =  1.120
# Prob(Noise)      <  0.0308   (~1.9 sigma)
# P_topo (ms)      =  714.552767249434  +/- 0.00017
# P'_topo (s/s)    =  -0                +/- 8.81e-11
# P''_topo (s/s^2) =  0                 +/- 3.82e-14
# P_bary (ms)      =  N/A
# P'_bary (s/s)    =  N/A
# P''_bary (s/s^2) =  N/A
# P_orb (s)        =  N/A
# asin(i)/c (s)    =  N/A
# eccentricity     =  N/A
# w (rad)          =  N/A
# T_peri           =  N/A
######################################################
   0  167.1451
   1  322.7144
   2  324.8011
   3  140.2832
   4  321.6568
   5  367.6918
   6  386.5848
   7  339.5007
   8  326.6246
   9  257.3343
  10  340.9994
  11  408.5294
  12  436.7792
  13  406.2309
  14  360.1422
  15  182.8374
  16  214.2042
  17  337.7296
  18  478.9072
  19  403.5556
  20  182.9509
  21  137.2511
  22  169.3619
  23  200.8327
  24  282.5668
  25  254.4259
  26  393.9709
  27  357.6569
  28  332.6989
  29  343.7431
  30  342.0586
  31  369.2931
  32  252.1994
  33  142.9199
  34  131.8207
  35  362.2852
  36  441.6137
  37  300.5144
  38  340.4886
  39  276.4924
  40  208.6817
  41  219.9989
  42  245.7764
  43  224.9985
  44  81.34502
  45  163.1026
  46  320.3982
  47  284.5653
  48  223.2075
  49  254.1759
  50  292.3854
  51  214.0995
  52  354.5002
  53  264.6845
  54  351.9687
  55  324.3089
  56  352.3455
  57  257.3039
  58  283.0868
  59  181.1646
  60  379.82
  61  346.1205
  62  274.8114
  63  207.7595
  64  362.2744
  65  258.8494
  66  136.7762
  67  148.5546
  68  120.9042
  69  140.9157
  70  241.2587
  71  247.5116
  72  333.4495
  73  373.5516
  74  428.7772
  75  178.4505
  76  223.9341
  77  359.543
  78  210.4724
  79  313.0257
  80  365.6587
  81  208.7906
  82  106.2325
  83  222.7504
  84  317.7108
  85  260.8236
  86  302.7077
  87  173.2506
  88  146.4438
  89  171.9127
  90  276.2283
  91  279.0135
  92  210.3465
  93  233.8176
  94  159.2146
  95  246.86
  96  199.129
  97  196.7108
  98  161.4717
  99  213.861
 100  202.3587
 101  123.9684
 102  152.0321
 103  290.335
 104  309.8734
 105  240.1979
 106  303.9977
 107  253.872
 108  164.607
 109  248.9277
 110  265.2397
 111  256.0537
 112  325.5497
 113  263.9425
 114  230.8529
 115  153.5159
 116  260.7929
 117  252.8568
 118  379.9835
 119  206.1731
 120  363.2483
 121  312.7896
 122  150.8184
 123  357.3463
 124  392.1897
 125  317.2232
 126  260.2945
 127  200.1184
 128  269.4696
 129  384.5268
 130  244.1075
 131  135.9466
 132  93.8082
 133  282.8682
 134  251.2975
 135  107.3582
 136  79.81502
 137  173.0175
 138  190.3289
 139  165.056
 140  265.2445
 141  248.2986
 142  431.0001
 143  349.2222
 144  159.381
 145  167.1512
 146  328.4597
 147  315.324
 148  310.5574
 149  432.3696
 150  358.0177
 151  301.3211
 152  277.1676
 153  193.3073
 154  318.5451
 155  294.4182
 156  265.4766
 157  382.7606
 158  230.6645
 159  225.2313
 160  198.6047
 161  180.5651
 162  262.0185
 163  229.3755
 164  320.0101
 165  299.4822
 166  237.445
 167  208.4473
 168  272.2481
 169  196.1949
 170  264.3718
 171  376.2554
 172  301.5454
 173  331.9772
 174  306.9136
 175  162.3914
 176  241.733
 177  171.619
 178  172.3764
 179  268.6461
 180  235.0154
 181  219.3732
 182  349.2016
 183  234.0028
 184  237.0859
 185  238.8443
 186  415.3664
 187  309.3331
 188  233.1266
 189  171.8933
 190  149.5026
 191  275.3268
 192  394.5417
 193  322.3736
 194  289.8196
 195  244.8002
 196  245.7518
 197  421.0726
 198  533.5021
 199  368.4049
 200  323.4493
 201  354.4323
 202  347.0773
 203  299.082
 204  296.2262
 205  290.4167
 206  209.7426
 207  340.7352
 208  314.346
 209  307.8176
 210  322.16
 211  218.3623
 212  306.8859
 213  278.8949
 214  269.7919
 215  319.0188
 216  242.0272
 217  184.9816
 218  151.9144
 219  207.5789
 220  181.4862
 221  99.96059
 222  176.982
 223  284.9632
 224  318.8795
 225  173.3839
 226  272.0131
 227  342.7171
 228  309.7771
 229  99.2417
 230  122.5927
 231  263.6587
 232  225.6794
 233  365.9454
 234  332.409
 235  261.1489
 236  242.9061
 237  359.0857
 238  379.1541
 239  393.9763
 240  223.0303
 241  281.849
 242  296.2009
 243  99.40148
 244  134.9758
 245  257.946
 246  267.7591
 247  272.4564
 248  298.7447
 249  331.8531
 250  333.9924
 251  200.8119
 252  196.7612
 253  196.8772
 254  271.0808
 255  296.8662
 256  271.7324
 257  261.7121
 258  346.9918
 259  340.946
 260  222.8092
 261  329.4767
 262  304.9155
 263  317.4899
 264  208.1858
 265  214.6341
 266  269.9759
 267  189.6502
 268  279.2189
 269  355.656
 270  307.146
 271  262.0025
 272  274.9407
 273  379.9118
 274  403.0233
 275  403.0703
 276  365.1452
 277  260.7281
 278  323.01
 279  363.1887
 280  298.4997
 281  257.8637
 282  478.0286
 283  394.1028
 284  356.2563
 285  454.1511
 286  456.2944
 287  510.8045
 288  420.158
 289  470.526
 290  575.6319
 291  619.9888
 292  758.1711
 293  759.3939
 294  653.228
 295  675.2392
 296  490.2129
 297  268.2803
 298  82.82064
 299  192.2138
 300  297.8334
 301  367.034
 302  382.5506
 303  375.3656
 304  362.4566
 305  329.1767
 306  351.1201
 307  385.9711
 308  327.1288
 309  274.2825
 310  204.979
 311  156.122
 312  259.2267
 313  267.7587
 314  323.7465
 315  246.1132
 316  215.0277
 317  174.4043
 318  235.4281
 319  333.1117
 320  381.9288
 321  271.2938
 322  154.9153
 323  218.8494
 324  154.6614
 325  182.7849
 326  161.4906
 327  305.1362
 328  284.499
 329  394.2663
 330  372.6254
 331  371.8306
 332  211.5581
 333  210.6091
 334  256.3745
 335  237.6063
 336  235.466
 337  260.1025
 338  351.4181
 339  369.8472
 340  256.9479
 341  239.5167
 342  222.5462
 343  345.553
 344  250.1461
 345  405.2031
 346  382.5564
 347  234.8263
 348  226.5311
 349  177.3063
 350  187.3169
 351  249.0341
 352  249.1689
 353  365.024
 354  384.6674
 355  216.3256
 356  280.3496
 357  325.6375
 358  282.3966
 359  363.6814
 360  337.5556
 361  313.5875
 362  324.4881
 363  329.0279
 364  418.6284
 365  246.1496
 366  307.0569
 367  187.3872
 368  146.1571
 369  195.0796
 370  225.3174
 371  287.075
 372  355.632
 373  285.4978
 374  178.2979
 375  303.8886
 376  324.9048
 377  435.1922
 378  498.429
 379  362.2976
 380  434.1253
 381  372.7049
 382  224.7923
 383  220.5182
 384  144.8319
 385  159.823
 386  320.7651
 387  320.1895
 388  264.4132
 389  334.7967
 390  317.133
 391  371.9599
 392  279.912
 393  404.9857
 394  387.9392
 395  336.2814
 396  314.6783
 397  316.3479
 398  364.7641
 399  275.5863
 400  301.2761
 401  313.7349
 402  394.4612
 403  209.9781
 404  255.4386
 405  363.4136
 406  357.7268
 407  194.2848
 408  169.3009
 409  379.4804
 410  287.0779
 411  166.6899
 412  218.4325
 413  345.0074
 414  215.8815
 415  33.4677
 416  194.8457
 417  239.9729
 418  278.5038
 419  345.5941
 420  313.7999
 421  286.4506
 422  344.1813
 423  273.3374
 424  191.6416
 425  216.4909
 426  233.6879
 427  212.3592
 428  250.1451
 429  253.8737
 430  367.6106
 431  313.7827
 432  237.9396
 433  303.2148
 434  373.8046
 435  349.1071
 436  324.9487
 437  291.0092
 438  290.2022
 439  354.4149
 440  317.3683
 441  256.1998
 442  346.2048
 443  351.936
 444  397.6352
 445  500.6229
 446  406.7039
 447  187.9617
 448  178.4485
 449  211.6729
 450  314.0981
 451  287.6888
 452  300.7383
 453  338.7072
 454  314.9479
 455  238.6119
 456  191.5044
 457  158.742
 458  261.1056
 459  229.9044
 460  410.9938
 461  276.5796
 462  184.7478
 463  255.3781
 464  269.4891
 465  277.3311
 466  310.2139
 467  369.2453
 468  332.2162
 469  338.2181
 470  228.7461
 471  290.0752
 472  301.8693
 473  183.3275
 474  265.703
 475  337.9178
 476  314.6463
 477  303.0074
 478  411.0157
 479  404.7667
 480  350.471
 481  262.4197
 482  338.4702
 483  100.0966
 484  143.3148
 485  165.9274
 486  316.6328
 487  405.6938
 488  382.2528
 489  343.0488
 490  388.1346
 491  415.4526
 492  323.9179
 493  331.6071
 494  277.0038
 495  287.8674
 496  357.5078
 497  298.7154
 498  270.893
 499  211.3645
 500  253.5756
 501  172.7713
 502  280.6203
 503  267.218
 504  267.9936
 505  254.7164
 506  300.1372
 507  308.4323
 508  249.2168
 509  338.1654
 510  418.6565
 511  259.2109
