# Input file       =  1198604022.114768_cleaned.dat
# Candidate        =  PSR_0332+5434
# Telescope        =  AR
# Epoch_topo       =  58116.731957346856
# Epoch_bary       =  N/A
# T_sample         =  0.002
# Data Folded      =  7340032
# Data Avg         =  0.215981151826522
# Data StdDev      =  5.47812712940709 
# Profile Bins     =  512
# Profile Avg      =  3095.26492191807 
# Profile StdDev   =  655.912794861848 
# Reduced chi-sqr  =  0.412
# Prob(Noise)      <  1   (~0.0 sigma)
# P_topo (ms)      =  714.553813888299  +/- 0.000936
# P'_topo (s/s)    =  -0                +/- 4.94e-10
# P''_topo (s/s^2) =  0                 +/- 2.18e-13
# P_bary (ms)      =  N/A
# P'_bary (s/s)    =  N/A
# P''_bary (s/s^2) =  N/A
# P_orb (s)        =  N/A
# asin(i)/c (s)    =  N/A
# eccentricity     =  N/A
# w (rad)          =  N/A
# T_peri           =  N/A
######################################################
   0  3038.861
   1  3103.658
   2  3046.811
   3  3061.423
   4  3052.698
   5  2705.336
   6  2918.944
   7  3137.221
   8  3097.233
   9  3260.008
  10  3258.726
  11  2751.86
  12  2670.01
  13  3135.331
  14  3166.607
  15  3187.956
  16  3210.147
  17  3195.613
  18  3202.749
  19  3201.778
  20  3116.421
  21  2932.082
  22  3009.563
  23  3070.122
  24  2995.701
  25  3029.915
  26  3401.307
  27  3052.137
  28  3111.36
  29  3644.959
  30  3561.317
  31  3407.758
  32  3170.335
  33  3061.82
  34  3102.156
  35  2928
  36  2999.106
  37  3480.901
  38  3313.303
  39  3178.851
  40  3330.08
  41  3083.482
  42  2814.761
  43  3010.348
  44  3389.538
  45  3213.277
  46  3131.619
  47  3397.732
  48  3285.098
  49  3072.962
  50  3343.156
  51  3363.456
  52  3313.135
  53  3225.123
  54  3424.649
  55  3427.579
  56  3361.78
  57  3036.4
  58  3037.407
  59  3320.379
  60  3428.299
  61  3646.138
  62  3514.887
  63  3314.596
  64  3058.626
  65  2817.189
  66  2972.02
  67  3058.688
  68  2965.783
  69  2754.764
  70  2900.59
  71  2910.801
  72  2548.594
  73  2827.979
  74  3376.255
  75  3673.006
  76  3555.778
  77  3206.057
  78  2938.416
  79  2619.426
  80  2780.398
  81  3132.557
  82  3213.984
  83  2996.071
  84  3029.929
  85  2855.06
  86  2801.096
  87  2764.294
  88  2693.481
  89  2673.728
  90  2760.226
  91  2818.919
  92  2836.477
  93  2809.547
  94  2699.79
  95  2893.657
  96  2764.135
  97  3164.662
  98  3234.593
  99  3107.747
 100  2773.287
 101  3140.886
 102  3423.635
 103  3239.196
 104  3139.608
 105  3034.108
 106  3428.099
 107  3535.658
 108  3479.517
 109  3505.757
 110  3406.619
 111  3481.624
 112  3634.98
 113  3394.342
 114  3138.42
 115  3051.049
 116  2891.692
 117  3258.729
 118  2941.55
 119  3020.551
 120  2999.83
 121  2941.028
 122  2797.27
 123  3043.911
 124  3241.162
 125  3294.899
 126  2923.837
 127  2944.948
 128  3123.439
 129  2837.612
 130  2742.976
 131  2946.79
 132  3386.062
 133  3583.306
 134  3421.068
 135  3315.048
 136  3042.765
 137  3016.005
 138  2863.752
 139  2844.022
 140  3012.581
 141  2997.74
 142  3428.101
 143  3411.268
 144  3188.879
 145  3335.351
 146  3218.314
 147  3182.39
 148  2625.792
 149  2750.622
 150  2763.21
 151  3065.584
 152  3420.656
 153  2850.968
 154  2739.913
 155  2585.157
 156  2905.074
 157  3328.382
 158  3085.895
 159  3074.215
 160  3114.112
 161  3153.186
 162  3272.885
 163  3524.071
 164  3497.195
 165  3292.964
 166  3107.031
 167  2790.454
 168  2932.504
 169  2792.873
 170  2862.335
 171  2664.303
 172  2732.359
 173  2790.278
 174  2814.727
 175  2843.566
 176  3437.653
 177  3563.817
 178  3378.667
 179  3385.817
 180  3321.818
 181  2960.635
 182  2849.203
 183  2940.307
 184  3227.077
 185  3200.784
 186  3193.521
 187  3342.415
 188  3439.152
 189  2905.416
 190  2882.491
 191  2546.477
 192  2574.7
 193  2770.167
 194  2829.67
 195  3260.602
 196  3046.727
 197  3130.952
 198  3243.582
 199  3462.94
 200  3584.457
 201  3206.604
 202  3326.233
 203  3367.555
 204  3443.475
 205  3502.267
 206  3093.104
 207  2856.419
 208  2843.766
 209  2932.061
 210  2976.347
 211  2530.119
 212  2732.341
 213  2790.884
 214  3045.293
 215  2818.204
 216  2452.691
 217  2449.916
 218  2764.277
 219  2982.753
 220  2856.314
 221  2838.328
 222  2491.234
 223  2943.02
 224  2827.383
 225  3252.652
 226  3200.531
 227  3018.194
 228  2942.883
 229  3034.948
 230  2767.039
 231  2816.965
 232  3241.048
 233  3214.667
 234  2892.438
 235  2407.177
 236  2609.983
 237  2548.566
 238  2719.013
 239  2710.328
 240  2771.382
 241  2823.455
 242  3019.409
 243  3049.186
 244  2912.081
 245  2781.197
 246  2908.145
 247  3100.081
 248  3418.003
 249  3714.108
 250  3489.928
 251  3063.724
 252  2646.496
 253  2531.43
 254  2540.044
 255  2457.62
 256  2666.245
 257  2866.01
 258  3283.484
 259  3301.952
 260  3058.625
 261  2918.673
 262  3321.366
 263  3421.168
 264  3347.757
 265  3438.869
 266  3177.077
 267  3370.333
 268  3085.132
 269  3087.272
 270  3317.24
 271  2900.065
 272  2936.451
 273  3215.228
 274  2845.92
 275  3118.802
 276  3262.99
 277  3061.514
 278  2849.165
 279  3034.568
 280  3311.61
 281  3122.958
 282  3216.283
 283  3220.456
 284  3086.434
 285  3256.825
 286  3124.007
 287  2840.018
 288  2896.39
 289  3062.116
 290  3253.104
 291  2978.189
 292  3227.931
 293  3372.463
 294  3199.412
 295  3302.02
 296  3284.068
 297  3172.474
 298  3037.438
 299  3174.168
 300  3284.077
 301  3076.99
 302  3023.542
 303  3176.704
 304  3237.24
 305  2899.979
 306  3003.752
 307  2896.946
 308  2655.887
 309  2494.925
 310  2984.71
 311  3192.371
 312  3736.222
 313  3394.47
 314  3296.293
 315  3027.412
 316  2525.413
 317  2893.406
 318  3093.625
 319  3307.658
 320  3627.351
 321  3556.632
 322  2840.262
 323  2656.184
 324  2945.235
 325  2775.404
 326  2990.195
 327  3433.539
 328  3785.083
 329  3542.201
 330  3022.565
 331  2676.892
 332  2968.684
 333  3163.801
 334  3281.687
 335  3300.113
 336  3499.558
 337  3404.762
 338  3311.807
 339  3234.9
 340  3176.896
 341  3312.652
 342  3705.332
 343  4097.175
 344  4397.041
 345  4401.807
 346  4209.285
 347  3581.178
 348  3713.499
 349  3480.64
 350  3232.036
 351  3193.401
 352  3032.667
 353  2947.16
 354  3048.569
 355  3565.593
 356  3397.813
 357  3330.396
 358  2924.72
 359  2678.078
 360  2923.092
 361  3241.743
 362  3259.164
 363  3289.108
 364  3186.523
 365  2728.226
 366  2691.856
 367  2782.548
 368  2996.888
 369  3364.168
 370  3170.177
 371  2930.93
 372  3126.5
 373  2920.064
 374  2878.353
 375  3144.426
 376  3087.193
 377  2925.633
 378  3108.337
 379  3089.239
 380  3011.812
 381  2877.244
 382  2826.067
 383  3209.421
 384  3153.451
 385  3645.8
 386  3550.281
 387  3088.919
 388  3147.356
 389  3145.021
 390  3145.33
 391  2939.98
 392  3320.638
 393  3183.701
 394  3252.39
 395  3353.024
 396  3023.214
 397  3081.832
 398  3036.762
 399  2933.45
 400  3171.531
 401  3473.998
 402  3329.741
 403  3126.898
 404  3317.415
 405  3554.68
 406  3622.735
 407  3767.992
 408  3895.365
 409  3381.136
 410  3214.68
 411  2925.791
 412  2762.865
 413  3187.35
 414  3022.516
 415  2673.116
 416  2837.911
 417  2784.138
 418  2730.894
 419  2422.986
 420  2502.169
 421  2725.779
 422  2477.712
 423  2787.565
 424  2755.989
 425  2489.987
 426  2683.377
 427  2893.297
 428  3219.284
 429  3283.918
 430  3074.793
 431  2756.743
 432  2726.88
 433  2780.721
 434  3027.926
 435  3039.636
 436  2820.851
 437  3108.896
 438  2896.624
 439  2779.195
 440  2690.856
 441  2751.324
 442  2546.913
 443  2417.418
 444  2645.791
 445  2813.149
 446  2909.587
 447  2794.715
 448  2983.749
 449  2834.123
 450  2667.386
 451  2988.816
 452  3151.946
 453  3016.252
 454  2857.809
 455  2852.78
 456  3322.434
 457  3386.868
 458  3340.791
 459  3151.676
 460  3350.845
 461  3184.125
 462  3186.363
 463  3316.954
 464  3331.277
 465  3103.145
 466  2976.109
 467  2822.943
 468  3067.144
 469  3092.943
 470  3112.365
 471  3127.601
 472  3289.441
 473  2721.49
 474  2494.144
 475  2418.043
 476  2883.464
 477  3018.35
 478  3295.182
 479  3387.068
 480  2989.522
 481  2991.829
 482  2835.469
 483  2813.116
 484  2849.154
 485  3305.143
 486  3871.134
 487  3805.454
 488  3860.656
 489  3661.819
 490  3538.07
 491  3526.462
 492  3694.664
 493  3989.802
 494  3564.753
 495  3343.211
 496  3447.989
 497  3262.759
 498  3125.01
 499  2857.192
 500  2837.635
 501  3081.547
 502  3182.823
 503  3222.024
 504  3360.799
 505  3182.061
 506  3055.097
 507  3166.729
 508  3175.671
 509  2874.044
 510  3204.411
 511  3115.97
