# Input file       =  1198274299.108217_cleaned.dat
# Candidate        =  PSR_0332+5434
# Telescope        =  AR
# Epoch_topo       =  58112.915718845106
# Epoch_bary       =  N/A
# T_sample         =  0.002
# Data Folded      =  7340032
# Data Avg         =  0.272655585788016
# Data StdDev      =  5.18672768239406 
# Profile Bins     =  512
# Profile Avg      =  3908.80338803021 
# Profile StdDev   =  621.022654272468 
# Reduced chi-sqr  =  0.531
# Prob(Noise)      <  1   (~0.0 sigma)
# P_topo (ms)      =  714.550747445688  +/- 0.000472
# P'_topo (s/s)    =  -0                +/- 2.49e-10
# P''_topo (s/s^2) =  0                 +/- 1.1e-13
# P_bary (ms)      =  N/A
# P'_bary (s/s)    =  N/A
# P''_bary (s/s^2) =  N/A
# P_orb (s)        =  N/A
# asin(i)/c (s)    =  N/A
# eccentricity     =  N/A
# w (rad)          =  N/A
# T_peri           =  N/A
######################################################
   0  4136.654
   1  3812.45
   2  3864.195
   3  3779.484
   4  3559.413
   5  4074.403
   6  4221.023
   7  4112.874
   8  3851.493
   9  3909.526
  10  4079.685
  11  3689.638
  12  3912.688
  13  4110.343
  14  4090.085
  15  4164.274
  16  4268.791
  17  4230.403
  18  4312.503
  19  3828.534
  20  4026.824
  21  3739.296
  22  3913.531
  23  4100.046
  24  4158.085
  25  4488.065
  26  4222.857
  27  4343.114
  28  4166.582
  29  3889.476
  30  3879.049
  31  3782.708
  32  3669.054
  33  4109.808
  34  4056.289
  35  3343.893
  36  3573.854
  37  3607.681
  38  3870.322
  39  3889.855
  40  3775.048
  41  3746.341
  42  3371.528
  43  3710.832
  44  3661.462
  45  3943.519
  46  4016.974
  47  3740.105
  48  3851.48
  49  4168.432
  50  4113.273
  51  3419.409
  52  3736.202
  53  3628.391
  54  3750.147
  55  3860.121
  56  3637.757
  57  3803.097
  58  3568.297
  59  3512
  60  3676.682
  61  3976.365
  62  3813.44
  63  3747.572
  64  3698.076
  65  3369.462
  66  3724.288
  67  4164.227
  68  4258.922
  69  3852.987
  70  3815.494
  71  3307.467
  72  3296.549
  73  3624.029
  74  4197.577
  75  4383.807
  76  4488.18
  77  4249.65
  78  4233.936
  79  4278.965
  80  4014.417
  81  3856.312
  82  3932.068
  83  4302.67
  84  4234.188
  85  4184.876
  86  4120.655
  87  3916.603
  88  4185.601
  89  4402.894
  90  4261.74
  91  4244.03
  92  4153.74
  93  3874.794
  94  4183.863
  95  4043.729
  96  4175.555
  97  3894.849
  98  3887.252
  99  4011.405
 100  4176.211
 101  4172.251
 102  4154.71
 103  4222.686
 104  4077.58
 105  3816.585
 106  3901.819
 107  4616.886
 108  4514.098
 109  4563.426
 110  4457.303
 111  4525.265
 112  4279.73
 113  4355.308
 114  4377.2
 115  4080.846
 116  4196.028
 117  4161.583
 118  3914.404
 119  3621.822
 120  3542.435
 121  3853.447
 122  3857.89
 123  4221.843
 124  4089.809
 125  3853.674
 126  3607.218
 127  3851.165
 128  3745.594
 129  3898.645
 130  3517.664
 131  3472.355
 132  3864.818
 133  3895.329
 134  4072.526
 135  3730.34
 136  3666.641
 137  3159.29
 138  3204.245
 139  3350.095
 140  3511.066
 141  4039.919
 142  4363.944
 143  4270.368
 144  4364.125
 145  3689.49
 146  3541.692
 147  3748.284
 148  3353.534
 149  3656.181
 150  3737.753
 151  3540.006
 152  3748.51
 153  3656.655
 154  3652.879
 155  3532.199
 156  3841.837
 157  3439.173
 158  3550.907
 159  3550.983
 160  3443.297
 161  3690.398
 162  4072.943
 163  4181.065
 164  3792.572
 165  3591.676
 166  3892.096
 167  4010.777
 168  4040.749
 169  3617.789
 170  3751.25
 171  3886.434
 172  3658.12
 173  3574.094
 174  3859.932
 175  3931.415
 176  4100.884
 177  4400.607
 178  4042.049
 179  3925.292
 180  3986.8
 181  4350.15
 182  4212.538
 183  3998.809
 184  3838.053
 185  3778.021
 186  4003.225
 187  3650.229
 188  3673.961
 189  3979.148
 190  4183.534
 191  4234.561
 192  4039.16
 193  3950.5
 194  3909.012
 195  3839.932
 196  4006.534
 197  4119.217
 198  4228.073
 199  4472.969
 200  4368.992
 201  3867.19
 202  4044.784
 203  3871.926
 204  3678.315
 205  3514.341
 206  3769.525
 207  3446.225
 208  3342.138
 209  3685.601
 210  3446.025
 211  3464.148
 212  3648.044
 213  3837.977
 214  3982.893
 215  4106.163
 216  3767.912
 217  3295.173
 218  3470.483
 219  3214.777
 220  3627.851
 221  3548.346
 222  3464.897
 223  3741.317
 224  3499.223
 225  3805.067
 226  4041.729
 227  3784.363
 228  4105.86
 229  3874.444
 230  4229.359
 231  4032.601
 232  4069.469
 233  4139.803
 234  4271.837
 235  4019.33
 236  3875.042
 237  3667.897
 238  3811.502
 239  3791.072
 240  3718.75
 241  3722.816
 242  4015.606
 243  4338.708
 244  4542.493
 245  4298.832
 246  3935.955
 247  4255.349
 248  4198.3
 249  3848.895
 250  4014.58
 251  4156.07
 252  4128.175
 253  3944.402
 254  3986.432
 255  4000.152
 256  3511.149
 257  3594.344
 258  3810.212
 259  3745.7
 260  3553.836
 261  3882.725
 262  4205.74
 263  4102.078
 264  3496.496
 265  3577.053
 266  3825.098
 267  4008.05
 268  4177.163
 269  4078.973
 270  4250.204
 271  3985.912
 272  4077.304
 273  3913.552
 274  4170.24
 275  4033.947
 276  3960.33
 277  4065.008
 278  3956.947
 279  4050.353
 280  3937.331
 281  3926.626
 282  3806.752
 283  3908.707
 284  3561.352
 285  3585.125
 286  3918.205
 287  3905.382
 288  3721.08
 289  3304.912
 290  3524.91
 291  3974.181
 292  4135.313
 293  4008.042
 294  3818.822
 295  3893.639
 296  3770.426
 297  4062.677
 298  4339.209
 299  4203.895
 300  3727.652
 301  3873.147
 302  3911.724
 303  4224.132
 304  4102.294
 305  4011.762
 306  4145.91
 307  4199.455
 308  4341.959
 309  4729.857
 310  5179.229
 311  5359.505
 312  5179.584
 313  5444.59
 314  4797.005
 315  3820.585
 316  3881.761
 317  4318.704
 318  4329.321
 319  4380.847
 320  4493.988
 321  4176.414
 322  4204.018
 323  4483.415
 324  4368.132
 325  4155.603
 326  4281.493
 327  4087.84
 328  4282.227
 329  4597.195
 330  4702.861
 331  4546.169
 332  3893.509
 333  3766.725
 334  3698.062
 335  3791.402
 336  3618.688
 337  3794.81
 338  3778.908
 339  3629.435
 340  3475.139
 341  3588.948
 342  3568.686
 343  3988.872
 344  4277.659
 345  3951.626
 346  3786.24
 347  3811.166
 348  3743.068
 349  3758.462
 350  3875.832
 351  4168.607
 352  3911.932
 353  3731.598
 354  3793.982
 355  3656.705
 356  3464.373
 357  3515.116
 358  3794.16
 359  3527.803
 360  3632.805
 361  3602.997
 362  3851.814
 363  3661.583
 364  3472.995
 365  3492.579
 366  3375.829
 367  3720.994
 368  3674.686
 369  4268.418
 370  3646.508
 371  3714.066
 372  4154.794
 373  4463.75
 374  4070.872
 375  4174.765
 376  4325.067
 377  4457.417
 378  4057.51
 379  3994.608
 380  4203.223
 381  4200.333
 382  3916.245
 383  3840.575
 384  3292.036
 385  3748.274
 386  4032.669
 387  4423.465
 388  4275.316
 389  4009.037
 390  3806.887
 391  3535.484
 392  3651.168
 393  3744.782
 394  3907.148
 395  3844.447
 396  4049.566
 397  4264.379
 398  4357.773
 399  3936.536
 400  3878.259
 401  4015.909
 402  3657.799
 403  4011.319
 404  3924.419
 405  3836.521
 406  3970.582
 407  4089.621
 408  3790.388
 409  3809.633
 410  3807.185
 411  3611.208
 412  3570.608
 413  3790.532
 414  3707.75
 415  3989.099
 416  3864.086
 417  3827.762
 418  3740.908
 419  3627.92
 420  3496.1
 421  3720.208
 422  3625.317
 423  3847.093
 424  3946.685
 425  4180.805
 426  3892.049
 427  3525.556
 428  3803.59
 429  3741.525
 430  3574.703
 431  3178.813
 432  2835.229
 433  2929.561
 434  3273.4
 435  3405.334
 436  3959.607
 437  4076.381
 438  3575.712
 439  3455.296
 440  3575.114
 441  3237.219
 442  3173.011
 443  3358.958
 444  3641.767
 445  3306.23
 446  3263.874
 447  3513.585
 448  3683.276
 449  3628.089
 450  3544.413
 451  3806.974
 452  3550.817
 453  3323.345
 454  3344.8
 455  3711.709
 456  3569.012
 457  3541.343
 458  3840.125
 459  3959.486
 460  4016.986
 461  4308.121
 462  4007.431
 463  4118.603
 464  4100.236
 465  3976.872
 466  4056.599
 467  4008.131
 468  4098.201
 469  3983.121
 470  3665.761
 471  3808.587
 472  3587.941
 473  3600.366
 474  3869.697
 475  4036.529
 476  3798.351
 477  4269.041
 478  4376.022
 479  4059.078
 480  3757.157
 481  3826.111
 482  4144.662
 483  4121.796
 484  3996.052
 485  4192.06
 486  3906.565
 487  3719.317
 488  4091.979
 489  3916.208
 490  3624.976
 491  3520.841
 492  4154.7
 493  4189.561
 494  4035.044
 495  4113.804
 496  3780.005
 497  3733.886
 498  3466.257
 499  3583.699
 500  3952.146
 501  4015.926
 502  3991.452
 503  4072.004
 504  4087.089
 505  3767.751
 506  3504.165
 507  3771.346
 508  4629.923
 509  4546.474
 510  4429.674
 511  4319.653
