# Input file       =  1198518415.115674_cleaned.dat
# Candidate        =  PSR_0332+5434
# Telescope        =  AR
# Epoch_topo       =  58115.741135598080
# Epoch_bary       =  N/A
# T_sample         =  0.002
# Data Folded      =  7340032
# Data Avg         =  0.0287873449729789
# Data StdDev      =  1.00001633620296 
# Profile Bins     =  512
# Profile Avg      =  412.666066220939 
# Profile StdDev   =  119.734992359949 
# Reduced chi-sqr  =  1.070
# Prob(Noise)      <  0.134   (~1.1 sigma)
# P_topo (ms)      =  714.552952846422  +/- 0.000491
# P'_topo (s/s)    =  -0                +/- 2.59e-10
# P''_topo (s/s^2) =  0                 +/- 1.14e-13
# P_bary (ms)      =  N/A
# P'_bary (s/s)    =  N/A
# P''_bary (s/s^2) =  N/A
# P_orb (s)        =  N/A
# asin(i)/c (s)    =  N/A
# eccentricity     =  N/A
# w (rad)          =  N/A
# T_peri           =  N/A
######################################################
   0  511.0512
   1  487.7986
   2  391.6322
   3  418.4536
   4  308.588
   5  298.3534
   6  321.8123
   7  398.1117
   8  615.3271
   9  489.817
  10  381.4523
  11  366.1485
  12  439.3904
  13  379.6698
  14  492.9663
  15  476.0799
  16  252.2401
  17  320.4156
  18  358.7266
  19  362.8727
  20  323.7531
  21  355.2019
  22  322.2663
  23  374.8492
  24  337.385
  25  397.0033
  26  365.0448
  27  380.0039
  28  332.0366
  29  291.5747
  30  404.4572
  31  367.626
  32  378.5649
  33  447.5104
  34  337.3432
  35  376.9431
  36  384.9747
  37  268.3436
  38  268.9653
  39  324.6415
  40  331.7056
  41  243.3969
  42  267.8583
  43  381.6393
  44  323.0547
  45  295.467
  46  347.9278
  47  338.4153
  48  332.8303
  49  361.1913
  50  325.6426
  51  368.442
  52  240.2462
  53  332.559
  54  460.4836
  55  357.5619
  56  455.0468
  57  414.3634
  58  509.3689
  59  408.0402
  60  400.2308
  61  389.8565
  62  323.9919
  63  370.56
  64  348.3943
  65  254.3186
  66  330.1859
  67  283.3961
  68  348.1779
  69  278.8658
  70  285.6275
  71  257.7203
  72  335.776
  73  356.9365
  74  333.0355
  75  354.7782
  76  313.6721
  77  359.055
  78  373.4406
  79  356.4355
  80  386.9167
  81  334.3478
  82  388.3951
  83  395.3484
  84  379.8251
  85  379.4252
  86  317.7738
  87  346.6786
  88  272.7845
  89  362.4378
  90  451.2119
  91  309.0507
  92  292.6552
  93  377.6283
  94  321.7982
  95  290.3857
  96  224.1029
  97  227.5384
  98  222.2812
  99  297.3737
 100  352.66
 101  388.623
 102  406.383
 103  436.8327
 104  390.7915
 105  385.3414
 106  274.9141
 107  317.3432
 108  319.3179
 109  272.2697
 110  377.8566
 111  370.8109
 112  262.3838
 113  243.8295
 114  311.9231
 115  348.7849
 116  353.9494
 117  453.4048
 118  478.8092
 119  407.747
 120  385.7124
 121  444.5615
 122  410.9716
 123  330.5266
 124  473.304
 125  326.0514
 126  344.9102
 127  392.7005
 128  324.1391
 129  367.5225
 130  301.9447
 131  364.4386
 132  452.003
 133  381.6807
 134  491.1421
 135  456.2622
 136  374.0439
 137  417.8239
 138  447.7609
 139  369.5649
 140  320.1761
 141  420.4338
 142  398.1401
 143  412.2653
 144  437.4295
 145  361.6825
 146  371.9992
 147  399.9683
 148  490.5737
 149  352.3383
 150  188.1149
 151  263.8603
 152  427.1972
 153  438.8908
 154  464.9259
 155  442.9583
 156  409.9866
 157  441.6077
 158  531.968
 159  493.0191
 160  408.6526
 161  429.6697
 162  497.7189
 163  400.5104
 164  426.7969
 165  548.2108
 166  373.0325
 167  384.4684
 168  458.8893
 169  396.7415
 170  274.1067
 171  427.6138
 172  355.5122
 173  371.9573
 174  319.0322
 175  424.5797
 176  474.5173
 177  444.9051
 178  524.6929
 179  554.381
 180  454.2066
 181  455.7108
 182  417.8689
 183  417.1178
 184  442.2208
 185  465.9934
 186  340.6898
 187  298.0427
 188  362.1268
 189  405.416
 190  344.9002
 191  353.5096
 192  366.8587
 193  385.4942
 194  460.5068
 195  458.0799
 196  487.8041
 197  363.2892
 198  449.6496
 199  534.3556
 200  623.9731
 201  492.2018
 202  347.3179
 203  475.0526
 204  676.0532
 205  453.5536
 206  435.4468
 207  433.723
 208  434.9158
 209  390.8845
 210  350.9697
 211  320.5506
 212  423.0252
 213  457.7003
 214  329.3033
 215  354.213
 216  429.3957
 217  444.8571
 218  472.5447
 219  461.2089
 220  341.7547
 221  323.7602
 222  537.9484
 223  559.0954
 224  374.0734
 225  393.011
 226  447.2029
 227  482.5505
 228  454.0492
 229  529.959
 230  544.803
 231  442.3675
 232  540.3569
 233  414.9909
 234  361.6945
 235  437.8435
 236  377.2333
 237  388.974
 238  525.1893
 239  515.4067
 240  416.2641
 241  407.9902
 242  420.5516
 243  321.9956
 244  353.4018
 245  567.0266
 246  546.1224
 247  503.0162
 248  422.3574
 249  463.3921
 250  349.5992
 251  439.0263
 252  468.148
 253  515.8315
 254  450.1135
 255  386.9807
 256  343.1047
 257  565.0891
 258  562.9442
 259  476.5255
 260  471.5784
 261  416.3372
 262  545.9242
 263  514.775
 264  572.7299
 265  592.5176
 266  680.5463
 267  808.8156
 268  774.2514
 269  733.2922
 270  770.947
 271  782.1329
 272  693.7343
 273  669.0101
 274  545.02
 275  615.5645
 276  588.6838
 277  504.1892
 278  468.9678
 279  480.5238
 280  505.0789
 281  484.556
 282  603.1356
 283  667.1075
 284  613.4702
 285  535.0068
 286  542.3146
 287  607.8697
 288  479.8203
 289  321.3979
 290  327.0255
 291  307.9404
 292  458.3174
 293  493.2014
 294  512.994
 295  413.5136
 296  489.7415
 297  448.8736
 298  452.6421
 299  393.2565
 300  410.8096
 301  472.4122
 302  374.8679
 303  392.4374
 304  279.6775
 305  239.8246
 306  262.7593
 307  426.1114
 308  476.9619
 309  424.5985
 310  337.3173
 311  354.2698
 312  320.1959
 313  393.9599
 314  391.4232
 315  313.7501
 316  446.0085
 317  462.9616
 318  386.5483
 319  499.4925
 320  541.9157
 321  379.1672
 322  396.7203
 323  349.1829
 324  222.8728
 325  282.3601
 326  428.4637
 327  383.3563
 328  390.5365
 329  416.4348
 330  418.2877
 331  387.4202
 332  415.7332
 333  462.0507
 334  461.7382
 335  329.9768
 336  362.7455
 337  426.2051
 338  509.3987
 339  347.5097
 340  374.6072
 341  466.3477
 342  390.2572
 343  432.1121
 344  478.5712
 345  499.9254
 346  373.1587
 347  487.4875
 348  531.2629
 349  434.4838
 350  510.1586
 351  451.3655
 352  514.9014
 353  507.2865
 354  501.8518
 355  471.4745
 356  425.0332
 357  458.9343
 358  422.2037
 359  314.575
 360  346.4717
 361  453.1522
 362  459.6282
 363  392.9132
 364  370.482
 365  356.8641
 366  363.8401
 367  448.971
 368  457.4383
 369  358.8353
 370  377.7285
 371  264.4321
 372  273.1303
 373  413.1275
 374  332.6208
 375  448.6827
 376  552.9832
 377  519.9454
 378  459.4706
 379  494.7635
 380  459.1328
 381  494.2224
 382  434.374
 383  407.9099
 384  351.8825
 385  371.6495
 386  324.5767
 387  332.881
 388  334.8902
 389  367.9568
 390  325.9964
 391  354.3843
 392  324.7532
 393  326.4824
 394  507.7537
 395  417.1782
 396  295.8767
 397  334.8365
 398  475.2959
 399  380.3691
 400  209.1793
 401  409.4633
 402  383.3214
 403  376.1539
 404  286.0831
 405  320.9137
 406  332.476
 407  398.5462
 408  491.1545
 409  394.7991
 410  394.4179
 411  408.4339
 412  379.9603
 413  399.3589
 414  416.5951
 415  518.7621
 416  478.6665
 417  463.107
 418  424.3271
 419  451.3206
 420  401.6513
 421  360.7452
 422  340.1165
 423  423.3755
 424  459.6432
 425  556.1242
 426  503.6501
 427  436.6385
 428  437.4568
 429  355.29
 430  399.2574
 431  468.3133
 432  458.9016
 433  413.4393
 434  423.9335
 435  526.5095
 436  401.9879
 437  358.9285
 438  488.7299
 439  518.8361
 440  499.902
 441  489.899
 442  307.6627
 443  308.7483
 444  325.0233
 445  489.7942
 446  458.1645
 447  410.6907
 448  487.2595
 449  431.8284
 450  371.4255
 451  330.3458
 452  381.7021
 453  465.4815
 454  404.6513
 455  435.4072
 456  363.589
 457  361.9413
 458  536.0612
 459  496.9774
 460  496.1912
 461  372.4542
 462  426.5336
 463  525.3554
 464  506.5158
 465  453.9141
 466  444.948
 467  344.312
 468  388.0079
 469  341.9732
 470  323.1292
 471  381.361
 472  456.7666
 473  478.5198
 474  426.5632
 475  301.6011
 476  476.2942
 477  441.9138
 478  286.0924
 479  360.5374
 480  573.7371
 481  518.9639
 482  500.6732
 483  556.731
 484  506.7684
 485  431.0627
 486  445.143
 487  472.156
 488  405.5417
 489  390.8416
 490  414.0763
 491  381.0003
 492  270.6045
 493  369.1986
 494  367.7281
 495  464.8489
 496  486.3376
 497  445.969
 498  322.9857
 499  320.4224
 500  373.5714
 501  369.4711
 502  340.7832
 503  426.8617
 504  411.2176
 505  434.6642
 506  382.138
 507  405.143
 508  395.7983
 509  516.2729
 510  530.997
 511  459.9678
