# Input file       =  1198518415.115674_cleaned.dat
# Candidate        =  PSR_0332+5434
# Telescope        =  AR
# Epoch_topo       =  58115.741135598080
# Epoch_bary       =  N/A
# T_sample         =  0.002
# Data Folded      =  7340032
# Data Avg         =  0.0287873449729789
# Data StdDev      =  1.00001633620296 
# Profile Bins     =  512
# Profile Avg      =  412.666046647545 
# Profile StdDev   =  119.734992359949 
# Reduced chi-sqr  =  1.065
# Prob(Noise)      <  0.149   (~1.0 sigma)
# P_topo (ms)      =  714.55295171196   +/- 0.000494
# P'_topo (s/s)    =  -0                +/- 2.61e-10
# P''_topo (s/s^2) =  0                 +/- 1.15e-13
# P_bary (ms)      =  N/A
# P'_bary (s/s)    =  N/A
# P''_bary (s/s^2) =  N/A
# P_orb (s)        =  N/A
# asin(i)/c (s)    =  N/A
# eccentricity     =  N/A
# w (rad)          =  N/A
# T_peri           =  N/A
######################################################
   0  757.6774
   1  774.4908
   2  763.9503
   3  675.3341
   4  620.8399
   5  548.0073
   6  629.1999
   7  564.0896
   8  485.7213
   9  469.7348
  10  490.5839
  11  494.6613
  12  508.6366
  13  637.5839
  14  667.9058
  15  571.35
  16  538.6134
  17  563.1446
  18  583.1489
  19  422.4732
  20  294.1717
  21  333.7113
  22  339.2551
  23  502.6136
  24  493.9252
  25  481.3607
  26  415.7494
  27  505.3487
  28  437.2289
  29  441.9631
  30  375.7533
  31  449.9939
  32  437.8293
  33  380.0513
  34  357.4153
  35  272.149
  36  222.342
  37  327.0567
  38  452.8837
  39  473.4227
  40  381.3835
  41  335.394
  42  353.9632
  43  315.2078
  44  428.1793
  45  343.3158
  46  351.2786
  47  465.3718
  48  434.41
  49  391.1807
  50  576.8533
  51  477.3414
  52  369.8275
  53  407.6073
  54  281.2226
  55  230.0672
  56  339.652
  57  435.9371
  58  353.9409
  59  410.1704
  60  419.2675
  61  414.2269
  62  379.0431
  63  443.8133
  64  466.5244
  65  435.0273
  66  307.3091
  67  396.3859
  68  455.9321
  69  477.2116
  70  304.4233
  71  439.5048
  72  431.702
  73  403.7165
  74  434.0743
  75  504.0633
  76  464.1591
  77  380.7086
  78  543.7462
  79  469.9027
  80  463.1396
  81  498.3793
  82  451.5669
  83  533.0375
  84  491.8605
  85  501.8737
  86  454.3676
  87  431.4578
  88  472.8875
  89  364.4665
  90  319.7858
  91  380.9414
  92  463.0618
  93  456.9173
  94  361.5453
  95  379.132
  96  338.7552
  97  396.3413
  98  477.0695
  99  412.5658
 100  366.2388
 101  350.8203
 102  233.6685
 103  336.1333
 104  391.086
 105  349.3091
 106  504.3029
 107  558.8559
 108  478.6965
 109  484.7561
 110  467.2104
 111  478.8811
 112  467.7802
 113  433.0221
 114  388.7171
 115  352.1015
 116  372.3685
 117  304.5468
 118  350.3471
 119  335.7054
 120  369.2854
 121  309.8971
 122  369.7733
 123  290.903
 124  403.1316
 125  501.6942
 126  366.1463
 127  288.9637
 128  374.3846
 129  487.3216
 130  288.7473
 131  267.1761
 132  426.6073
 133  373.7696
 134  362.9917
 135  270.1847
 136  339.8608
 137  331.8901
 138  465.4191
 139  455.8279
 140  380.7405
 141  393.9716
 142  416.0923
 143  360.8307
 144  415.9018
 145  432.2559
 146  548.4703
 147  435.9418
 148  466.4389
 149  433.0789
 150  455.1046
 151  374.2255
 152  340.5901
 153  357.0906
 154  450.5732
 155  485.5493
 156  561.6878
 157  478.4717
 158  431.6381
 159  412.9803
 160  344.863
 161  436.5839
 162  470.5033
 163  453.7579
 164  393.5732
 165  476.7075
 166  498.5246
 167  340.7391
 168  394.2769
 169  529.9407
 170  519.061
 171  502.3558
 172  428.5171
 173  285.081
 174  302.7123
 175  382.8976
 176  514.5054
 177  425.5138
 178  433.8645
 179  477.5854
 180  412.6229
 181  353.9078
 182  328.6992
 183  426.0295
 184  452.6896
 185  394.7054
 186  445.7757
 187  313.8896
 188  449.6836
 189  523.0384
 190  496.3617
 191  457.2767
 192  359.526
 193  482.785
 194  536.4191
 195  494.7787
 196  435.299
 197  438.5994
 198  311.7386
 199  403.0839
 200  311.9784
 201  346.2306
 202  411.3849
 203  456.4878
 204  475.5465
 205  382.3023
 206  329.5454
 207  513.671
 208  360.9229
 209  302.8313
 210  424.4253
 211  603.345
 212  470.8385
 213  546.0372
 214  540.9879
 215  477.3833
 216  427.6032
 217  443.749
 218  466.1656
 219  382.6256
 220  416.4403
 221  406.3859
 222  335.2227
 223  284.1545
 224  398.9258
 225  377.3126
 226  494.9279
 227  467.0054
 228  421.3834
 229  294.8208
 230  348.9909
 231  369.8359
 232  354.066
 233  374.5421
 234  418.9762
 235  435.326
 236  387.7911
 237  410.7475
 238  378.6528
 239  450.0878
 240  535.9571
 241  510.2162
 242  451.9433
 243  526.5369
 244  442.2347
 245  404.29
 246  389.7234
 247  288.4471
 248  312.1326
 249  323.6443
 250  493.0449
 251  590.6413
 252  458.0047
 253  347.2602
 254  406.5944
 255  430.3674
 256  378.1192
 257  544.1699
 258  376.3741
 259  259.1463
 260  343.0502
 261  362.1253
 262  345.0529
 263  340.3155
 264  338.6333
 265  342.234
 266  362.5063
 267  355.9482
 268  396.6794
 269  350.5871
 270  381.1187
 271  292.5913
 272  326.9017
 273  416.6804
 274  352.0962
 275  421.7966
 276  407.0268
 277  340.7735
 278  394.3354
 279  357.3361
 280  236.8446
 281  293.5348
 282  329.0418
 283  302.0982
 284  237.178
 285  304.2204
 286  399.9328
 287  283.7267
 288  323.1965
 289  341.1153
 290  337.7761
 291  341.6344
 292  363.3217
 293  337.4695
 294  334.207
 295  223.1559
 296  410.2962
 297  419.5182
 298  387.258
 299  430.4092
 300  467.2776
 301  474.7241
 302  400.3198
 303  406.6003
 304  367.4683
 305  321.53
 306  383.9231
 307  313.8615
 308  262.3795
 309  323.808
 310  302.7202
 311  331.1613
 312  285.4268
 313  257.1048
 314  284.0175
 315  348.5578
 316  348.9446
 317  349.0828
 318  332.5573
 319  336.5189
 320  353.9094
 321  375.7965
 322  358.3152
 323  386.0479
 324  334.1458
 325  419.9992
 326  364.7871
 327  391.1274
 328  351.0979
 329  324.999
 330  336.8431
 331  277.9018
 332  423.7437
 333  400.404
 334  282.102
 335  322.2596
 336  377.0468
 337  291.3545
 338  270.8762
 339  221.9993
 340  228.4463
 341  250.594
 342  320.857
 343  358.9105
 344  398.1463
 345  405.3328
 346  420.3264
 347  389.3625
 348  363.119
 349  269.876
 350  329.1174
 351  302.4212
 352  296.7609
 353  413.5208
 354  302.2403
 355  267.2991
 356  248.3024
 357  346.9973
 358  339.1142
 359  376.7072
 360  485.4193
 361  452.4385
 362  405.3091
 363  394.1543
 364  451.4745
 365  351.9234
 366  385.5688
 367  454.988
 368  300.4125
 369  379.0983
 370  365.3999
 371  327.9872
 372  361.868
 373  297.8429
 374  414.8068
 375  424.8927
 376  400.0569
 377  516.9995
 378  404.985
 379  390.2719
 380  425.7017
 381  445.6193
 382  314.4096
 383  376.8454
 384  407.2101
 385  401.3632
 386  425.1426
 387  417.3175
 388  353.6237
 389  366.7143
 390  443.1397
 391  467.5398
 392  288.338
 393  179.582
 394  338.5052
 395  447.6813
 396  427.1725
 397  475.8413
 398  414.3145
 399  431.4561
 400  458.4884
 401  546.7927
 402  446.2906
 403  410.4976
 404  467.3369
 405  464.9075
 406  379.1995
 407  496.3424
 408  508.0162
 409  348.5334
 410  411.1497
 411  466.442
 412  323.0142
 413  323.4757
 414  420.9881
 415  358.1045
 416  364.7971
 417  324.8727
 418  454.8621
 419  460.4634
 420  463.2012
 421  562.3049
 422  508.3487
 423  448.0649
 424  455.7513
 425  401.7677
 426  428.5205
 427  446.8434
 428  445.1851
 429  299.3024
 430  335.7589
 431  369.5171
 432  402.2827
 433  324.8012
 434  366.8533
 435  371.988
 436  409.4317
 437  462.5367
 438  476.2544
 439  457.852
 440  362.0505
 441  480.4491
 442  579.4354
 443  589.881
 444  445.3611
 445  341.8438
 446  588.2072
 447  616.174
 448  413.0725
 449  451.0716
 450  435.4998
 451  421.004
 452  376.2158
 453  323.3689
 454  348.8812
 455  461.3445
 456  412.8082
 457  310.9178
 458  383.4326
 459  441.8282
 460  449.121
 461  487.8104
 462  425.0724
 463  304.0894
 464  394.7607
 465  576.8784
 466  486.219
 467  350.088
 468  424.4215
 469  464.7041
 470  481.0271
 471  458.9903
 472  564.7963
 473  492.4857
 474  461.1906
 475  531.2189
 476  358.326
 477  406.6951
 478  426.4448
 479  370.2662
 480  428.0362
 481  552.1784
 482  469.3532
 483  401.8099
 484  423.8861
 485  393.0404
 486  292.7883
 487  431.7596
 488  589.7567
 489  537.9348
 490  461.5277
 491  454.2871
 492  404.7202
 493  382.5438
 494  435.4835
 495  509.4447
 496  475.9434
 497  463.105
 498  326.6771
 499  426.2249
 500  593.6311
 501  516.6888
 502  482.7494
 503  436.5417
 504  473.6702
 505  533.3359
 506  535.6417
 507  572.5453
 508  626.5756
 509  715.171
 510  820.8648
 511  740.4671
