# Input file       =  1198618942.110888-PSRB0329-2ms-sampling-dd.dat
# Candidate        =  PSR_0332+5434
# Telescope        =  AR
# Epoch_topo       =  58116.904642487127
# Epoch_bary       =  N/A
# T_sample         =  0.002
# Data Folded      =  7340032
# Data Avg         =  1.58321309392572e-09
# Data StdDev      =  75.8150579111163 
# Profile Bins     =  512
# Profile Avg      =  0.244102409687709
# Profile StdDev   =  9077.56708677832 
# Reduced chi-sqr  =  1.244
# Prob(Noise)      <  0.000132   (~3.6 sigma)
# P_topo (ms)      =  714.554302883264  +/- 0.000354
# P'_topo (s/s)    =  -0                +/- 1.87e-10
# P''_topo (s/s^2) =  0                 +/- 8.25e-14
# P_bary (ms)      =  N/A
# P'_bary (s/s)    =  N/A
# P''_bary (s/s^2) =  N/A
# P_orb (s)        =  N/A
# asin(i)/c (s)    =  N/A
# eccentricity     =  N/A
# w (rad)          =  N/A
# T_peri           =  N/A
######################################################
   0  -6277.403
   1  -6636.122
   2  -7064.292
   3  -6963.132
   4  -5756.202
   5  -5354.467
   6  -5035.511
   7  -4897.051
   8  -5201.601
   9  -6405.684
  10  -6241.112
  11  -6191.955
  12  -6282.968
  13  -5938.175
  14  -6361.628
  15  -5626.721
  16  -4092.55
  17  -3423.084
  18  -2839.754
  19  -3391.79
  20  -5288.2
  21  -5648.085
  22  -5746.806
  23  -3781.921
  24  -3517.809
  25  -2793.012
  26  -2104.486
  27  -3281.293
  28  -3896.525
  29  -4424.951
  30  -5225.724
  31  -5525.179
  32  -5659.751
  33  -4753.752
  34  -4444.427
  35  -5158.696
  36  -5836.729
  37  -6205.845
  38  -6293.097
  39  -6893.989
  40  -6134.79
  41  -5854.354
  42  -6357.917
  43  -5290.451
  44  -3947.191
  45  -732.3471
  46  -84.44012
  47  257.1385
  48  -133.5936
  49  -5288.285
  50  -2627.258
  51  716.059
  52  5933.348
  53  5488.524
  54  4660.553
  55  3420.181
  56  9459.702
  57  6532.838
  58  5403.186
  59  4134.086
  60  8500.393
  61  10733.43
  62  11094.32
  63  8165.055
  64  2173.673
  65  -3608.379
  66  -2170.255
  67  -403.3977
  68  592.6707
  69  1588.911
  70  2253.987
  71  1726.203
  72  -488.317
  73  597.0416
  74  2048.463
  75  4088.585
  76  4718.062
  77  5248.771
  78  5397.112
  79  4011.019
  80  5621.141
  81  3756.674
  82  2304.956
  83  6897.918
  84  15827.18
  85  23326.01
  86  19753.51
  87  18523.01
  88  13890.22
  89  -267.3337
  90  13054.13
  91  17646.04
  92  22432.92
  93  18289.93
  94  10789.76
  95  5037.243
  96  -3051.303
  97  -1933.026
  98  1762.631
  99  6452.971
 100  7345.529
 101  7341.427
 102  8562.873
 103  5451.867
 104  6728.919
 105  8336.556
 106  9828.13
 107  8585.508
 108  7278.768
 109  6498.894
 110  7266.079
 111  9099.761
 112  4331.532
 113  19458.87
 114  19843.49
 115  13965.42
 116  28851.54
 117  35236.63
 118  47153.07
 119  -1371.012
 120  17367.52
 121  23147.81
 122  13445.21
 123  14526.36
 124  9038.142
 125  -1842.162
 126  425.8812
 127  -1588.817
 128  -5772.083
 129  -5212.247
 130  -5611.405
 131  -5707.428
 132  -4167.646
 133  -4607.361
 134  -3766.507
 135  -1832.45
 136  -3634.703
 137  -3504.409
 138  -1308.802
 139  -1973.658
 140  -896.1309
 141  1144.659
 142  -793.2699
 143  -2218.569
 144  -3660.1
 145  -2489.943
 146  -2029.903
 147  -686.3342
 148  205.5271
 149  682.7975
 150  220.5472
 151  -741.9668
 152  -2935.3
 153  -3931.677
 154  -3138.099
 155  -1003.308
 156  1.472667
 157  351.0975
 158  223.8306
 159  -2544.847
 160  -3427.039
 161  -4289.684
 162  -5261.797
 163  -4818.868
 164  -4438.43
 165  -4236.417
 166  -3631.71
 167  -3330.474
 168  -2533.326
 169  -4881.298
 170  -4777.76
 171  -3997.05
 172  -1744.327
 173  -1962.336
 174  -2257.37
 175  -3065.62
 176  -3712.056
 177  -2964.049
 178  -754.5657
 179  -1081.015
 180  -1691.914
 181  -2770.649
 182  -3520.078
 183  -2736.484
 184  6162.633
 185  6834.068
 186  7581.745
 187  7863.329
 188  -492.0677
 189  -2424.043
 190  -1859.979
 191  5083.615
 192  5489.833
 193  4385.051
 194  1396.246
 195  -440.5218
 196  -1354.751
 197  -757.9143
 198  -1334.184
 199  -1474.591
 200  -3712.933
 201  -4415.745
 202  -3540.036
 203  -3548.906
 204  -4642.805
 205  -4740.626
 206  -5965.33
 207  -5061.479
 208  -4716.663
 209  -6105.101
 210  -2880.821
 211  850.9731
 212  4601.197
 213  8884.707
 214  9821.148
 215  5199.847
 216  -4971.6
 217  2245.937
 218  13576.09
 219  19839.19
 220  18881.29
 221  14818.44
 222  1793.79
 223  -3226.97
 224  -4388.352
 225  -2124.046
 226  -2934.23
 227  -2848.098
 228  -3203.335
 229  -4394.063
 230  -4336.324
 231  -3147.959
 232  -2996.65
 233  -3085.248
 234  -4063.047
 235  -5032.805
 236  -4935.103
 237  -5197.591
 238  -5932.677
 239  -5595.92
 240  -5348.376
 241  -6038.261
 242  -5540.686
 243  -4680.754
 244  -3994.478
 245  -746.4109
 246  1989.346
 247  5533.799
 248  7202.125
 249  6448.254
 250  5113.919
 251  -2535.535
 252  1154.111
 253  5746.288
 254  10173.76
 255  10778.35
 256  7233.438
 257  1854.031
 258  -3739.874
 259  -5473.846
 260  -5585.2
 261  -5787.667
 262  -5434.992
 263  -4652.131
 264  -4206.052
 265  -4347.072
 266  -4568.646
 267  -4667.331
 268  -4672.878
 269  -3781.096
 270  -3523.051
 271  -4041.157
 272  -3822.862
 273  -4077.802
 274  -3789.545
 275  1953.525
 276  3966.506
 277  2146.291
 278  -812.3646
 279  -1264.91
 280  -1209.072
 281  -1770.423
 282  -1932.638
 283  -154.6486
 284  680.6705
 285  7199.055
 286  8139.35
 287  5539.232
 288  4649.233
 289  -0.5281828
 290  3057.948
 291  9842.586
 292  12549.67
 293  11457.62
 294  6049.008
 295  4817.807
 296  4031.543
 297  4421.142
 298  6113.517
 299  3556.627
 300  1475.509
 301  -1912.991
 302  -1024.877
 303  -449.3962
 304  2089.701
 305  2822.106
 306  2495.447
 307  1730.87
 308  -720.5697
 309  -2225.424
 310  -3545.574
 311  -153.3973
 312  80.9351
 313  -343.4575
 314  354.6786
 315  -1118.525
 316  -762.1071
 317  -723.9838
 318  -2039.263
 319  -2223.786
 320  -3200.164
 321  -2745.282
 322  -2700.833
 323  -2855.759
 324  -3721.851
 325  -4203.372
 326  -4773.794
 327  -5537.795
 328  -5362.841
 329  -5476.607
 330  -4345.352
 331  -4269.207
 332  -3721.177
 333  -3712.115
 334  -4113.957
 335  -3981.358
 336  -3360.687
 337  -3265.165
 338  -2338.849
 339  -979.9268
 340  550.8189
 341  1673.101
 342  1443.755
 343  609.4808
 344  973.5966
 345  1135.46
 346  -430.761
 347  -192.7487
 348  366.8257
 349  1296.652
 350  740.3013
 351  506.7894
 352  -2196.358
 353  -2753.085
 354  -3508.251
 355  -2670.386
 356  -3129.766
 357  -3729.104
 358  -4050.317
 359  -5360.787
 360  -5563.104
 361  -4884.255
 362  -4086.895
 363  -5176.572
 364  -245.2603
 365  4658.936
 366  15417.02
 367  20988.71
 368  22664.11
 369  15521.76
 370  -757.1923
 371  2954.031
 372  24559.66
 373  35743.54
 374  38614.56
 375  36417.73
 376  6829.584
 377  -1351.397
 378  -7066.363
 379  -5654.834
 380  -6563.794
 381  -6202.265
 382  -4295.545
 383  -5407.249
 384  -5796.45
 385  2575.796
 386  5781.727
 387  8329.078
 388  9155.838
 389  3653.538
 390  -209.0844
 391  -6311.159
 392  5756.22
 393  9016.512
 394  10250.07
 395  10266.43
 396  3945.381
 397  -1143.354
 398  -1911.981
 399  -70.13295
 400  -106.7213
 401  2125.608
 402  2128.45
 403  1227.793
 404  1568.23
 405  1992.828
 406  542.6735
 407  -1949.786
 408  2193.415
 409  4302.158
 410  4006.353
 411  4227.221
 412  1284.44
 413  -1159.564
 414  -2088.159
 415  -1481.576
 416  -204.0862
 417  443.2063
 418  1723.258
 419  2446.801
 420  652.3939
 421  731.0728
 422  -113.1013
 423  -598.7231
 424  -488.0556
 425  656.1106
 426  1387.562
 427  -420.8254
 428  -3047.423
 429  -4003.563
 430  -5202.98
 431  -6060.408
 432  -6008.992
 433  -6240.116
 434  -6031.625
 435  -6392.522
 436  -6036.902
 437  -6128.839
 438  -6237.063
 439  -5885.982
 440  -6405.415
 441  -6543.932
 442  -6795.645
 443  -6276.51
 444  -6345.619
 445  -6932.298
 446  -6942.459
 447  -6863.848
 448  -6747.826
 449  -7088.623
 450  -6879.069
 451  -6600.251
 452  -6658.927
 453  -6411.155
 454  -6397.731
 455  -6490.939
 456  -6789.664
 457  -6806.14
 458  -6941.317
 459  -6702.029
 460  -6143.531
 461  -6576.627
 462  -6645.748
 463  -6536.494
 464  -6641.385
 465  -6676.561
 466  -6737.972
 467  -6375.351
 468  -5964.362
 469  -5952.061
 470  -6317.588
 471  -6626.581
 472  -6888.839
 473  -6720.438
 474  -6286.837
 475  -6281.308
 476  -5753.578
 477  -6000.217
 478  -6228.718
 479  -6277.684
 480  -6513.951
 481  -6358.832
 482  -6352.318
 483  -5975.202
 484  -5973.532
 485  -5870.709
 486  -6399.008
 487  -6914.894
 488  -6274.989
 489  -5625.678
 490  -5658.996
 491  -5577.167
 492  -5492.701
 493  -5444.796
 494  -5478.328
 495  -5963.378
 496  -4815.98
 497  -2321.645
 498  -1837.231
 499  -1801.854
 500  -1531.213
 501  -1831.271
 502  -2635.983
 503  -1596.007
 504  -3376.732
 505  -3926.56
 506  -4423.535
 507  -1574.474
 508  -1283.071
 509  -1221.359
 510  -1926.6
 511  -4408.447
