# Input file       =  1198589328.111569_cleaned.dat
# Candidate        =  PSR_0332+5434
# Telescope        =  AR
# Epoch_topo       =  58116.561887865384
# Epoch_bary       =  N/A
# T_sample         =  0.002
# Data Folded      =  7208960
# Data Avg         =  0.0181935924436561
# Data StdDev      =  1.00000807412398 
# Profile Bins     =  512
# Profile Avg      =  256.431369253166 
# Profile StdDev   =  118.660133862428 
# Reduced chi-sqr  =  1.199
# Prob(Noise)      <  0.00132   (~3.0 sigma)
# P_topo (ms)      =  714.553644284054  +/- 0.000136
# P'_topo (s/s)    =  -0                +/- 7.29e-11
# P''_topo (s/s^2) =  0                 +/- 3.28e-14
# P_bary (ms)      =  N/A
# P'_bary (s/s)    =  N/A
# P''_bary (s/s^2) =  N/A
# P_orb (s)        =  N/A
# asin(i)/c (s)    =  N/A
# eccentricity     =  N/A
# w (rad)          =  N/A
# T_peri           =  N/A
######################################################
   0  239.4489
   1  267.9294
   2  236.762
   3  324.6795
   4  280.4392
   5  184.6008
   6  206.2575
   7  310.1215
   8  265.1105
   9  219.2639
  10  216.4447
  11  97.12006
  12  245.9185
  13  185.9534
  14  216.3521
  15  109.0886
  16  244.5221
  17  298.8977
  18  259.7333
  19  249.2332
  20  172.2714
  21  243.0481
  22  355.6068
  23  262.3008
  24  447.7443
  25  299.8398
  26  109.456
  27  61.9206
  28  161.5948
  29  259.8989
  30  414.4637
  31  352.9084
  32  362.7062
  33  279.4015
  34  291.443
  35  325.3248
  36  370.4942
  37  375.8307
  38  326.0883
  39  329.8406
  40  250.5294
  41  285.41
  42  407.6045
  43  498.1393
  44  403.6851
  45  384.503
  46  273.509
  47  257.8723
  48  286.1488
  49  240.8643
  50  85.27124
  51  97.04163
  52  180.4746
  53  238.9785
  54  302.8009
  55  368.5173
  56  204.2659
  57  164.4588
  58  273.139
  59  214.1556
  60  303.2383
  61  276.4656
  62  188.1325
  63  258.3462
  64  165.4931
  65  239.7616
  66  254.314
  67  267.2266
  68  457.9131
  69  404.1848
  70  342.3411
  71  318.0426
  72  330.6494
  73  243.7864
  74  274.6473
  75  304.1559
  76  267.5582
  77  244.6571
  78  312.7456
  79  286.2075
  80  322.8522
  81  385.6558
  82  339.2758
  83  217.1327
  84  160.7419
  85  151.4757
  86  118.059
  87  209.5544
  88  298.1005
  89  326.3484
  90  388.7294
  91  353.9457
  92  223.9739
  93  315.737
  94  314.9825
  95  305.9049
  96  248.5151
  97  347.9508
  98  310.228
  99  139.2074
 100  94.10033
 101  264.9306
 102  271.1197
 103  248.3159
 104  371.309
 105  444.7115
 106  159.3951
 107  71.33273
 108  -7.92462
 109  101.5793
 110  217.9657
 111  215.2543
 112  279.5847
 113  129.3578
 114  146.6544
 115  143.8819
 116  313.7383
 117  278.2783
 118  247.8116
 119  167.6204
 120  124.577
 121  212.1956
 122  231.3934
 123  246.9919
 124  321.8449
 125  222.211
 126  226.829
 127  198.0172
 128  214.06
 129  353.1574
 130  281.7004
 131  294.8857
 132  326.4195
 133  329.3211
 134  427.8915
 135  446.8586
 136  342.8633
 137  300.9113
 138  200.1016
 139  105.954
 140  101.0669
 141  189.9242
 142  229.0085
 143  147.8006
 144  160.8601
 145  257.7831
 146  222.1655
 147  153.0282
 148  203.8085
 149  283.454
 150  314.9038
 151  322.8642
 152  421.436
 153  440.1683
 154  358.7566
 155  404.7276
 156  256.0726
 157  110.0683
 158  140.9896
 159  342.0556
 160  260.9477
 161  151.1687
 162  299.2621
 163  306.8248
 164  206.4406
 165  140.3091
 166  92.24783
 167  143.0657
 168  217.7215
 169  281.3066
 170  278.4069
 171  184.6222
 172  258.5161
 173  312.3106
 174  239.3256
 175  334.0764
 176  269.0141
 177  315.0919
 178  188.3024
 179  174.4382
 180  277.6727
 181  371.1949
 182  360.5075
 183  339.9461
 184  298.6539
 185  223.3217
 186  182.7509
 187  217.3647
 188  230.7839
 189  270.7765
 190  264.8094
 191  254.0478
 192  237.5719
 193  201.8708
 194  104.0255
 195  139.358
 196  150.971
 197  203.2543
 198  219.2484
 199  219.4486
 200  190.1169
 201  219.0731
 202  182.1239
 203  128.9748
 204  149.8852
 205  250.5231
 206  288.3815
 207  320.3447
 208  261.9832
 209  265.7913
 210  198.9348
 211  162.009
 212  169.8745
 213  301.8287
 214  310.96
 215  219.5956
 216  303.9967
 217  173.3495
 218  237.9896
 219  369.8809
 220  266.138
 221  222.6353
 222  279.3984
 223  111.4096
 224  118.3975
 225  388.3274
 226  407.1752
 227  383.7693
 228  328.5828
 229  253.743
 230  82.29084
 231  79.48759
 232  189.8366
 233  293.9388
 234  172.2046
 235  163.8018
 236  264.0447
 237  331.9261
 238  202.5573
 239  167.9301
 240  219.3769
 241  280.5273
 242  211.1941
 243  214.2324
 244  179.4489
 245  269.2529
 246  270.4269
 247  138.4344
 248  141.0229
 249  224.5074
 250  162.2948
 251  241.14
 252  209.4045
 253  212.1107
 254  128.5326
 255  255.1549
 256  274.959
 257  260.7038
 258  333.9263
 259  212.1021
 260  299.4641
 261  298.5759
 262  91.60868
 263  120.4352
 264  293.0437
 265  365.5957
 266  188.4256
 267  147.5393
 268  206.1401
 269  317.6256
 270  254.9541
 271  155.8346
 272  209.2437
 273  341.3502
 274  418.5363
 275  458.0512
 276  330.7693
 277  242.3383
 278  212.8524
 279  326.2697
 280  291.6104
 281  368.8918
 282  430.4749
 283  452.2575
 284  519.3575
 285  596.0104
 286  763.9408
 287  667.027
 288  618.8571
 289  627.6215
 290  511.2729
 291  427.3677
 292  336.0678
 293  236.3816
 294  229.1027
 295  218.3597
 296  252.9167
 297  398.9507
 298  399.0233
 299  335.8957
 300  415.7299
 301  481.082
 302  484.4312
 303  414.0902
 304  369.8576
 305  197.7101
 306  282.9079
 307  240.9253
 308  185.7412
 309  240.4821
 310  195.5006
 311  152.9179
 312  339.9262
 313  287.1918
 314  193.0145
 315  324.122
 316  211.3257
 317  268.0887
 318  234.8509
 319  282.1961
 320  305.6942
 321  253.5347
 322  286.7376
 323  351.2899
 324  242.683
 325  248.467
 326  250.3054
 327  254.1768
 328  217.3327
 329  295.0745
 330  307.5361
 331  383.1633
 332  210.4629
 333  252.5712
 334  243.1651
 335  209.8379
 336  288.4218
 337  311.6
 338  242.1579
 339  224.0588
 340  232.9955
 341  273.9631
 342  220.945
 343  230.1066
 344  234.3378
 345  228.9844
 346  203.2003
 347  188.472
 348  191.8663
 349  252.715
 350  280.686
 351  319.4117
 352  260.0727
 353  180.2966
 354  173.1929
 355  166.5946
 356  276.427
 357  306.0003
 358  322.6977
 359  254.0709
 360  142.6624
 361  157.6998
 362  252.4822
 363  164.2205
 364  135.7725
 365  128.0296
 366  262.9755
 367  268.996
 368  355.1715
 369  262.0308
 370  229.5164
 371  262.9554
 372  384.0641
 373  306.1234
 374  212.2914
 375  262.0576
 376  237.5668
 377  264.0099
 378  337.1492
 379  288.8375
 380  136.9492
 381  130.6715
 382  275.4461
 383  300.1166
 384  364.0134
 385  349.1291
 386  209.667
 387  98.88624
 388  241.8833
 389  275.7107
 390  289.3665
 391  333.7369
 392  223.2968
 393  212.3901
 394  170.6091
 395  253.7036
 396  287.118
 397  295.5787
 398  276.548
 399  167.1053
 400  166.587
 401  142.5112
 402  187.653
 403  279.2452
 404  261.8707
 405  100.0696
 406  263.3838
 407  233.0197
 408  137.9015
 409  29.17032
 410  173.3879
 411  217.9517
 412  167.6094
 413  225.8623
 414  208.9003
 415  224.508
 416  211.1127
 417  245.5767
 418  329.9937
 419  360.0747
 420  204.6259
 421  187.0079
 422  166.9286
 423  255.9993
 424  262.4774
 425  278.7862
 426  229.4147
 427  239.1535
 428  210.3157
 429  99.23591
 430  158.6684
 431  330.1278
 432  320.8203
 433  228.0071
 434  131.3429
 435  176.9827
 436  129.9537
 437  222.2461
 438  207.4671
 439  185.5915
 440  146.79
 441  176.5582
 442  172.885
 443  157.8529
 444  239.0874
 445  401.5934
 446  156.5866
 447  105.6246
 448  249.3602
 449  318.3231
 450  296.2072
 451  298.2363
 452  225.2277
 453  211.794
 454  226.1735
 455  338.2421
 456  218.0957
 457  239.6806
 458  338.2912
 459  224.2166
 460  191.5088
 461  228.1622
 462  239.8011
 463  119.6218
 464  285.9921
 465  438.0623
 466  469.9751
 467  330.5294
 468  301.5456
 469  177.4806
 470  199.9374
 471  107.0056
 472  259.1712
 473  219.172
 474  329.3917
 475  361.2128
 476  157.3088
 477  103.6982
 478  222.7132
 479  282.4424
 480  262.7491
 481  237.7893
 482  358.6019
 483  339.2244
 484  301.5244
 485  350.6874
 486  221.1147
 487  114.0071
 488  113.2555
 489  425.0855
 490  263.6407
 491  267.8327
 492  249.9859
 493  249.5617
 494  305.214
 495  343.2267
 496  349.4933
 497  323.2194
 498  374.3366
 499  386.2875
 500  332.997
 501  274.2056
 502  181.5563
 503  71.43645
 504  120.2361
 505  230.413
 506  215.5255
 507  260.9128
 508  288.3176
 509  142.1102
 510  177.5085
 511  262.972
