# Input file       =  1198244740.110395-PSRB0329-2ms-sampling-dd.dat
# Candidate        =  PSR_0332+5434
# Telescope        =  AR
# Epoch_topo       =  58112.573600814758
# Epoch_bary       =  N/A
# T_sample         =  0.002
# Data Folded      =  7208960
# Data Avg         =  3.15849842306418e-09
# Data StdDev      =  43.4585539578521 
# Profile Bins     =  512
# Profile Avg      =  -0.037198837467629
# Profile StdDev   =  5156.75619381741 
# Reduced chi-sqr  =  0.967
# Prob(Noise)      <  0.695   (~0.0 sigma)
# P_topo (ms)      =  714.550074117403  +/- 0.000324
# P'_topo (s/s)    =  -0                +/- 1.74e-10
# P''_topo (s/s^2) =  0                 +/- 7.83e-14
# P_bary (ms)      =  N/A
# P'_bary (s/s)    =  N/A
# P''_bary (s/s^2) =  N/A
# P_orb (s)        =  N/A
# asin(i)/c (s)    =  N/A
# eccentricity     =  N/A
# w (rad)          =  N/A
# T_peri           =  N/A
######################################################
   0  12270.29
   1  1504.428
   2  -1453.686
   3  -2674.895
   4  -1827.199
   5  -909.8829
   6  759.4763
   7  1181.899
   8  244.2029
   9  -551.2098
  10  -1386.94
  11  -685.9839
  12  924.4661
  13  2614.381
  14  3689.887
  15  3024.504
  16  1649.283
  17  -771.6226
  18  68.35972
  19  352.7399
  20  26.18887
  21  61.77782
  22  -965.3928
  23  -1037.668
  24  -1825.234
  25  -1419.654
  26  -904.5233
  27  -1304.352
  28  -972.7856
  29  -1609.913
  30  -1848.724
  31  -3339.432
  32  -2795.11
  33  -1692.027
  34  -663.6085
  35  -103.4619
  36  -555.9863
  37  -2209.295
  38  -3845.17
  39  -3823.242
  40  -3423.418
  41  -2599.087
  42  -2646.587
  43  -2540.318
  44  -2438.73
  45  -3296.45
  46  -3249.421
  47  -2229.306
  48  -1386.391
  49  -1496.471
  50  -2012.816
  51  -2418.803
  52  -2928.494
  53  -2612.591
  54  -2597.066
  55  -2389.231
  56  -2205.144
  57  -1975.303
  58  -3323.809
  59  -3740.82
  60  -3559.782
  61  -2738.452
  62  -2002.624
  63  -2221.577
  64  -2753.308
  65  -3594.255
  66  -2910.913
  67  -171.0221
  68  435.6613
  69  1155.452
  70  438.6552
  71  -1687.115
  72  -1628.868
  73  -1277.064
  74  3970.833
  75  5010.739
  76  5149.318
  77  3425.87
  78  -168.0815
  79  -1522.598
  80  -2005.494
  81  329.0305
  82  1076.611
  83  660.8082
  84  -944.8282
  85  -2781.464
  86  -3803.549
  87  -4396.831
  88  -3642.766
  89  -2787.423
  90  -2590.703
  91  -2850.061
  92  -2239.938
  93  -2450.595
  94  -2450.283
  95  -2145.955
  96  -1733.2
  97  -1160.974
  98  -752.3461
  99  -376.8732
 100  -400.7321
 101  -398.5762
 102  -479.0747
 103  -595.2991
 104  80.89634
 105  1146.849
 106  1891.929
 107  2077.433
 108  1926.273
 109  2075.136
 110  2140.788
 111  2128.267
 112  2331.365
 113  1941.629
 114  2748.264
 115  3488.842
 116  3855.447
 117  3523.665
 118  2114.305
 119  1821.614
 120  1582.228
 121  1249.833
 122  799.4628
 123  127.601
 124  -63.44569
 125  -838.6286
 126  -1168.925
 127  -1468.165
 128  -2274.667
 129  -2114.814
 130  -1958.305
 131  -1620.971
 132  -1466.925
 133  -1870.019
 134  -2230.789
 135  -2909.204
 136  -2588.754
 137  -3207.346
 138  -2614.458
 139  -2190.826
 140  -2792.193
 141  -2360.302
 142  -2008.752
 143  -1853.481
 144  -1044.658
 145  24.55511
 146  1013.915
 147  858.9221
 148  1572.527
 149  1863.533
 150  666.0331
 151  1609.432
 152  3185.854
 153  2397.919
 154  1387.013
 155  715.4865
 156  297.8308
 157  242.0093
 158  1131.964
 159  3584.645
 160  3808.844
 161  4420.639
 162  4761.725
 163  4082.791
 164  2661.904
 165  2401.404
 166  6492.14
 167  8597.734
 168  9705.848
 169  9331.835
 170  6610.13
 171  6055.469
 172  4214.292
 173  4495.582
 174  6648.15
 175  8854.988
 176  10967.22
 177  11807.4
 178  10109.17
 179  6167.563
 180  5675.123
 181  5789.298
 182  5868.712
 183  4560.64
 184  3219.113
 185  1512.971
 186  -2973.75
 187  -2481.131
 188  -2232.205
 189  -2741.281
 190  -1897.492
 191  -2138.47
 192  -2460.806
 193  -1406.354
 194  -1365.642
 195  -541.955
 196  -437.8777
 197  -1147.938
 198  -1260.947
 199  -866.4197
 200  2244.294
 201  3403.505
 202  4758.396
 203  5140.185
 204  3653.973
 205  2289.988
 206  2343.216
 207  2253.176
 208  2293.382
 209  4587.67
 210  5291.38
 211  4644.745
 212  3260.865
 213  1049.216
 214  653.1789
 215  10.2788
 216  783.8945
 217  506.6132
 218  -252.515
 219  -1949.558
 220  -1445.364
 221  -761.0592
 222  492.3119
 223  128.4475
 224  -398.6265
 225  -1035.923
 226  -3056.98
 227  -3657.982
 228  -3579.484
 229  -2324.632
 230  -691.1271
 231  1491.022
 232  1772.244
 233  2207.541
 234  2137.992
 235  -883.9216
 236  -37.24243
 237  1797.139
 238  4705.38
 239  4324.351
 240  3189.532
 241  638.3174
 242  -1713.855
 243  -2339.76
 244  -2531.967
 245  -2435.76
 246  -2329.334
 247  -2311.161
 248  -3158.124
 249  -2934.652
 250  -2671
 251  -2491.633
 252  -2365.11
 253  -2311.221
 254  -3057.716
 255  -2767.451
 256  -2675.59
 257  -2701.465
 258  -1357.757
 259  -1087.541
 260  -700.1178
 261  -915.6347
 262  -947.3994
 263  -471.0872
 264  307.0473
 265  1242.914
 266  2623.76
 267  5805.094
 268  11414.06
 269  13569.94
 270  14863.58
 271  11066.36
 272  5953.351
 273  2829.646
 274  13656.07
 275  17695.44
 276  18596.1
 277  12978.62
 278  5666.701
 279  2505.634
 280  472.8031
 281  1222.176
 282  -406.6537
 283  -1833.647
 284  -4074.758
 285  -4318.292
 286  -3652.353
 287  -4040.604
 288  -3639.064
 289  -3726.022
 290  -3972.656
 291  -4798.555
 292  -4551.696
 293  -3790.177
 294  -3902.025
 295  -2970.638
 296  -3065.01
 297  -3665.331
 298  -3675.254
 299  -3906.395
 300  -3566.087
 301  -3740.751
 302  -3559.018
 303  -3540.777
 304  -3412.298
 305  -3655.644
 306  -3515.286
 307  -2752.625
 308  -2591.058
 309  -2217.245
 310  -2152.055
 311  -1854.049
 312  -1242.815
 313  -554.6128
 314  -43.12986
 315  -788.0548
 316  -1650.073
 317  -2079.102
 318  -2986.424
 319  -2988.964
 320  -2894.689
 321  -2500.438
 322  -2518.588
 323  -3339.112
 324  -3112.555
 325  -2239.014
 326  -1992.377
 327  -1339.266
 328  1794.694
 329  2516.065
 330  1874.657
 331  1247.412
 332  -196.8391
 333  -1273.868
 334  2413.381
 335  4535.035
 336  6167.263
 337  6321.831
 338  2924.023
 339  2241.376
 340  1911.584
 341  7648.871
 342  7688.145
 343  8146.436
 344  6510.764
 345  1742.174
 346  -467.0291
 347  1758.115
 348  5224.43
 349  5624.972
 350  5085.973
 351  2058.678
 352  -1169.402
 353  -3551.89
 354  -2943.706
 355  -3146.975
 356  -3019.22
 357  -2651.902
 358  -2222.923
 359  -2285.38
 360  -3322.98
 361  -2935.278
 362  -2134.246
 363  -1540.834
 364  -618.1984
 365  -1385.73
 366  -2239.551
 367  -2981.133
 368  -3681.634
 369  -3275.494
 370  -2460.612
 371  -2492.777
 372  -1979.532
 373  -1768.812
 374  -2356.774
 375  -1985.456
 376  -2009.239
 377  -791.52
 378  -240.5874
 379  -391.5541
 380  -1477.209
 381  -957.1514
 382  375.3569
 383  1898.321
 384  2154.604
 385  2328.008
 386  2623.123
 387  -38.27204
 388  -14.81499
 389  181.2996
 390  1144.808
 391  954.2811
 392  391.1744
 393  -213.0545
 394  -967.7649
 395  -520.5617
 396  -174.0067
 397  119.9503
 398  752.4028
 399  437.5094
 400  649.923
 401  2181.909
 402  2606.455
 403  2807.208
 404  3886.45
 405  3890.539
 406  3684.338
 407  2007.285
 408  2800.909
 409  2226.32
 410  1311.339
 411  -51.57074
 412  -739.8518
 413  -1449.04
 414  -1625.71
 415  -1337.883
 416  -1648.325
 417  -1474.189
 418  -2235.042
 419  -2305.334
 420  -2939.562
 421  -2783.101
 422  -2485.925
 423  -2511.121
 424  -2840.488
 425  -3281.025
 426  -3149.407
 427  -2899.726
 428  -2692.171
 429  -1992.228
 430  -2218.084
 431  -2510.293
 432  -1578.533
 433  902.8828
 434  2233.268
 435  3601.78
 436  4874.971
 437  3411.63
 438  2572.979
 439  1581.102
 440  6321.511
 441  6291.317
 442  6211.136
 443  4567.087
 444  1218.103
 445  238.412
 446  -242.4284
 447  355.8606
 448  -263.3314
 449  -763.5897
 450  -2154.505
 451  -2259.072
 452  -3132.676
 453  -2863.282
 454  -3028.733
 455  -3457.882
 456  -3622.608
 457  -3820.999
 458  -3244.785
 459  -3635.914
 460  -3721.871
 461  -3554.185
 462  -3890.501
 463  -3837.398
 464  -3720.44
 465  -3405.792
 466  -3928.14
 467  -3942.817
 468  -4039.226
 469  -3538.589
 470  -3382.911
 471  -3232.98
 472  -3022.318
 473  -3032.436
 474  -3443.11
 475  -3227.528
 476  -3021.366
 477  -3038.098
 478  -2962.031
 479  -3230.311
 480  -3054.734
 481  -2945.026
 482  -3295.159
 483  -3872.24
 484  -3602.887
 485  -3347.41
 486  -3011.617
 487  -3357.669
 488  -3294.014
 489  -3854.385
 490  -3878.632
 491  -4147.297
 492  -4509.976
 493  -3723.177
 494  -3234.982
 495  -3438.72
 496  -3154.109
 497  -3993.661
 498  -4225.697
 499  -3773.606
 500  -3326.941
 501  -2.901377
 502  3786.983
 503  7397.452
 504  6941.345
 505  6654.309
 506  2807.308
 507  -855.7002
 508  967.731
 509  8387.129
 510  12048.86
 511  12655.54
