# Input file       =  1198244740.110395_cleaned.dat
# Candidate        =  PSR_0332+5434
# Telescope        =  AR
# Epoch_topo       =  58112.573600814758
# Epoch_bary       =  N/A
# T_sample         =  0.002
# Data Folded      =  7208960
# Data Avg         =  0.362646685653916
# Data StdDev      =  5.83750273631084 
# Profile Bins     =  512
# Profile Avg      =  5104.77132060988 
# Profile StdDev   =  692.673263383124 
# Reduced chi-sqr  =  0.624
# Prob(Noise)      <  1   (~0.0 sigma)
# P_topo (ms)      =  714.550074102933  +/- 7.01e-05
# P'_topo (s/s)    =  -0                +/- 3.77e-11
# P''_topo (s/s^2) =  0                 +/- 1.69e-14
# P_bary (ms)      =  N/A
# P'_bary (s/s)    =  N/A
# P''_bary (s/s^2) =  N/A
# P_orb (s)        =  N/A
# asin(i)/c (s)    =  N/A
# eccentricity     =  N/A
# w (rad)          =  N/A
# T_peri           =  N/A
######################################################
   0  4285.495
   1  4649.49
   2  4706.833
   3  4914.766
   4  5071.592
   5  4899.458
   6  5416.152
   7  5383.918
   8  5154.076
   9  4963.011
  10  4885
  11  4431.268
  12  4673.513
  13  4951.887
  14  4981.059
  15  4816.996
  16  4744.72
  17  4821.825
  18  4636.435
  19  4500.862
  20  4529.947
  21  5092.921
  22  5166.207
  23  5287.583
  24  4752.411
  25  4450.079
  26  4502.048
  27  4984.074
  28  5116.996
  29  4726.399
  30  4509.942
  31  4589.681
  32  4366.696
  33  4353.677
  34  4763.942
  35  4963.145
  36  4893.161
  37  5309.735
  38  5971.43
  39  5670.209
  40  5689.175
  41  5627.762
  42  5334.918
  43  4724.006
  44  4597.048
  45  5068.069
  46  4804.267
  47  4811.205
  48  5475.855
  49  5407.392
  50  5170.543
  51  4816.878
  52  4911.045
  53  4616.399
  54  4587.97
  55  5139.792
  56  4876.915
  57  5339.703
  58  5192.405
  59  5696.84
  60  5230.371
  61  4599.612
  62  5181.897
  63  5050.119
  64  5590.427
  65  5653.541
  66  5532.623
  67  5161.227
  68  5317.941
  69  5609.004
  70  5657.493
  71  5544.149
  72  5529.181
  73  4985.583
  74  4968.97
  75  5042.473
  76  5117.022
  77  5556.996
  78  5679.202
  79  5296.867
  80  5163.885
  81  4954.875
  82  5344.292
  83  4455.948
  84  4984.301
  85  5376.626
  86  5603.456
  87  5724.424
  88  5903.695
  89  6118.017
  90  5680.487
  91  5596.827
  92  5971.418
  93  5644.698
  94  4978.621
  95  5274.579
  96  5543.649
  97  4992.553
  98  4847.969
  99  4692.387
 100  5099.146
 101  4818.74
 102  5051.66
 103  5288.928
 104  5082.739
 105  5338.258
 106  4777.204
 107  5288.6
 108  5109.742
 109  5051.701
 110  5072.643
 111  5139.41
 112  5238.484
 113  5096.916
 114  5143.957
 115  4584.179
 116  4289.448
 117  4529.035
 118  5104.706
 119  5117.507
 120  5618.542
 121  5672.196
 122  5648.095
 123  5054.484
 124  4864.959
 125  4980.453
 126  4781.779
 127  5052.485
 128  5137.893
 129  5420.662
 130  5203.629
 131  4908.825
 132  4742.452
 133  4663.165
 134  5009.329
 135  5329.372
 136  5602.093
 137  5474.795
 138  5277.491
 139  5261.594
 140  4801.445
 141  4913.644
 142  4701.527
 143  4959.108
 144  4660.846
 145  5167.456
 146  5315.933
 147  4990.954
 148  4881.581
 149  5140.422
 150  5213.3
 151  5395.336
 152  5321.359
 153  5234.837
 154  5566.517
 155  5228.311
 156  5133.78
 157  5136.4
 158  5226.159
 159  4867.433
 160  4704.482
 161  5006.694
 162  4907.915
 163  5014.948
 164  4986.824
 165  4669.193
 166  4515.775
 167  4958.363
 168  4734.163
 169  4986.445
 170  5623.204
 171  5148.729
 172  5493.597
 173  5304.132
 174  5030.233
 175  5113.876
 176  5174.918
 177  5525.568
 178  5443.635
 179  5379.041
 180  5061.859
 181  4649.779
 182  5202.277
 183  4955.709
 184  5124.889
 185  5396.551
 186  6191.565
 187  6028.757
 188  5957.457
 189  5912.381
 190  4931.278
 191  4890.878
 192  5024.263
 193  4865.898
 194  4608.399
 195  5335.662
 196  5800.457
 197  5504.417
 198  4813.402
 199  5018.967
 200  5363.057
 201  5367.066
 202  5332.786
 203  5334.855
 204  5459.183
 205  5336.093
 206  5147.476
 207  4915.714
 208  4827.649
 209  5172.031
 210  5150.801
 211  5307.735
 212  5015.874
 213  4930.375
 214  5174.678
 215  4993.33
 216  4885.5
 217  4947.818
 218  5670.451
 219  5789.445
 220  5773.249
 221  5595.478
 222  5499.106
 223  5506.403
 224  5098.153
 225  5132.752
 226  4678.241
 227  4865.952
 228  4890.775
 229  4925.758
 230  4461.054
 231  4469.814
 232  5017.683
 233  4727.621
 234  5731.106
 235  5223.882
 236  5072.744
 237  5065.496
 238  4909.091
 239  5291.092
 240  4834.833
 241  5160.154
 242  5006.367
 243  4773.068
 244  5255.704
 245  5309.525
 246  4947.449
 247  5244.276
 248  5213.798
 249  4750.989
 250  4846.048
 251  5043.181
 252  5587.316
 253  5981.764
 254  5574.875
 255  5492.239
 256  5782.121
 257  5689.56
 258  5388.341
 259  5119.834
 260  5660.848
 261  6101.848
 262  5738.664
 263  5583.426
 264  4914.586
 265  4638.183
 266  4774.421
 267  4671.695
 268  5270.021
 269  5385.341
 270  5477.471
 271  5301.643
 272  4931.417
 273  4637.505
 274  4392.899
 275  5403.23
 276  5418.27
 277  5376.487
 278  5057.813
 279  4971.456
 280  5149.412
 281  4532.581
 282  4683.686
 283  5029.461
 284  5210.457
 285  5314.691
 286  5325.486
 287  5561.722
 288  5188.811
 289  5194.056
 290  4568.728
 291  4499.126
 292  4873.048
 293  5261.671
 294  5627.001
 295  5282.5
 296  5185.433
 297  4425.856
 298  4288.243
 299  4479.801
 300  4697.439
 301  4920.233
 302  5647.852
 303  5730.729
 304  5857.604
 305  5058.455
 306  5046.875
 307  5011.263
 308  5342.582
 309  6081.338
 310  6356.1
 311  7038.437
 312  6867.257
 313  6178.622
 314  5059.341
 315  5024.664
 316  5150.793
 317  5249.608
 318  5734.292
 319  5838.825
 320  5461.036
 321  5039.803
 322  5374.105
 323  5300.248
 324  5015.129
 325  4869.473
 326  4840.131
 327  5081.315
 328  5459.98
 329  5091.647
 330  4837.331
 331  4754.962
 332  4869.828
 333  5308.328
 334  5074.543
 335  5242
 336  5409.992
 337  4799.239
 338  4699.187
 339  4727.728
 340  4927.129
 341  4660.458
 342  4562.391
 343  5117.647
 344  5293.004
 345  5184.738
 346  4827.884
 347  5028.935
 348  4850.363
 349  4968.781
 350  5364.424
 351  5167.846
 352  5510.276
 353  5657.288
 354  5988.65
 355  5914.141
 356  5672.159
 357  5243.434
 358  5235.909
 359  5589.12
 360  5344.335
 361  5452.155
 362  4955.006
 363  5204.058
 364  4994.829
 365  5609.953
 366  5086.229
 367  4558.108
 368  4687.318
 369  4670.6
 370  4856.439
 371  4705.025
 372  4981.467
 373  4713.537
 374  4859.861
 375  4850.625
 376  4810.176
 377  4834.021
 378  4520.817
 379  4629.235
 380  4626.861
 381  4390.274
 382  4799.804
 383  5490.985
 384  5822.625
 385  5400.735
 386  5423.39
 387  5556.418
 388  5315.13
 389  4708.199
 390  4742.385
 391  4835.797
 392  5199.736
 393  5651.759
 394  5350.083
 395  4755.48
 396  4863.405
 397  5369.11
 398  5016.98
 399  4790.711
 400  4959.578
 401  5468.511
 402  5654.646
 403  5530.115
 404  5354.302
 405  5161.55
 406  4793.098
 407  4828.503
 408  5315.436
 409  4882.977
 410  4654.433
 411  4901.37
 412  5240.406
 413  5213.169
 414  5130.072
 415  5065.204
 416  4973.407
 417  5139.363
 418  5115.135
 419  5481.488
 420  4919.118
 421  4611.008
 422  5018.132
 423  5312.245
 424  4820.483
 425  4721.071
 426  4848.474
 427  4695.852
 428  4950.672
 429  4509.583
 430  4579.428
 431  4873.589
 432  4874.003
 433  5315.076
 434  5648.631
 435  5779.922
 436  5177.344
 437  4891.28
 438  4862.538
 439  4622.033
 440  4881.394
 441  4744.924
 442  4873.428
 443  5142.351
 444  5243.059
 445  4455.751
 446  4121.125
 447  4300.602
 448  4569.043
 449  4941.542
 450  4951.134
 451  4823.077
 452  4589.813
 453  4881.285
 454  4657.912
 455  4970.184
 456  4750.783
 457  4542.718
 458  4799.522
 459  4844.886
 460  4524.141
 461  4325.912
 462  4705.486
 463  4855.279
 464  4559.46
 465  5061.7
 466  5203.374
 467  5267.18
 468  5544.418
 469  5335.343
 470  4702.916
 471  4536.699
 472  4414.186
 473  4302.409
 474  4902.162
 475  5257.266
 476  5302.097
 477  5117.482
 478  5030.932
 479  5138.383
 480  4850.735
 481  5437.915
 482  5433.915
 483  5723.641
 484  5425.644
 485  5379.434
 486  5502.016
 487  5171.025
 488  4669.335
 489  4177.825
 490  4881.743
 491  5337.406
 492  5198.526
 493  5019.144
 494  4975.933
 495  5184.621
 496  4401.862
 497  4907.075
 498  4944.217
 499  4704.838
 500  4969.973
 501  5563.031
 502  5263.938
 503  5317.861
 504  5233.652
 505  5042.117
 506  5114.716
 507  4996.313
 508  5377.042
 509  5269.361
 510  4759.414
 511  4835.245
