# Input file       =  1198690143.109693_cleaned.dat
# Candidate        =  PSR_0332+5434
# Telescope        =  AR
# Epoch_topo       =  58117.728728121445
# Epoch_bary       =  N/A
# T_sample         =  0.002
# Data Folded      =  7340032
# Data Avg         =  0.0318553535558468
# Data StdDev      =  1.00008218415364 
# Profile Bins     =  512
# Profile Avg      =  456.712142137425 
# Profile StdDev   =  119.742876535023 
# Reduced chi-sqr  =  0.824
# Prob(Noise)      <  0.999   (~0.0 sigma)
# P_topo (ms)      =  714.554677405752  +/- 0.000561
# P'_topo (s/s)    =  -0                +/- 2.96e-10
# P''_topo (s/s^2) =  0                 +/- 1.31e-13
# P_bary (ms)      =  N/A
# P'_bary (s/s)    =  N/A
# P''_bary (s/s^2) =  N/A
# P_orb (s)        =  N/A
# asin(i)/c (s)    =  N/A
# eccentricity     =  N/A
# w (rad)          =  N/A
# T_peri           =  N/A
######################################################
   0  438.2475
   1  480.9069
   2  534.346
   3  548.1626
   4  415.979
   5  439.7549
   6  544.3294
   7  491.7861
   8  410.985
   9  497.6739
  10  533.5572
  11  523.4792
  12  567.6647
  13  572.2875
  14  504.4919
  15  521.0302
  16  394.1095
  17  446.5818
  18  589
  19  533.2282
  20  525.7282
  21  518.538
  22  503.2164
  23  525.0133
  24  481.7648
  25  581.7515
  26  471.4549
  27  444.7975
  28  402.1382
  29  435.3068
  30  447.3447
  31  415.7758
  32  416.636
  33  514.4684
  34  456.8603
  35  391.6189
  36  380.5555
  37  466.7286
  38  553.2441
  39  577.9182
  40  533.1343
  41  515.808
  42  500.6539
  43  548.0616
  44  545.0884
  45  450.5927
  46  494.2632
  47  414.265
  48  410.1201
  49  363.7856
  50  376.1762
  51  457.2588
  52  381.387
  53  444.6281
  54  427.2112
  55  419.3423
  56  536.2665
  57  529.2968
  58  495.1112
  59  450.8589
  60  501.6954
  61  505.2319
  62  519.7246
  63  416.2026
  64  422.3972
  65  449.558
  66  486.0825
  67  444.2466
  68  441.8726
  69  478.5545
  70  491.2383
  71  445.4099
  72  402.55
  73  391.4963
  74  341.1571
  75  375.9388
  76  404.6952
  77  400.3073
  78  342.2929
  79  401.6645
  80  384.2421
  81  290.7898
  82  283.7694
  83  330.4072
  84  394.7903
  85  410.8755
  86  303.2682
  87  370.4294
  88  393.1666
  89  374.5502
  90  298.588
  91  315.83
  92  393.2484
  93  412.0347
  94  374.9137
  95  348.3501
  96  333.5061
  97  425.1553
  98  468.6108
  99  511.383
 100  319.8221
 101  366.2789
 102  401.1609
 103  408.0497
 104  421.0765
 105  409.8147
 106  428.0538
 107  463.3505
 108  576.4923
 109  469.7902
 110  489.8966
 111  533.1761
 112  530.1406
 113  486.6697
 114  447.4736
 115  476.7045
 116  422.4737
 117  513.2133
 118  532.3561
 119  572.1044
 120  583.5885
 121  600.1907
 122  522.7389
 123  530.9702
 124  506.38
 125  438.787
 126  379.7358
 127  502.6659
 128  543.8629
 129  461.6766
 130  511.9211
 131  441.7554
 132  458.9801
 133  418.3711
 134  428.8015
 135  475.6605
 136  496.0797
 137  479.2621
 138  499.3867
 139  577.4651
 140  592.6337
 141  539.3073
 142  636.0997
 143  621.394
 144  536.5048
 145  509.145
 146  341.7086
 147  438.5239
 148  416.5389
 149  402.8523
 150  359.5849
 151  299.264
 152  277.0331
 153  425.3036
 154  456.9796
 155  406.8863
 156  403.0113
 157  428.3054
 158  459.8984
 159  460.69
 160  515.9857
 161  563.5745
 162  456.7096
 163  495.4984
 164  486.7365
 165  456.803
 166  383.8124
 167  475.4751
 168  438.0427
 169  501.8255
 170  486.2111
 171  410.7466
 172  465.5872
 173  442.0113
 174  579.5396
 175  522.8412
 176  435.2013
 177  443.9409
 178  411.7086
 179  477.4058
 180  463.009
 181  397.272
 182  390.9053
 183  549.2853
 184  604.0501
 185  598.5238
 186  600.4517
 187  622.0393
 188  510.3403
 189  494.1146
 190  428.1846
 191  530.0016
 192  520.1721
 193  469.712
 194  432.8271
 195  491.8374
 196  535.7064
 197  574.2971
 198  577.8958
 199  515.0439
 200  461.2275
 201  528.304
 202  467.6135
 203  597.7703
 204  577.3294
 205  483.5242
 206  549.1304
 207  556.1905
 208  486.1711
 209  486.29
 210  441.1343
 211  542.991
 212  474.6039
 213  506.4293
 214  439.0615
 215  441.1012
 216  354.7873
 217  398.2842
 218  455.5473
 219  436.8416
 220  440.7081
 221  473.1076
 222  529.5381
 223  448.1149
 224  451.9551
 225  527.4671
 226  458.0153
 227  397.1265
 228  426.6646
 229  377.1969
 230  424.7861
 231  492.6412
 232  448.1067
 233  388.4006
 234  431.0883
 235  392.2353
 236  422.2886
 237  365.712
 238  339.8042
 239  319.9455
 240  340.6212
 241  359.7075
 242  333.0842
 243  339.1304
 244  341.4294
 245  457.8892
 246  452.5458
 247  420.7488
 248  450.8678
 249  427.2609
 250  363.1149
 251  411.5988
 252  465.7086
 253  343.9206
 254  443.6596
 255  465.2264
 256  453.7795
 257  442.6347
 258  446.993
 259  475.9355
 260  522.4155
 261  519.9628
 262  447.6266
 263  428.8133
 264  447.7917
 265  415.1224
 266  380.1993
 267  450.3233
 268  466.0684
 269  385.329
 270  394.5511
 271  474.8486
 272  428.6788
 273  432.7235
 274  470.8435
 275  497.2041
 276  431.7864
 277  482.2557
 278  472.4956
 279  378.2403
 280  431.3098
 281  329.8108
 282  410.9912
 283  450.5288
 284  463.7384
 285  410.9678
 286  381.6316
 287  468.3789
 288  422.1649
 289  439.6859
 290  392.7311
 291  365.2508
 292  354.6656
 293  338.7932
 294  245.6468
 295  422.9128
 296  433.866
 297  452.95
 298  378.4187
 299  406.5787
 300  498.158
 301  527.2153
 302  508.0999
 303  469.7825
 304  434.4822
 305  309.1651
 306  415.7598
 307  499.4729
 308  472.7007
 309  543.9304
 310  461.4801
 311  410.5308
 312  417.9961
 313  418.0139
 314  272.436
 315  409.6861
 316  409.3273
 317  448.35
 318  480.6135
 319  552.4756
 320  511.6035
 321  538.3275
 322  545.7848
 323  545.957
 324  520.3143
 325  653.139
 326  719.6648
 327  698.7652
 328  858.3445
 329  785.0712
 330  729.8618
 331  582.082
 332  465.1373
 333  609.5128
 334  629.0887
 335  444.0738
 336  409.4654
 337  439.2954
 338  525.9016
 339  539.5563
 340  545.3611
 341  491.6234
 342  443.5784
 343  518.3722
 344  516.6309
 345  421.3016
 346  520.2612
 347  569.4898
 348  558.1662
 349  503.3802
 350  466.2357
 351  430.4985
 352  431.7965
 353  549.1489
 354  445.2434
 355  349.1165
 356  384.8785
 357  450.1039
 358  394.2655
 359  511.2294
 360  447.0316
 361  432.368
 362  426.5194
 363  397.9438
 364  355.5264
 365  389.6655
 366  399.3973
 367  344.5031
 368  422.6524
 369  476.5988
 370  471.8983
 371  362.8365
 372  365.7133
 373  480.8643
 374  464.8874
 375  477.7453
 376  457.7858
 377  413.7184
 378  381.2173
 379  393.517
 380  409.8196
 381  451.888
 382  522.78
 383  506.4998
 384  574.3446
 385  517.3718
 386  393.6476
 387  237.927
 388  214.5098
 389  242.0516
 390  421.8921
 391  482.799
 392  442.7189
 393  342.1341
 394  426.9935
 395  385.7292
 396  373.3179
 397  395.7066
 398  434.8298
 399  380.8384
 400  411.3143
 401  397.3977
 402  419.5598
 403  425.329
 404  463.4123
 405  446.8417
 406  374.4113
 407  467.9855
 408  439.7702
 409  406.6875
 410  367.2773
 411  472.6273
 412  435.8724
 413  433.3039
 414  444.217
 415  502.1682
 416  492.4624
 417  647.5054
 418  651.8413
 419  568.835
 420  514.3229
 421  526.2794
 422  485.6158
 423  513.7327
 424  505.4115
 425  458.9616
 426  490.6885
 427  429.2221
 428  384.8088
 429  432.5145
 430  493.1667
 431  418.0021
 432  402.0125
 433  383.9694
 434  361.5694
 435  382.4182
 436  323.3687
 437  410.0365
 438  425.2847
 439  428.2336
 440  409.6509
 441  535.8273
 442  579.3395
 443  602.6493
 444  491.5832
 445  485.3978
 446  488.7018
 447  411.3507
 448  492.9527
 449  558.3028
 450  444.7333
 451  382.7866
 452  374.1255
 453  441.7696
 454  510.6388
 455  542.051
 456  494.1988
 457  520.9607
 458  578.1165
 459  426.6147
 460  432.1729
 461  432.3146
 462  412.7494
 463  423.4068
 464  347.5075
 465  412.3766
 466  316.284
 467  303.1907
 468  322.3867
 469  274.9293
 470  425.4288
 471  463.746
 472  330.9926
 473  457.9445
 474  460.5216
 475  519.5246
 476  495.5009
 477  422.4571
 478  517.2736
 479  456.3668
 480  457.3862
 481  498.6381
 482  397.3487
 483  466.4392
 484  542.8344
 485  480.9953
 486  457.5685
 487  366.3746
 488  374.6829
 489  365.3505
 490  397.9423
 491  457.191
 492  440.9135
 493  305.2253
 494  442.701
 495  537.0311
 496  619.0626
 497  473.1599
 498  402.5791
 499  370.0234
 500  508.9128
 501  511.2706
 502  544.3882
 503  574.4373
 504  515.9841
 505  585.8165
 506  434.5323
 507  380.3387
 508  524.9029
 509  545.5772
 510  473.9499
 511  445.5405
