# Input file       =  1198675532.112296_cleaned.dat
# Candidate        =  PSR_0332+5434
# Telescope        =  AR
# Epoch_topo       =  58117.559619355277
# Epoch_bary       =  N/A
# T_sample         =  0.002
# Data Folded      =  7143424
# Data Avg         =  0.0118946209428213
# Data StdDev      =  1.00004180936152 
# Profile Bins     =  512
# Profile Avg      =  165.929300181132 
# Profile StdDev   =  118.123522944468 
# Reduced chi-sqr  =  1.361
# Prob(Noise)      <  9.25e-08   (~5.2 sigma)
# P_topo (ms)      =  714.554510894412  +/- 0.000283
# P'_topo (s/s)    =  -0                +/- 1.53e-10
# P''_topo (s/s^2) =  0                 +/- 6.96e-14
# P_bary (ms)      =  N/A
# P'_bary (s/s)    =  N/A
# P''_bary (s/s^2) =  N/A
# P_orb (s)        =  N/A
# asin(i)/c (s)    =  N/A
# eccentricity     =  N/A
# w (rad)          =  N/A
# T_peri           =  N/A
######################################################
   0  267.7744
   1  210.0002
   2  149.2452
   3  164.9655
   4  75.04086
   5  150.6421
   6  109.9889
   7  127.1495
   8  149.5248
   9  214.5674
  10  295.4229
  11  154.5202
  12  164.8831
  13  176.2575
  14  103.081
  15  207.457
  16  262.2193
  17  187.2654
  18  125.2386
  19  162.1627
  20  169.9144
  21  113.9967
  22  58.63457
  23  133.0829
  24  122.7886
  25  12.47207
  26  62.34677
  27  99.48312
  28  86.46088
  29  106.2163
  30  99.46673
  31  194.9812
  32  267.9967
  33  136.1018
  34  63.72564
  35  55.33912
  36  81.62624
  37  15.1338
  38  113.7035
  39  70.75563
  40  162.0987
  41  238.9048
  42  144.0983
  43  14.12805
  44  1.840937
  45  -9.154702
  46  144.1057
  47  280.3118
  48  79.12907
  49  96.88107
  50  78.15627
  51  112.364
  52  247.1027
  53  88.79137
  54  42.3059
  55  103.8477
  56  42.96401
  57  -40.02138
  58  -198.16
  59  -1.189517
  60  87.33447
  61  60.15791
  62  18.10079
  63  162.6672
  64  69.42725
  65  104.7958
  66  189.6503
  67  154.4406
  68  147.2056
  69  142.7085
  70  136.1189
  71  97.03651
  72  47.68315
  73  -44.97606
  74  -39.04152
  75  2.087859
  76  78.1028
  77  53.06187
  78  37.11541
  79  37.32296
  80  47.4715
  81  140.1186
  82  199.5307
  83  99.60542
  84  178.3173
  85  210.7563
  86  225.6609
  87  204.2121
  88  245.1977
  89  205.3792
  90  156.1164
  91  139.6915
  92  198.3688
  93  308.7092
  94  178.4572
  95  230.359
  96  265.739
  97  209.7291
  98  118.961
  99  217.55
 100  201.6075
 101  164.5326
 102  155.5886
 103  94.07845
 104  111.0322
 105  172.7255
 106  164.0478
 107  187.8859
 108  151.5242
 109  209.6981
 110  240.804
 111  281.6623
 112  297.4635
 113  247.9089
 114  165.7761
 115  -2.996637
 116  58.02999
 117  77.9437
 118  170.8657
 119  154.2728
 120  151.2558
 121  82.53025
 122  32.15646
 123  90.80896
 124  152.9126
 125  146.794
 126  209.0971
 127  143.9784
 128  103.6795
 129  113.3979
 130  93.08563
 131  184.1585
 132  232.5624
 133  212.908
 134  149.4626
 135  101.0314
 136  77.56178
 137  24.88883
 138  212.4632
 139  282.7247
 140  277.5971
 141  250.9687
 142  242.6921
 143  223.0791
 144  199.9052
 145  169.3635
 146  219.3009
 147  298.8692
 148  242.1721
 149  210.133
 150  253.0465
 151  212.4751
 152  280.4583
 153  307.1067
 154  262
 155  215.3359
 156  216.8932
 157  61.94584
 158  116.4861
 159  181.0106
 160  96.32303
 161  205.434
 162  339.3027
 163  363.4893
 164  151.3057
 165  243.8597
 166  294.5337
 167  289.8042
 168  256.7038
 169  246.4528
 170  315.0871
 171  523.5777
 172  606.1788
 173  636.041
 174  634.0046
 175  672.8204
 176  635.3679
 177  413.3315
 178  170.3647
 179  67.23771
 180  334.2061
 181  352.9219
 182  263.2216
 183  151.7867
 184  165.8374
 185  165.2054
 186  319.666
 187  316.5754
 188  180.4136
 189  196.6872
 190  170.9694
 191  222.0814
 192  221.42
 193  210.4525
 194  199.1205
 195  104.9382
 196  265.7722
 197  278.6198
 198  212.0492
 199  208.2146
 200  198.2427
 201  210.3361
 202  189.3173
 203  169.4539
 204  193.7314
 205  149.3478
 206  234.8801
 207  227.9324
 208  192.4923
 209  163.1736
 210  225.5906
 211  249.7202
 212  209.303
 213  99.63172
 214  126.2805
 215  150.9102
 216  245.853
 217  124.8642
 218  3.721734
 219  84.86639
 220  128.7944
 221  150.9943
 222  172.3933
 223  232.8389
 224  205.5442
 225  79.5717
 226  144.438
 227  167.3359
 228  145.5447
 229  160.4185
 230  153.5795
 231  158.3475
 232  84.93652
 233  178.3269
 234  119.8998
 235  135.284
 236  37.12512
 237  -5.527107
 238  36.19713
 239  -3.781409
 240  170.9189
 241  87.42927
 242  51.62848
 243  139.2042
 244  240.4212
 245  357.5239
 246  279.4376
 247  254.6986
 248  147.4277
 249  187.8204
 250  146.2391
 251  223.6781
 252  212.5456
 253  72.09808
 254  48.40789
 255  49.46283
 256  41.54504
 257  178.9389
 258  192.101
 259  154.259
 260  139.9029
 261  210.7521
 262  253.1812
 263  240.5408
 264  221.6373
 265  293.0721
 266  163.6665
 267  50.09928
 268  -23.85694
 269  100.5759
 270  127.8832
 271  160.6337
 272  270.4379
 273  140.4631
 274  103.4155
 275  217.8184
 276  221.0339
 277  227.3277
 278  246.7159
 279  191.5487
 280  230.8643
 281  207.5064
 282  183.1398
 283  11.85473
 284  -63.19806
 285  80.28057
 286  150.8077
 287  238.8409
 288  171.7963
 289  132.4994
 290  229.9466
 291  224.7093
 292  296.539
 293  247.8477
 294  368.1136
 295  345.8543
 296  172.8641
 297  106.7836
 298  224.9454
 299  356.0266
 300  245.4318
 301  289.1917
 302  125.2617
 303  52.28294
 304  98.52859
 305  248.568
 306  211.2465
 307  119.5484
 308  130.9017
 309  70.77062
 310  212.0444
 311  262.0628
 312  297.6906
 313  140.6924
 314  72.67223
 315  115.8981
 316  182.0852
 317  148.0039
 318  190.9214
 319  255.1111
 320  297.8597
 321  177.0484
 322  166.8404
 323  193.3156
 324  122.8464
 325  72.88466
 326  221.1902
 327  224.3802
 328  247.319
 329  272.5795
 330  304.8992
 331  257.5269
 332  88.83511
 333  21.83499
 334  59.16476
 335  204.4739
 336  265.4757
 337  282.9581
 338  246.8056
 339  127.3436
 340  120.9088
 341  95.56465
 342  10.25105
 343  120.8492
 344  139.8357
 345  38.54451
 346  15.71181
 347  133.2963
 348  175.0131
 349  120.9815
 350  107.5877
 351  137.0487
 352  46.16409
 353  46.89171
 354  53.38363
 355  90.63425
 356  120.6172
 357  49.80987
 358  38.92627
 359  105.6061
 360  181.6649
 361  182.1499
 362  205.9054
 363  44.15763
 364  67.82629
 365  193.3564
 366  106.5803
 367  137.1827
 368  178.9957
 369  227.2269
 370  248.7519
 371  243.6935
 372  239.472
 373  237.6684
 374  159.9913
 375  119.9447
 376  44.99621
 377  29.67858
 378  109.8025
 379  149.4814
 380  220.6711
 381  220.3376
 382  140.2875
 383  127.9085
 384  187.8512
 385  222.8976
 386  259.2273
 387  194.7617
 388  156.6699
 389  204.9171
 390  179.3229
 391  39.69353
 392  100.1515
 393  228.1463
 394  238.0571
 395  127.3954
 396  293.3652
 397  272.2234
 398  190.3441
 399  -4.433646
 400  85.38045
 401  213.5824
 402  187.4153
 403  168.4273
 404  169.5129
 405  176.1033
 406  174.8661
 407  173.2025
 408  73.48644
 409  42.41597
 410  299.7912
 411  170.1667
 412  40.89271
 413  44.56712
 414  24.17199
 415  16.96371
 416  -89.64442
 417  46.95569
 418  137.2924
 419  234.637
 420  154.3283
 421  86.22391
 422  126.4164
 423  173.1266
 424  209.7524
 425  193.4429
 426  293.059
 427  200.2041
 428  356.1714
 429  337.4757
 430  163.5677
 431  147.8893
 432  157.1703
 433  50.37449
 434  91.16772
 435  130.9943
 436  255.1097
 437  124.298
 438  113.0473
 439  128.2867
 440  208.4902
 441  346.6176
 442  384.1446
 443  304.3555
 444  227.5898
 445  311.9158
 446  278.0209
 447  392.8865
 448  275.5463
 449  43.06599
 450  127.2948
 451  218.4486
 452  156.4439
 453  -30.34212
 454  50.00685
 455  -14.98007
 456  203.8015
 457  228.4417
 458  211.6772
 459  178.3106
 460  198.6103
 461  215.1949
 462  267.6903
 463  187.9754
 464  153.2479
 465  207.6447
 466  175.5778
 467  160.7077
 468  141.4859
 469  75.64849
 470  90.4547
 471  56.40623
 472  90.14695
 473  119.1347
 474  23.42509
 475  183.3759
 476  156.2701
 477  161.4172
 478  173.9919
 479  208.7378
 480  90.73289
 481  13.91018
 482  84.17021
 483  73.09187
 484  117.6486
 485  30.20526
 486  68.70992
 487  175.0658
 488  6.304487
 489  107.1416
 490  285.3965
 491  274.4045
 492  138.5395
 493  125.0898
 494  157.9753
 495  107.0157
 496  80.87423
 497  184.5292
 498  229.2744
 499  131.5723
 500  149.9188
 501  202.1998
 502  231.7027
 503  240.0242
 504  174.8402
 505  100.5673
 506  54.07883
 507  60.66003
 508  238.1753
 509  332.1741
 510  289.4117
 511  211.0138
