# Input file       =  1198431712.104709_cleaned.dat
# Candidate        =  PSR_0332+5434
# Telescope        =  AR
# Epoch_topo       =  58114.737628526724
# Epoch_bary       =  N/A
# T_sample         =  0.002
# Data Folded      =  7340032
# Data Avg         =  0.0291610975127903
# Data StdDev      =  1.0000720594832  
# Profile Bins     =  512
# Profile Avg      =  418.044246203167 
# Profile StdDev   =  119.741664277489 
# Reduced chi-sqr  =  0.920
# Prob(Noise)      <  0.903   (~0.0 sigma)
# P_topo (ms)      =  714.552053586202  +/- 0.000576
# P'_topo (s/s)    =  -0                +/- 3.04e-10
# P''_topo (s/s^2) =  0                 +/- 1.34e-13
# P_bary (ms)      =  N/A
# P'_bary (s/s)    =  N/A
# P''_bary (s/s^2) =  N/A
# P_orb (s)        =  N/A
# asin(i)/c (s)    =  N/A
# eccentricity     =  N/A
# w (rad)          =  N/A
# T_peri           =  N/A
######################################################
   0  454.5081
   1  472.2641
   2  331.2957
   3  382.3446
   4  333.4707
   5  254.9906
   6  305.2678
   7  447.9127
   8  387.3375
   9  288.6887
  10  318.2924
  11  432.8395
  12  294.4474
  13  305.5141
  14  351.2125
  15  396.8902
  16  502.8703
  17  496.3056
  18  397.5722
  19  388.3125
  20  421.0892
  21  448.1197
  22  475.4363
  23  498.1863
  24  421.8711
  25  418.9626
  26  508.4274
  27  418.707
  28  474.7733
  29  434.5266
  30  536.2144
  31  586.285
  32  457.9997
  33  394.3275
  34  386.4438
  35  443.1617
  36  454.33
  37  385.0506
  38  566.2657
  39  553.8807
  40  403.094
  41  435.2521
  42  508.4383
  43  512.8666
  44  514.0602
  45  543.2171
  46  511.8801
  47  433.6315
  48  357.9658
  49  335.857
  50  414.8543
  51  365.3981
  52  354.5359
  53  386.8863
  54  353.2244
  55  357.0508
  56  348.7576
  57  362.9478
  58  482.1422
  59  417.8265
  60  309.3509
  61  430.1476
  62  491.4374
  63  480.818
  64  469.9177
  65  416.0833
  66  364.3044
  67  415.1432
  68  520.9346
  69  488.6747
  70  432.154
  71  377.7274
  72  538.8461
  73  510.6979
  74  502.6369
  75  617.9711
  76  605.4702
  77  413.3678
  78  340.656
  79  462.8094
  80  529.4922
  81  513.2885
  82  517.5903
  83  476.1511
  84  526.1246
  85  595.0979
  86  523.0239
  87  424.5732
  88  364.3863
  89  436.9037
  90  528.1204
  91  475.6788
  92  348.0964
  93  306.9744
  94  463.0403
  95  466.4282
  96  366.0498
  97  364.0841
  98  481.0955
  99  476.3505
 100  401.3112
 101  412.1726
 102  415.2583
 103  382.5395
 104  330.2534
 105  276.0129
 106  338.4759
 107  433.6265
 108  461.9328
 109  361.7498
 110  371.0823
 111  429.2898
 112  387.7503
 113  428.8647
 114  431.1574
 115  485.2513
 116  417.107
 117  393.6353
 118  397.993
 119  489.6751
 120  497.8076
 121  467.2312
 122  487.368
 123  521.2908
 124  372.7954
 125  310.1877
 126  425.6656
 127  495.9076
 128  422.3486
 129  361.9964
 130  361.0855
 131  316.3895
 132  350.278
 133  375.9755
 134  388.596
 135  432.0967
 136  476.5001
 137  380.6898
 138  374.2975
 139  341.5451
 140  363.6555
 141  366.0895
 142  429.184
 143  400.2239
 144  385.3027
 145  401.7621
 146  347.6292
 147  327.3983
 148  374.7559
 149  469.2346
 150  521.2824
 151  487.2242
 152  422.2422
 153  290.2863
 154  425.1667
 155  399.846
 156  374.0114
 157  348.97
 158  397.4221
 159  477.7408
 160  438.9909
 161  415.5698
 162  422.5891
 163  499.7888
 164  541.4477
 165  595.4622
 166  579.3848
 167  414.4724
 168  402.6509
 169  386.446
 170  320.4855
 171  415.8971
 172  445.763
 173  456.6739
 174  430.9635
 175  315.9149
 176  316.5727
 177  376.5388
 178  491.9156
 179  441.4605
 180  386.2648
 181  406.5667
 182  488.4761
 183  452.6803
 184  604.9827
 185  550.3373
 186  528.6326
 187  644.4174
 188  745.9496
 189  793.9085
 190  917.8484
 191  914.8734
 192  777.2307
 193  581.4581
 194  513.0696
 195  409.511
 196  295.0118
 197  305.9078
 198  430.2806
 199  425.1013
 200  404.8058
 201  424.3883
 202  497.861
 203  417.2274
 204  410.1105
 205  401.5126
 206  353.1476
 207  387.5437
 208  339.4592
 209  382.161
 210  339.1119
 211  411.8527
 212  407.6336
 213  362.2422
 214  431.8049
 215  240.5804
 216  334.0901
 217  425.9167
 218  468.0729
 219  450.5604
 220  509.9402
 221  475.0845
 222  507.8777
 223  403.4573
 224  359.5757
 225  354.1718
 226  372.0635
 227  397.2377
 228  388.1351
 229  389.5896
 230  287.6644
 231  244.0765
 232  506.6425
 233  514.6951
 234  470.3915
 235  377.8783
 236  475.6188
 237  456.8846
 238  479.9857
 239  428.8586
 240  409.7419
 241  420.0777
 242  370.3705
 243  310.4007
 244  378.6714
 245  528.4289
 246  434.0257
 247  382.4186
 248  365.3705
 249  371.4078
 250  405.7571
 251  376.0302
 252  381.8301
 253  354.9502
 254  214.8064
 255  224.304
 256  411.9901
 257  441.9204
 258  437.6828
 259  415.585
 260  440.2289
 261  402.7913
 262  439.3087
 263  405.5864
 264  422.3472
 265  474.4664
 266  433.4549
 267  380.3686
 268  379.2941
 269  377.9053
 270  417.8683
 271  450.6305
 272  369.0066
 273  343.805
 274  437.2283
 275  495.0486
 276  373.966
 277  448.8231
 278  384.3854
 279  367.9483
 280  380.144
 281  397.8382
 282  396.2376
 283  384.6167
 284  325.4132
 285  450.8639
 286  331.621
 287  268.8687
 288  312.9671
 289  338.3026
 290  282.882
 291  322.3385
 292  337.5327
 293  271.7872
 294  473.8665
 295  508.049
 296  485.575
 297  366.47
 298  387.9824
 299  351.795
 300  456.2629
 301  478.3793
 302  350.918
 303  344.8873
 304  256.8827
 305  285.8772
 306  460.264
 307  447.7402
 308  302.1129
 309  306.0402
 310  368.4126
 311  328.2474
 312  420.3758
 313  400.897
 314  391.2798
 315  358.1883
 316  468.9799
 317  457.4166
 318  370.1228
 319  343.0735
 320  399.3309
 321  431.9398
 322  461.2739
 323  439.0636
 324  463.0222
 325  438.4765
 326  331.8705
 327  399.5207
 328  468.4155
 329  397.912
 330  336.6136
 331  326.4925
 332  340.9533
 333  373.7765
 334  387.9538
 335  321.2041
 336  417.1002
 337  409.6765
 338  434.4894
 339  463.762
 340  371.5735
 341  344.878
 342  427.558
 343  560.8745
 344  420.6639
 345  388.3459
 346  454.7615
 347  396.6447
 348  393.7812
 349  418.4956
 350  458.5721
 351  374.8633
 352  382.7158
 353  518.9708
 354  523.7563
 355  435.1129
 356  534.9512
 357  417.7218
 358  434.1765
 359  405.9405
 360  344.4651
 361  431.5561
 362  410.7364
 363  434.1174
 364  479.5759
 365  442.561
 366  439.3582
 367  438.5711
 368  438.6691
 369  402.6271
 370  522.4023
 371  527.5411
 372  444.9992
 373  293.9178
 374  447.9927
 375  476.6228
 376  427.2604
 377  535.8237
 378  497.2504
 379  427.7418
 380  358.4207
 381  453.4677
 382  409.4545
 383  325.3114
 384  398.6656
 385  288.0581
 386  236.4931
 387  453.3474
 388  472.8253
 389  357.5876
 390  340.4661
 391  473.4025
 392  441.0433
 393  373.7682
 394  461.0128
 395  434.8291
 396  406.804
 397  304.3886
 398  366.6471
 399  406.0173
 400  441.4838
 401  326.0658
 402  342.0403
 403  393.1136
 404  483.857
 405  427.9988
 406  488.4355
 407  380.8898
 408  291.9432
 409  413.5546
 410  424.3333
 411  465.0607
 412  356.8703
 413  215.7025
 414  349.084
 415  434.6377
 416  454.8305
 417  366.9751
 418  337.2108
 419  436.8408
 420  518.5347
 421  389.839
 422  362.6599
 423  427.8807
 424  443.287
 425  301.9847
 426  301.0419
 427  361.1395
 428  406.9274
 429  435.3856
 430  374.8289
 431  446.9175
 432  440.9532
 433  418.839
 434  380.9049
 435  296.8899
 436  380.5551
 437  381.1899
 438  453.424
 439  426.2977
 440  434.672
 441  595.0185
 442  533.7873
 443  462.5306
 444  541.3041
 445  489.206
 446  335.3308
 447  317.6625
 448  253.3735
 449  385.5706
 450  439.8976
 451  505.5459
 452  495.254
 453  423.891
 454  478.2223
 455  476.5863
 456  464.4237
 457  526.5005
 458  449.3642
 459  354.7347
 460  321.8104
 461  348.8409
 462  364.0433
 463  423.7354
 464  474.762
 465  524.1688
 466  513.3951
 467  287.5461
 468  230.9462
 469  452.1369
 470  465.1434
 471  469.8594
 472  384.8244
 473  333.726
 474  387.894
 475  410.4933
 476  551.4143
 477  488.3888
 478  494.4088
 479  491.4861
 480  518.2225
 481  546.9133
 482  363.0657
 483  271.8687
 484  268.0017
 485  354.9084
 486  301.8117
 487  439.977
 488  542.9763
 489  441.8331
 490  423.6244
 491  336.0664
 492  363.0304
 493  504.5497
 494  369.8796
 495  344.9058
 496  320.4817
 497  326.2285
 498  474.6426
 499  494.2678
 500  392.817
 501  380.5155
 502  316.0068
 503  374.6666
 504  380.807
 505  325.9487
 506  488.8535
 507  390.9467
 508  364.8923
 509  436.8724
 510  478.1346
 511  369.8738
