# Input file       =  1198705058.107936_cleaned.dat
# Candidate        =  PSR_0332+5434
# Telescope        =  AR
# Epoch_topo       =  58117.901355415925
# Epoch_bary       =  N/A
# T_sample         =  0.002
# Data Folded      =  7340032
# Data Avg         =  0.175804962739806
# Data StdDev      =  5.22691976735487 
# Profile Bins     =  256
# Profile Avg      =  5040.78080487636 
# Profile StdDev   =  885.064308947749 
# Reduced chi-sqr  =  0.590
# Prob(Noise)      <  1   (~0.0 sigma)
# P_topo (ms)      =  714.555164036465  +/- 0.00145
# P'_topo (s/s)    =  -0                +/- 7.63e-10
# P''_topo (s/s^2) =  0                 +/- 3.37e-13
# P_bary (ms)      =  N/A
# P'_bary (s/s)    =  N/A
# P''_bary (s/s^2) =  N/A
# P_orb (s)        =  N/A
# asin(i)/c (s)    =  N/A
# eccentricity     =  N/A
# w (rad)          =  N/A
# T_peri           =  N/A
######################################################
   0  3771.646
   1  4447.836
   2  3772.642
   3  3689.826
   4  3903.556
   5  4968.423
   6  4769.848
   7  4979.437
   8  5092.208
   9  4457.267
  10  5435.939
  11  5341.597
  12  4327.141
  13  4408.604
  14  5711.937
  15  5102.098
  16  4094.47
  17  5099.667
  18  5717.476
  19  4588.118
  20  5318.93
  21  5811.423
  22  4910.326
  23  5766.402
  24  5680.571
  25  5542.461
  26  4676.834
  27  5039.125
  28  5726.625
  29  5566.998
  30  4797.83
  31  5672.015
  32  5454.042
  33  5101.911
  34  4685.345
  35  5772.768
  36  5765.67
  37  5908.173
  38  6301.688
  39  6074.67
  40  5730.485
  41  6167.196
  42  6246.824
  43  5145.189
  44  5859.464
  45  6005.986
  46  5872.91
  47  4885.734
  48  5397.077
  49  6046.395
  50  5614.4
  51  5277.548
  52  5752.782
  53  4958.86
  54  5044.385
  55  4674.444
  56  4507.901
  57  5270.23
  58  4627.999
  59  5225.633
  60  4444.763
  61  5194.109
  62  5237.241
  63  4561.908
  64  5484.154
  65  4802.753
  66  4961.318
  67  4972.924
  68  4788.763
  69  5050.426
  70  4486.384
  71  4653.625
  72  4505.628
  73  4364.783
  74  5663.462
  75  5642.06
  76  5546.212
  77  6076.834
  78  5571.692
  79  5135.121
  80  4640.868
  81  5144.879
  82  4571.438
  83  4223.322
  84  4560.929
  85  4907.534
  86  5606.497
  87  5741.758
  88  4776.712
  89  5079.365
  90  5004.347
  91  6094.537
  92  5139.877
  93  5504.706
  94  5742
  95  5431.951
  96  5909.327
  97  5099.866
  98  5262.164
  99  5982.805
 100  5324.666
 101  5136.324
 102  5437.085
 103  6068.041
 104  5175.888
 105  4756.096
 106  4540.56
 107  4966.78
 108  5402.184
 109  5197.384
 110  4915.29
 111  5105.979
 112  5577.446
 113  4508.501
 114  4767.838
 115  5851.283
 116  5176.096
 117  4513.846
 118  4384.358
 119  5008.611
 120  4649.027
 121  4003.568
 122  4812.838
 123  4956.625
 124  5038.438
 125  4924.341
 126  4649.483
 127  5084.114
 128  4588.266
 129  4232.678
 130  5130.066
 131  5254.964
 132  4803.732
 133  4975.93
 134  4928.588
 135  5301.522
 136  5446.53
 137  5442.607
 138  5068.021
 139  5088.062
 140  5339.989
 141  5682.012
 142  5625.789
 143  5162.355
 144  5990.598
 145  5581.499
 146  5233.963
 147  5574.098
 148  6054.586
 149  5909.627
 150  5601.254
 151  5144.459
 152  6091.479
 153  6147.63
 154  5786.324
 155  6667.327
 156  6693.304
 157  5342.116
 158  5054.34
 159  5423.063
 160  5431.287
 161  5456.695
 162  4883.041
 163  4751.501
 164  4836.856
 165  5315.673
 166  4155.529
 167  5007.174
 168  5073.064
 169  4847.389
 170  4677.672
 171  4770.682
 172  5356.833
 173  4833.411
 174  5104.339
 175  4915.956
 176  5068.912
 177  5060.196
 178  4592.721
 179  4806.427
 180  4463.175
 181  4999.048
 182  4439.783
 183  4967.271
 184  4528.102
 185  5032.075
 186  4271.622
 187  3890.802
 188  4492.829
 189  4634.23
 190  5067.854
 191  5176.22
 192  5540.257
 193  5643.334
 194  5663.972
 195  5039.761
 196  5037.438
 197  5363.199
 198  4825.041
 199  4308.649
 200  4189.878
 201  3931.824
 202  4726.556
 203  3760.307
 204  4780.213
 205  5081.162
 206  4519.346
 207  5224.719
 208  5219.358
 209  4555.202
 210  3761.177
 211  4804.549
 212  4479.398
 213  4104.385
 214  3816.13
 215  3986.39
 216  4411.804
 217  4104.51
 218  3698.509
 219  4314.485
 220  4284.268
 221  3698.936
 222  3495.844
 223  4393.032
 224  4690.296
 225  4650.434
 226  5315.019
 227  5441.84
 228  5235.858
 229  5146.492
 230  5462.392
 231  4816.518
 232  4021.041
 233  5131.827
 234  5498.028
 235  4702.164
 236  4966.803
 237  5681.66
 238  4862.705
 239  5170.593
 240  5192.806
 241  5270.457
 242  5252.175
 243  4358.995
 244  4500.27
 245  5014.134
 246  5456.917
 247  5709.335
 248  5527.44
 249  4952.727
 250  4806.956
 251  4306.778
 252  4368.981
 253  5194.372
 254  4517.172
 255  4111.199
