# Input file       =  1198417033.10782_cleaned.dat
# Candidate        =  PSR_0332+5434
# Telescope        =  AR
# Epoch_topo       =  58114.567732729396
# Epoch_bary       =  N/A
# T_sample         =  0.002
# Data Folded      =  7208960
# Data Avg         =  0.0210685804963079
# Data StdDev      =  1.00013586987302 
# Profile Bins     =  512
# Profile Avg      =  296.707003205081 
# Profile StdDev   =  118.675298000678 
# Reduced chi-sqr  =  1.030
# Prob(Noise)      <  0.312   (~0.5 sigma)
# P_topo (ms)      =  714.551879921904  +/- 0.000136
# P'_topo (s/s)    =  -0                +/- 7.32e-11
# P''_topo (s/s^2) =  0                 +/- 3.29e-14
# P_bary (ms)      =  N/A
# P'_bary (s/s)    =  N/A
# P''_bary (s/s^2) =  N/A
# P_orb (s)        =  N/A
# asin(i)/c (s)    =  N/A
# eccentricity     =  N/A
# w (rad)          =  N/A
# T_peri           =  N/A
######################################################
   0  358.3618
   1  366.9273
   2  361.7221
   3  379.3474
   4  455.5743
   5  441.2401
   6  416.9597
   7  357.6247
   8  346.7129
   9  373.6223
  10  352.138
  11  453.4018
  12  251.4017
  13  312.1806
  14  304.3731
  15  281.6926
  16  202.4307
  17  366.5555
  18  343.7702
  19  225.6398
  20  209.3147
  21  294.2444
  22  439.0264
  23  331.1772
  24  327.0028
  25  193.2467
  26  103.1098
  27  289.2679
  28  431.3698
  29  449.5281
  30  386.4187
  31  251.5392
  32  320.1139
  33  403.1397
  34  262.8792
  35  166.9647
  36  232.8666
  37  222.3736
  38  217.8169
  39  229.1946
  40  284.6003
  41  318.519
  42  216.5834
  43  273.1998
  44  267.3962
  45  228.2112
  46  299.8957
  47  308.3678
  48  447.7288
  49  375.6501
  50  354.3308
  51  235.1571
  52  193.3156
  53  340.9988
  54  476.9064
  55  519.6046
  56  339.7651
  57  386.4011
  58  274.6945
  59  336.6927
  60  377.8828
  61  328.6937
  62  328.7347
  63  333.5327
  64  360.2852
  65  300.5682
  66  215.3259
  67  218.303
  68  345.9282
  69  282.8011
  70  368.4202
  71  276.2155
  72  262.088
  73  283.9135
  74  197.1255
  75  195.7716
  76  232.4832
  77  330.6307
  78  321.376
  79  198.268
  80  300.2177
  81  381.644
  82  356.3145
  83  221.1681
  84  193.9115
  85  175.2924
  86  286.4487
  87  184.7789
  88  150.0073
  89  308.1641
  90  252.0286
  91  258.7354
  92  312.0746
  93  333.0001
  94  277.4192
  95  267.144
  96  236.6888
  97  306.5315
  98  348.0604
  99  368.6346
 100  301.064
 101  180.5716
 102  163.1868
 103  280.9794
 104  292.1077
 105  370.9773
 106  194.1532
 107  314.9589
 108  296.173
 109  250.4559
 110  294.2839
 111  309.5955
 112  374.5305
 113  394.1764
 114  411.0016
 115  408.0396
 116  302.5797
 117  187.5746
 118  128.6707
 119  344.3159
 120  348.5304
 121  334.4554
 122  378.83
 123  294.5345
 124  330.9706
 125  194.1099
 126  274.517
 127  305.4955
 128  435.5052
 129  391.6006
 130  303.0402
 131  349.3101
 132  350.3056
 133  341.0105
 134  377.6656
 135  350.359
 136  262.6192
 137  196.3878
 138  251.071
 139  328.9059
 140  271.809
 141  131.7471
 142  278.6317
 143  251.5695
 144  353.7287
 145  326.8743
 146  289.063
 147  422.1651
 148  410.0608
 149  362.0999
 150  413.173
 151  419.2303
 152  479.2757
 153  515.0216
 154  366.3312
 155  504.1561
 156  544.0048
 157  544.4402
 158  665.2343
 159  694.9845
 160  620.637
 161  550.0753
 162  491.7929
 163  372.898
 164  216.3353
 165  152.5285
 166  154.3081
 167  177.2761
 168  57.58683
 169  163.4308
 170  127.0124
 171  273.797
 172  404.9537
 173  329.5428
 174  358.4795
 175  221.4991
 176  318.0233
 177  430.967
 178  384.2814
 179  430.5601
 180  204.5582
 181  125.8419
 182  246.5518
 183  442.9665
 184  394.9315
 185  269.823
 186  301.328
 187  272.1292
 188  265.3399
 189  289.0722
 190  342.1769
 191  346.7038
 192  313.0112
 193  286.3577
 194  303.631
 195  421.9002
 196  469.6975
 197  383.3068
 198  408.8438
 199  222.6339
 200  186.1316
 201  313.8606
 202  424.7425
 203  377.3423
 204  324.2209
 205  348.6121
 206  322.4971
 207  251.9614
 208  305.0138
 209  305.0312
 210  357.2053
 211  343.8934
 212  364.4995
 213  287.5739
 214  424.2581
 215  428.9598
 216  297.5231
 217  336.602
 218  254.0959
 219  152.4831
 220  155.0483
 221  275.8385
 222  401.0766
 223  319.7882
 224  220.9963
 225  173.0511
 226  225.063
 227  341.098
 228  338.7886
 229  312.283
 230  274.5193
 231  327.8165
 232  347.0403
 233  331.2559
 234  347.0092
 235  323.4802
 236  217.6516
 237  214.356
 238  269.7798
 239  260.5721
 240  229.5934
 241  219.0647
 242  251.0505
 243  237.0004
 244  248.9245
 245  162.9207
 246  313.9666
 247  411.6549
 248  296.4696
 249  255.9532
 250  248.7349
 251  360.8092
 252  155.132
 253  157.765
 254  270.1653
 255  327.2937
 256  243.3535
 257  345.3294
 258  409.4953
 259  320.4373
 260  283.4078
 261  441.222
 262  487.1404
 263  396.0393
 264  324.3271
 265  176.394
 266  239.136
 267  197.1938
 268  228.7545
 269  343.3516
 270  296.0473
 271  282.437
 272  269.7544
 273  106.9558
 274  289.6572
 275  387.079
 276  388.6235
 277  314.6634
 278  306.0802
 279  375.45
 280  327.1761
 281  264.2435
 282  275.0583
 283  282.1754
 284  309.9392
 285  238.7266
 286  262.3952
 287  260.593
 288  280.5575
 289  336.4763
 290  415.9457
 291  263.645
 292  262.3819
 293  296.2747
 294  356.9742
 295  376.8049
 296  388.5299
 297  337.4172
 298  283.5148
 299  314.5765
 300  390.2685
 301  359.3985
 302  360.9073
 303  270.677
 304  273.9715
 305  149.0107
 306  209.958
 307  268.6583
 308  353.9822
 309  447.4872
 310  251.8543
 311  270.4748
 312  306.4781
 313  314.6115
 314  147.2255
 315  183.9226
 316  370.0653
 317  240.0016
 318  200.164
 319  186.2508
 320  334.4372
 321  430.4272
 322  303.8666
 323  250.8076
 324  252.8955
 325  131.2138
 326  189.3826
 327  198.667
 328  151.4971
 329  283.3222
 330  237.9572
 331  289.1833
 332  343.6938
 333  299.6715
 334  429.7719
 335  322.8164
 336  264.3329
 337  300.1336
 338  250.3764
 339  316.9378
 340  418.4159
 341  247.8952
 342  209.1387
 343  272.1831
 344  242.4462
 345  347.2253
 346  280.8109
 347  320.2058
 348  307.8545
 349  300.6594
 350  301.0957
 351  224.8733
 352  113.9557
 353  258.596
 354  360.6197
 355  284.7758
 356  291.3222
 357  217.1847
 358  296.0766
 359  430.8616
 360  407.5609
 361  344.2705
 362  334.6786
 363  325.2804
 364  364.9568
 365  467.2407
 366  351.1513
 367  201.2312
 368  152.1706
 369  318.4197
 370  348.2989
 371  348.4761
 372  213.1976
 373  243.492
 374  373.7794
 375  321.8184
 376  293.9856
 377  271.9302
 378  396.4418
 379  143.6782
 380  178.1145
 381  165.6047
 382  251.6632
 383  375.1223
 384  293.8889
 385  249.0861
 386  166.9057
 387  190.8039
 388  282.9207
 389  191.3255
 390  160.2596
 391  280.2232
 392  275.5446
 393  254.9254
 394  173.8003
 395  210.6407
 396  234.7044
 397  212.3327
 398  232.8429
 399  182.8051
 400  127.0238
 401  108.3851
 402  219.3045
 403  334.0099
 404  253.0328
 405  233.0254
 406  182.3425
 407  293.8932
 408  361.6587
 409  316.1365
 410  289.2921
 411  289.6496
 412  290.8702
 413  181.9907
 414  105.0193
 415  262.3104
 416  329.7499
 417  273.8765
 418  314.7346
 419  188.515
 420  229.3929
 421  411.7246
 422  463.8076
 423  337.672
 424  263.1237
 425  280.0459
 426  252.2133
 427  280.3588
 428  313.6124
 429  313.7159
 430  237.1829
 431  218.7764
 432  179.2323
 433  169.4132
 434  163.9372
 435  212.4579
 436  306.5187
 437  251.1031
 438  262.7034
 439  224.0601
 440  157.7135
 441  311.9477
 442  274.7245
 443  296.5369
 444  378.9347
 445  374.3983
 446  341.1823
 447  213.9756
 448  202.9948
 449  234.4491
 450  182.5077
 451  335.8526
 452  273.5803
 453  217.375
 454  353.1256
 455  308.9099
 456  222.2865
 457  267.6242
 458  371.3405
 459  303.7104
 460  183.1389
 461  314.7876
 462  195.7333
 463  48.20983
 464  266.772
 465  405.8109
 466  290.4043
 467  229.4854
 468  265.9103
 469  318.1388
 470  352.9629
 471  320.6665
 472  242.4235
 473  362.6394
 474  411.6876
 475  228.5443
 476  279.9998
 477  300.8907
 478  226.1539
 479  299.5998
 480  236.5841
 481  148.55
 482  213.4883
 483  244.0898
 484  404.7859
 485  316.7224
 486  397.648
 487  295.9662
 488  344.2751
 489  302.9347
 490  227.8146
 491  271.9324
 492  351.4553
 493  397.1095
 494  313.9057
 495  232.4727
 496  266.0178
 497  267.3257
 498  275.7074
 499  241.02
 500  223.0022
 501  429.2195
 502  390.727
 503  265.3358
 504  244.8492
 505  272.6463
 506  302.8936
 507  362.6268
 508  290.211
 509  275.0241
 510  406.0034
 511  288.9409
