# Input file       =  1198158626.106533_cleaned.dat
# Candidate        =  PSR_0332+5434
# Telescope        =  AR
# Epoch_topo       =  58111.576910955242
# Epoch_bary       =  N/A
# T_sample         =  0.002
# Data Folded      =  7471104
# Data Avg         =  0.182447717612887
# Data StdDev      =  7.09331029257156 
# Profile Bins     =  256
# Profile Avg      =  5324.90555078397 
# Profile StdDev   =  1211.77326495561 
# Reduced chi-sqr  =  0.552
# Prob(Noise)      <  1   (~0.0 sigma)
# P_topo (ms)      =  714.549156316158  +/- 7.76e-05
# P'_topo (s/s)    =  -0                +/- 4.02e-11
# P''_topo (s/s^2) =  0                 +/- 1.75e-14
# P_bary (ms)      =  N/A
# P'_bary (s/s)    =  N/A
# P''_bary (s/s^2) =  N/A
# P_orb (s)        =  N/A
# asin(i)/c (s)    =  N/A
# eccentricity     =  N/A
# w (rad)          =  N/A
# T_peri           =  N/A
######################################################
   0  5097.165
   1  5523.841
   2  5760.307
   3  5676.551
   4  7006.666
   5  6728.925
   6  6724.488
   7  6333.595
   8  5771.62
   9  5044.804
  10  4951.478
  11  5384.233
  12  5928.562
  13  5488.687
  14  5887.45
  15  5206.235
  16  6240.506
  17  5402.192
  18  5130.402
  19  5704.113
  20  5546.277
  21  6129.035
  22  5791.471
  23  6041.272
  24  5225.644
  25  6092.444
  26  5905.903
  27  6240.675
  28  7185.375
  29  5626.183
  30  6715.524
  31  5446.13
  32  5938.804
  33  6110.141
  34  6043.458
  35  6717.802
  36  5042.677
  37  5245.761
  38  4938.765
  39  6118.386
  40  5463.081
  41  3901.192
  42  3868.669
  43  5159.959
  44  5467.358
  45  5807.607
  46  5634.216
  47  5141.337
  48  6269.771
  49  6539.96
  50  6421.971
  51  5478.097
  52  4791.946
  53  5669.782
  54  4993.796
  55  4981.952
  56  4288.003
  57  6377.385
  58  4946.918
  59  5498.307
  60  5499.532
  61  5671.826
  62  5120.692
  63  4682.458
  64  5148.44
  65  6124.535
  66  6093.274
  67  4448.537
  68  3753.707
  69  4359.051
  70  4313.638
  71  4557.737
  72  3950.936
  73  5065.673
  74  4973.459
  75  5235.304
  76  4816.208
  77  4575.872
  78  4533.671
  79  4793.452
  80  5376.371
  81  5411.634
  82  5586.798
  83  4358.335
  84  5321.544
  85  5035.262
  86  5575.641
  87  5786.288
  88  5806.233
  89  5464.346
  90  4723.171
  91  5495.326
  92  4254.266
  93  5375.642
  94  4979.204
  95  4929.587
  96  5411.18
  97  5948.107
  98  7071.297
  99  5540.61
 100  5248.997
 101  5133.728
 102  5812.352
 103  6243.803
 104  6938.445
 105  6623.224
 106  5422.606
 107  7373.732
 108  6103.368
 109  5547.462
 110  5555.904
 111  5949.113
 112  6224.909
 113  6308.477
 114  6238.072
 115  5661.118
 116  4974.48
 117  3618.921
 118  4375.84
 119  5540.164
 120  5506.02
 121  5767.673
 122  4665.253
 123  6013.443
 124  6196.106
 125  4656.782
 126  4487.474
 127  5724.952
 128  5369.932
 129  6018.574
 130  6193.187
 131  5488.817
 132  6300.102
 133  4356.875
 134  6080.201
 135  5623.451
 136  6031.138
 137  5613.257
 138  5615.635
 139  6483.529
 140  5432.739
 141  5064.265
 142  5481.274
 143  5748.824
 144  4788.061
 145  5562.923
 146  6054.163
 147  4324.515
 148  4913.395
 149  5179.286
 150  5506.406
 151  4528.508
 152  5155.397
 153  6276.538
 154  6260.941
 155  7165.306
 156  6993.383
 157  6959.876
 158  5882.671
 159  6003.444
 160  4982.452
 161  5700.528
 162  6576.91
 163  5188.057
 164  5360.35
 165  5478.387
 166  7038.311
 167  5205.427
 168  4954.216
 169  4821.778
 170  5819.589
 171  5669.822
 172  5687.067
 173  4349.211
 174  5207.915
 175  5434.992
 176  5505.258
 177  7073.93
 178  5338.692
 179  5239.229
 180  6421.937
 181  5230.391
 182  4347.575
 183  4365.664
 184  4467.322
 185  4163.769
 186  4661.919
 187  5598.873
 188  4647.646
 189  4130.562
 190  3643.568
 191  4863.698
 192  4686.005
 193  5575.712
 194  5234.718
 195  6636.607
 196  5988.081
 197  5803.918
 198  5628.202
 199  5230.317
 200  5312.945
 201  4815.397
 202  4444.831
 203  4839.643
 204  4981.442
 205  4567.447
 206  3973.119
 207  4605.327
 208  4793.852
 209  4460.774
 210  3989.642
 211  4201.454
 212  5036.137
 213  4840.227
 214  4899.723
 215  4959.892
 216  4899.101
 217  4473.553
 218  5535.328
 219  4792.965
 220  4822.366
 221  4037.496
 222  4370.546
 223  5301.284
 224  4203.442
 225  5181.351
 226  3564.989
 227  4093.562
 228  4939.227
 229  6045.859
 230  5504.731
 231  5057.983
 232  4774.747
 233  4778.359
 234  5114.634
 235  3087.433
 236  4946.744
 237  4985.854
 238  5579.061
 239  4834.492
 240  6074.946
 241  5632.043
 242  4179.955
 243  4830.032
 244  4958.666
 245  5545.053
 246  4740.376
 247  4677.483
 248  3924.262
 249  3704.555
 250  3759.268
 251  4150.082
 252  5055.78
 253  4543.778
 254  4825.884
 255  5635.361
