# Input file       =  1198345507.109696-PSRB0329-2ms-sampling-dd.dat
# Candidate        =  PSR_0332+5434
# Telescope        =  AR
# Epoch_topo       =  58113.739885528885
# Epoch_bary       =  N/A
# T_sample         =  0.002
# Data Folded      =  7340032
# Data Avg         =  2.69869225254925e-10
# Data StdDev      =  32.9357677039133 
# Profile Bins     =  512
# Profile Avg      =  -0.109502066410265
# Profile StdDev   =  3943.49947258937 
# Reduced chi-sqr  =  1.106
# Prob(Noise)      <  0.0481   (~1.7 sigma)
# P_topo (ms)      =  714.551156460575  +/- 0.00027
# P'_topo (s/s)    =  -0                +/- 1.42e-10
# P''_topo (s/s^2) =  0                 +/- 6.29e-14
# P_bary (ms)      =  N/A
# P'_bary (s/s)    =  N/A
# P''_bary (s/s^2) =  N/A
# P_orb (s)        =  N/A
# asin(i)/c (s)    =  N/A
# eccentricity     =  N/A
# w (rad)          =  N/A
# T_peri           =  N/A
######################################################
   0  -942.744
   1  -534.5453
   2  -122.7999
   3  -545.946
   4  -1950.059
   5  -3214.996
   6  -4871.674
   7  -4849.308
   8  -4050.863
   9  -1219.224
  10  285.571
  11  -605.285
  12  -202.1282
  13  -996.4803
  14  -1138.147
  15  -1615.193
  16  2017.332
  17  3224.25
  18  3188.534
  19  3198.683
  20  702.314
  21  -1366.014
  22  -2295.506
  23  -2864.093
  24  -3239.351
  25  -2933.464
  26  -1450.051
  27  -932.7684
  28  -517.8068
  29  -1538.448
  30  -2303.125
  31  -2627.989
  32  -1613.878
  33  1858.774
  34  5859.036
  35  7915.522
  36  6920.016
  37  3551.52
  38  606.0923
  39  2061.229
  40  6343.725
  41  10346.7
  42  11217.32
  43  8819.395
  44  4453.534
  45  -1621.631
  46  -1873.46
  47  -2658.882
  48  -2158.83
  49  -1717.223
  50  -2462.54
  51  -3635.006
  52  -4041.45
  53  -4208.949
  54  -2974.827
  55  -1842.661
  56  -2496.255
  57  -3208.238
  58  -2959.406
  59  -2572.43
  60  -2288.521
  61  -2033.365
  62  -2810.553
  63  -2758.26
  64  -3180.191
  65  -1799.832
  66  -1008.431
  67  -1345.435
  68  -1066.309
  69  -2601.27
  70  -1775.263
  71  -1432.114
  72  -527.311
  73  -818.0804
  74  -940.6829
  75  -1372.357
  76  -1384
  77  384.005
  78  1041.03
  79  1959.719
  80  1323.403
  81  -76.16007
  82  -1164.933
  83  -2307.163
  84  -2884.262
  85  -2833.561
  86  -1871.006
  87  -1320.229
  88  -762.8607
  89  -1041.38
  90  -1072.495
  91  -1927.91
  92  -2462.148
  93  -2000.243
  94  -2722.824
  95  -1679.34
  96  -1062.638
  97  1015.515
  98  1032.005
  99  -63.6944
 100  -389.523
 101  -675.8745
 102  -62.16921
 103  -34.32083
 104  1185.334
 105  1541.817
 106  1671.592
 107  2093.082
 108  978.9282
 109  -248.4696
 110  620.8318
 111  1936.375
 112  2814.588
 113  2964.214
 114  3136.049
 115  2956.431
 116  2637.217
 117  1586.844
 118  627.8081
 119  76.49422
 120  -617.1207
 121  -60.15799
 122  272.7185
 123  2215.314
 124  3401.296
 125  5209.125
 126  5086.425
 127  2873.344
 128  -635.2652
 129  -1242.269
 130  -997.4529
 131  -759.271
 132  -101.1332
 133  -106.7976
 134  -456.9586
 135  -1705.186
 136  -1813.063
 137  -1876.467
 138  -770.8811
 139  -32.53272
 140  -424.4271
 141  368.5138
 142  37.62027
 143  -15.24854
 144  -573.9589
 145  -1215.833
 146  -1600.385
 147  -2057.28
 148  -980.3455
 149  -582.2685
 150  635.3946
 151  639.5881
 152  760.0856
 153  260.3608
 154  -958.3901
 155  -1651.447
 156  -1277.901
 157  -161.5546
 158  -760.4581
 159  -1154.233
 160  -1742.356
 161  -1436.396
 162  -1315.177
 163  -177.9222
 164  -84.01119
 165  -939.2932
 166  -1842.849
 167  -1782.474
 168  266.8219
 169  2611.76
 170  3517.387
 171  3350.881
 172  1557.41
 173  -462.4731
 174  363.2219
 175  1589.228
 176  1689.954
 177  1260.204
 178  2340.37
 179  1421.145
 180  771.4456
 181  595.0294
 182  46.53144
 183  -480.9868
 184  336.2025
 185  1429.245
 186  998.6567
 187  664.7756
 188  158.091
 189  -117.1414
 190  51.90603
 191  -1225.002
 192  -857.2244
 193  -443.5147
 194  1049.277
 195  329.1819
 196  515.8613
 197  -83.51601
 198  -1060.196
 199  -977.3657
 200  -1397.754
 201  -1838.305
 202  -1887.983
 203  -847.5581
 204  -1278.46
 205  -1469.163
 206  -1297.324
 207  -1471.647
 208  -1968.795
 209  -2340.448
 210  -2792.019
 211  -3196.74
 212  -2813.162
 213  -2876.726
 214  -2822.296
 215  -2546.033
 216  -3254.649
 217  -3875.902
 218  -3221.156
 219  -2177.389
 220  -1053.048
 221  -1511.449
 222  -2124.133
 223  -3552.44
 224  -4173.345
 225  -3184.096
 226  -1361.132
 227  -547.3593
 228  -905.1913
 229  -1530.752
 230  -3040.604
 231  -3632.284
 232  -3869.414
 233  -2169.59
 234  -440.3783
 235  669.9016
 236  1194.359
 237  1006.188
 238  332.3576
 239  -1640.774
 240  -751.7446
 241  472.3308
 242  1919.932
 243  1766.396
 244  1442.761
 245  720.2256
 246  -749.7912
 247  1001.751
 248  427.7083
 249  285.8856
 250  -630.8738
 251  -3162.149
 252  -3961.39
 253  -3695.031
 254  -2089.113
 255  -955.447
 256  -70.79811
 257  -1394.881
 258  -1988.145
 259  -2938.904
 260  -3066.471
 261  -2541.286
 262  -2406.693
 263  -2390.983
 264  -2045.897
 265  -1368.688
 266  -199.6229
 267  -785.8661
 268  -1190.569
 269  -1283.056
 270  -1784.866
 271  -1229.754
 272  85.6315
 273  1541.225
 274  727.5477
 275  -285.4911
 276  -284.813
 277  -1972.726
 278  -2076.837
 279  -1250.5
 280  -249.2419
 281  32.0673
 282  -300.2302
 283  -757.4402
 284  -2640.136
 285  -2828.1
 286  -2111.908
 287  -1991.687
 288  -2336.98
 289  -2973.887
 290  -2479.648
 291  -1124.561
 292  96.22341
 293  91.56292
 294  220.1782
 295  -2310.334
 296  -1476.702
 297  -1688.755
 298  -1574.29
 299  -1489.499
 300  -1706.99
 301  -1235.108
 302  -1815.425
 303  -1444.682
 304  -2215.596
 305  -2737.292
 306  -3486.756
 307  -3381.492
 308  -2605.414
 309  -1406.795
 310  -335.482
 311  -305.7509
 312  -23.95966
 313  -81.64161
 314  -1186.35
 315  -1821.102
 316  -1383.664
 317  -387.4296
 318  1512.608
 319  3042.821
 320  4271.332
 321  3138.76
 322  2132.231
 323  1754.034
 324  1591.049
 325  1001.83
 326  2363.708
 327  2128.068
 328  -742.7915
 329  -1870.016
 330  -2025.047
 331  -170.2947
 332  1324.299
 333  2677.785
 334  2952.799
 335  450.448
 336  533.1947
 337  1133.246
 338  -104.0927
 339  -480.9722
 340  856.0305
 341  1822.259
 342  2356.221
 343  2849.963
 344  3140.735
 345  2524.936
 346  1895.233
 347  1412.126
 348  -97.06187
 349  -94.87812
 350  -786.9531
 351  -946.7635
 352  -710.6628
 353  -401.9249
 354  159.3234
 355  -949.1212
 356  -1349.396
 357  -2434.489
 358  -3347.633
 359  -3258.57
 360  -2991.058
 361  -1640.816
 362  -1610.272
 363  -1868.318
 364  115.5071
 365  589.9277
 366  -31.11898
 367  -1067.576
 368  -1229.69
 369  -1218.058
 370  -817.2798
 371  -134.8578
 372  -565.5841
 373  -1969.165
 374  -1829.791
 375  -1718.966
 376  756.8879
 377  1827.264
 378  2406.706
 379  3584.629
 380  1413.855
 381  -1451.157
 382  -1763.88
 383  1641.952
 384  4289.01
 385  5686.397
 386  6737.728
 387  7804.664
 388  5905.341
 389  4581.155
 390  2907.757
 391  431.9352
 392  -3617.745
 393  -354.7234
 394  2662.687
 395  4486.858
 396  4847.512
 397  3652.926
 398  1664.225
 399  -2664.281
 400  -2051.177
 401  -1757.251
 402  -1422.457
 403  106.4063
 404  2061.802
 405  3723.637
 406  4198.59
 407  3485.807
 408  1965.907
 409  -33.8255
 410  303.8744
 411  1207.354
 412  2898.755
 413  4061.083
 414  2580.918
 415  373.7705
 416  -2300.55
 417  -4249.647
 418  -5089.134
 419  -5480.497
 420  -5421.894
 421  -5253.817
 422  -5122.708
 423  -4806.927
 424  -4559.458
 425  -4517.86
 426  -4159.164
 427  -4299.116
 428  -4607.257
 429  -4350.937
 430  -4085.466
 431  -3324.173
 432  -2673.958
 433  -2108.506
 434  -1459.422
 435  -845.7996
 436  -572.0785
 437  354.4446
 438  -204.4586
 439  -531.7407
 440  -1025.143
 441  -855.2301
 442  1458.813
 443  1169.756
 444  917.7964
 445  -862.177
 446  -1581.127
 447  -352.0939
 448  3785.215
 449  9031.653
 450  8521.208
 451  5961.082
 452  1093.978
 453  -1485.74
 454  -2161.615
 455  3647.945
 456  6146.296
 457  7981.804
 458  9999.676
 459  3382.501
 460  495.6481
 461  1543.438
 462  3682.092
 463  5172.18
 464  4557.995
 465  4869.272
 466  7896.263
 467  5966.886
 468  10570.65
 469  12782.35
 470  11364.79
 471  11329.29
 472  10698.36
 473  12926.05
 474  11082.08
 475  12524.77
 476  11048.82
 477  8363.841
 478  5310.158
 479  3233.832
 480  1258.032
 481  -609.3887
 482  -1206.155
 483  -1698.198
 484  -1906.891
 485  -2211.369
 486  -3883.915
 487  -2671.137
 488  -1725.63
 489  -404.3519
 490  -260.3987
 491  -43.06136
 492  -1116.038
 493  -2783.804
 494  -881.717
 495  -689.7383
 496  252.9839
 497  374.1868
 498  1223.432
 499  889.1691
 500  141.1395
 501  -185.6461
 502  -1099.229
 503  -1193.268
 504  -224.4968
 505  123.3276
 506  -120.948
 507  -366.0029
 508  -959.6428
 509  -1983.594
 510  -2074.852
 511  -860.4476
