# Input file       =  1198274299.108217_cleaned.dat
# Candidate        =  PSR_0332+5434
# Telescope        =  AR
# Epoch_topo       =  58112.915718845106
# Epoch_bary       =  N/A
# T_sample         =  0.002
# Data Folded      =  7340032
# Data Avg         =  0.272655585788016
# Data StdDev      =  5.18672768239406 
# Profile Bins     =  512
# Profile Avg      =  3908.80338791248 
# Profile StdDev   =  621.022654272468 
# Reduced chi-sqr  =  0.530
# Prob(Noise)      <  1   (~0.0 sigma)
# P_topo (ms)      =  714.550747414227  +/- 0.000476
# P'_topo (s/s)    =  -0                +/- 2.51e-10
# P''_topo (s/s^2) =  0                 +/- 1.11e-13
# P_bary (ms)      =  N/A
# P'_bary (s/s)    =  N/A
# P''_bary (s/s^2) =  N/A
# P_orb (s)        =  N/A
# asin(i)/c (s)    =  N/A
# eccentricity     =  N/A
# w (rad)          =  N/A
# T_peri           =  N/A
######################################################
   0  4108.94
   1  4250.964
   2  4247.578
   3  4347.879
   4  4037.911
   5  3903.839
   6  3905.087
   7  3700.217
   8  4105.629
   9  4110.326
  10  4353.596
  11  4339.61
  12  4271.59
  13  4277.488
  14  4114.667
  15  3737.933
  16  3941.982
  17  3605.279
  18  3861.75
  19  4252.529
  20  3647.224
  21  3495.724
  22  3492.082
  23  3744.749
  24  3895.589
  25  3864.327
  26  3769.696
  27  3540.526
  28  3516.896
  29  3712.482
  30  3812.924
  31  3912.238
  32  4008.959
  33  3627.119
  34  4067.757
  35  4267.274
  36  3739.069
  37  3549.086
  38  3640.928
  39  3636.617
  40  3844.778
  41  3798.746
  42  3668.805
  43  3727.055
  44  3536.51
  45  3506
  46  3908.535
  47  3891.227
  48  3737.801
  49  3813.152
  50  3423.978
  51  3517.634
  52  3898.015
  53  4393.906
  54  3972.236
  55  3980.116
  56  3471.282
  57  3291.799
  58  3365.254
  59  3900.089
  60  4333.248
  61  4454.875
  62  4374.336
  63  4208.899
  64  4311.909
  65  4138.557
  66  3959.025
  67  3847.492
  68  4121.266
  69  4316.816
  70  4153.695
  71  4171
  72  4040.448
  73  3979.367
  74  4310.2
  75  4390.921
  76  4192.196
  77  4321
  78  3927.828
  79  4030.868
  80  4178.479
  81  4036.772
  82  4074.622
  83  3839.426
  84  3901.655
  85  4186.949
  86  4109.059
  87  4248.445
  88  4094.524
  89  4224.899
  90  3917.39
  91  3807.484
  92  4262.512
  93  4638.22
  94  4517.836
  95  4508.634
  96  4452.526
  97  4467.19
  98  4263.784
  99  4459.604
 100  4160.45
 101  4108.269
 102  4255.502
 103  4047.846
 104  3831.927
 105  3402.176
 106  3776.146
 107  3782.911
 108  4080.438
 109  4195.528
 110  3974.984
 111  3693.214
 112  3698.36
 113  3847.419
 114  3788.657
 115  3802.203
 116  3370.017
 117  3669.087
 118  3908.368
 119  3999.483
 120  3901.203
 121  3726.084
 122  3472.959
 123  3160.586
 124  3268.185
 125  3387.128
 126  3693.572
 127  4285.995
 128  4267.36
 129  4441.396
 130  4084.989
 131  3460.059
 132  3662.605
 133  3593.99
 134  3428.87
 135  3825.354
 136  3525.317
 137  3676.208
 138  3719.745
 139  3662.943
 140  3550.724
 141  3732.679
 142  3672.531
 143  3421.714
 144  3567.258
 145  3498.678
 146  3537.064
 147  3910.362
 148  4121.366
 149  4033.96
 150  3587.466
 151  3718.123
 152  3997.932
 153  4103.804
 154  3866.288
 155  3560.153
 156  3914.187
 157  3728.238
 158  3651.752
 159  3608.935
 160  3941.172
 161  3949.7
 162  4319.345
 163  4283.653
 164  3931.801
 165  3934.516
 166  4195.99
 167  4323.845
 168  4066.097
 169  3948.06
 170  3751.133
 171  3909.675
 172  3824.726
 173  3663.561
 174  3766.547
 175  4153.545
 176  4183.477
 177  4209.141
 178  3956.081
 179  3906.333
 180  3893.59
 181  3870.208
 182  4117.282
 183  4076.301
 184  4434.624
 185  4470.917
 186  4103.725
 187  3908.72
 188  4001.001
 189  3828.652
 190  3477.78
 191  3694.791
 192  3642.155
 193  3416.393
 194  3428.5
 195  3670.674
 196  3323.455
 197  3593.027
 198  3734.06
 199  3844.679
 200  4165.114
 201  4012.472
 202  3484.93
 203  3325.352
 204  3328.157
 205  3387.301
 206  3626.729
 207  3508.046
 208  3602.516
 209  3697.561
 210  3480.478
 211  4042.493
 212  3891.112
 213  3947.599
 214  4009.651
 215  3983.973
 216  4235.839
 217  3930.197
 218  4144.665
 219  4168.794
 220  4184.654
 221  3930.915
 222  3780.833
 223  3716.227
 224  3841.071
 225  3780.5
 226  3636.521
 227  3943.665
 228  4110.122
 229  4493.821
 230  4444.258
 231  4107.396
 232  4025.474
 233  4388.651
 234  3919.118
 235  3885.057
 236  4162.022
 237  4118.729
 238  4041.17
 239  3923.03
 240  4118.69
 241  3781.333
 242  3336.373
 243  3752.464
 244  3784.568
 245  3730.984
 246  3587.935
 247  4124.623
 248  4222.288
 249  3784.924
 250  3466.47
 251  3694.014
 252  3928.187
 253  4065.808
 254  4140.766
 255  4201.161
 256  4154.436
 257  4005.245
 258  3998.139
 259  3975.72
 260  4182.369
 261  3929.403
 262  4046.788
 263  4063.419
 264  3938.613
 265  4034.84
 266  3893.647
 267  3900.314
 268  3824.649
 269  3786.696
 270  3506.645
 271  3788.291
 272  3919.881
 273  3853.269
 274  3458.607
 275  3386.034
 276  3746.921
 277  4063.76
 278  4122.273
 279  3898.764
 280  3846.366
 281  3853.897
 282  3854.61
 283  4233.194
 284  4363.885
 285  3886.99
 286  3776.146
 287  3886.64
 288  4031.825
 289  4249.729
 290  4008.657
 291  4155.745
 292  4079.356
 293  4299.247
 294  4411.046
 295  5067.038
 296  5282.202
 297  5245.244
 298  5303.5
 299  5251.08
 300  4290.53
 301  3709.767
 302  4163.55
 303  4364.653
 304  4265.308
 305  4496.192
 306  4354.653
 307  4139.788
 308  4307.878
 309  4505.167
 310  4213.604
 311  4275.363
 312  4152.549
 313  4109.796
 314  4487.498
 315  4651.788
 316  4705.06
 317  4195.178
 318  3829.653
 319  3688.128
 320  3764.388
 321  3678.056
 322  3689.397
 323  3856.782
 324  3664.027
 325  3592.896
 326  3476.825
 327  3630.003
 328  3613.179
 329  4332.473
 330  4102.477
 331  3878.003
 332  3753.035
 333  3781.462
 334  3766.856
 335  3725.005
 336  4069.704
 337  4043.836
 338  3847.854
 339  3738.391
 340  3759.058
 341  3615.235
 342  3375.533
 343  3734.064
 344  3601.438
 345  3613.157
 346  3620.903
 347  3666.01
 348  3842.636
 349  3507.412
 350  3564.36
 351  3310.875
 352  3617.08
 353  3638.289
 354  4042.729
 355  3998.521
 356  3580.9
 357  3926.052
 358  4421.276
 359  4221.343
 360  4101.264
 361  4239.661
 362  4396.908
 363  4325.131
 364  3919.142
 365  4179.453
 366  4206.305
 367  4004.254
 368  3988.291
 369  3474.225
 370  3486.394
 371  3820.422
 372  4292.425
 373  4389.678
 374  4175.78
 375  3874.669
 376  3683.817
 377  3590.351
 378  3613.965
 379  3936.709
 380  3809.998
 381  3992.7
 382  4055.76
 383  4423.625
 384  4174.867
 385  3815.171
 386  3992.272
 387  3797.061
 388  3815.584
 389  4032.915
 390  3866.121
 391  3850.577
 392  4118.918
 393  3896.846
 394  3796.126
 395  3824.313
 396  3724.416
 397  3525.972
 398  3668.187
 399  3840.52
 400  3774.933
 401  4073.784
 402  3679.399
 403  3900.561
 404  3637.781
 405  3497.334
 406  3675.451
 407  3605.113
 408  3833.095
 409  3770.188
 410  4165.232
 411  4081.71
 412  3662.282
 413  3608.285
 414  3798.329
 415  3727.911
 416  3363.007
 417  2983.521
 418  2762.312
 419  3147.842
 420  3371.065
 421  3574.042
 422  4201.72
 423  3788.498
 424  3511.502
 425  3498.104
 426  3470.918
 427  3136.82
 428  3251.17
 429  3542.571
 430  3501.755
 431  3242.668
 432  3388.643
 433  3576.138
 434  3720.271
 435  3484.305
 436  3676.531
 437  3781.346
 438  3398.132
 439  3323.731
 440  3527.881
 441  3664.934
 442  3526.128
 443  3619.802
 444  4032.802
 445  3844.03
 446  4271.369
 447  4133.684
 448  4057.861
 449  4134.53
 450  3998.254
 451  4001.248
 452  4040.392
 453  4030.451
 454  4144.899
 455  3814.314
 456  3757.138
 457  3678.048
 458  3570.831
 459  3657.564
 460  4047.875
 461  3843.038
 462  3984.303
 463  4463.154
 464  4211.102
 465  3868.019
 466  3738.243
 467  4009.351
 468  4185.362
 469  4033.925
 470  4063.892
 471  4188.187
 472  3647.685
 473  3973.456
 474  3979.597
 475  3864.609
 476  3404.699
 477  3899.768
 478  4244.761
 479  4060.896
 480  4090.565
 481  3955.354
 482  3763.803
 483  3602.779
 484  3488.378
 485  3720.747
 486  4043.791
 487  3970.316
 488  4005.363
 489  4178.118
 490  3954.072
 491  3625.336
 492  3479.631
 493  4159.197
 494  4769.722
 495  4418.633
 496  4434.3
 497  4172.835
 498  4023.716
 499  3724.309
 500  3928.173
 501  3641.408
 502  3770.992
 503  4231.771
 504  4112.495
 505  4022.466
 506  3822.371
 507  4052.339
 508  3894.353
 509  3721.97
 510  4058.698
 511  4076.296
