# Input file       =  1198259396.105565-PSRB0329-2ms-sampling-dd.dat
# Candidate        =  PSR_0332+5434
# Telescope        =  AR
# Epoch_topo       =  58112.743230388485
# Epoch_bary       =  N/A
# T_sample         =  0.002
# Data Folded      =  7340032
# Data Avg         =  -2.15344492916721e-09
# Data StdDev      =  12.1101277576643 
# Profile Bins     =  512
# Profile Avg      =  -0.170700046547814
# Profile StdDev   =  1449.98236733571 
# Reduced chi-sqr  =  1.108
# Prob(Noise)      <  0.0459   (~1.7 sigma)
# P_topo (ms)      =  714.550251594708  +/- 0.000224
# P'_topo (s/s)    =  -0                +/- 1.18e-10
# P''_topo (s/s^2) =  0                 +/- 5.21e-14
# P_bary (ms)      =  N/A
# P'_bary (s/s)    =  N/A
# P''_bary (s/s^2) =  N/A
# P_orb (s)        =  N/A
# asin(i)/c (s)    =  N/A
# eccentricity     =  N/A
# w (rad)          =  N/A
# T_peri           =  N/A
######################################################
   0  -1466.825
   1  -1441.06
   2  -1363.5
   3  -1425.452
   4  -1327.086
   5  -1144.283
   6  -1057.814
   7  -1202.4
   8  -1199.971
   9  -1084.301
  10  -1254.983
  11  -1137.439
  12  -1064.846
  13  -1181.59
  14  -1393.704
  15  -1252.381
  16  -1057.108
  17  -994.736
  18  -1137.376
  19  -1024.68
  20  -1345.46
  21  -1483.562
  22  -1259.411
  23  -1118.536
  24  -948.2258
  25  -674.6459
  26  -92.00858
  27  238.4962
  28  39.58119
  29  -732.5361
  30  -811.6393
  31  -959.564
  32  -792.8378
  33  -758.8107
  34  1162.872
  35  1007.018
  36  677.3187
  37  315.749
  38  -117.2075
  39  -492.8293
  40  -563.04
  41  1448.184
  42  2445.523
  43  3126.388
  44  3232.407
  45  1078.921
  46  -629.4765
  47  -704.2667
  48  -480.6496
  49  -473.8362
  50  -401.5594
  51  -792.4118
  52  -837.9976
  53  -951.6989
  54  -958.3517
  55  -1136.388
  56  -1431.021
  57  -1467.638
  58  -1161.997
  59  -774.6771
  60  -810.1241
  61  -406.2344
  62  63.80136
  63  -28.82735
  64  -318.8341
  65  -981.1867
  66  -512.0836
  67  -405.6331
  68  -389.9119
  69  -542.8869
  70  -703.4293
  71  -786.3898
  72  -787.807
  73  -1143.38
  74  -915.6454
  75  -682.1298
  76  -670.5698
  77  -408.5106
  78  -534.2216
  79  -457.0751
  80  -593.6231
  81  -454.5715
  82  -12.47076
  83  -221.2783
  84  -446.7576
  85  -213.914
  86  185.4468
  87  390.8004
  88  -33.87699
  89  -273.0967
  90  -516.2669
  91  -743.7675
  92  -719.5527
  93  -403.6075
  94  -159.7595
  95  489.9041
  96  1343.652
  97  1376.428
  98  1048.534
  99  325.4612
 100  5.785107
 101  0.8665214
 102  -81.14716
 103  676.8217
 104  1053.053
 105  1651.25
 106  2482.377
 107  3756.393
 108  4518.323
 109  4121.865
 110  3602.497
 111  2601.125
 112  496.0281
 113  1327.212
 114  2889.853
 115  4766.944
 116  5145.907
 117  4237.9
 118  2801.246
 119  250.0434
 120  -44.07436
 121  300.7129
 122  482.0777
 123  892.8178
 124  1403.231
 125  732.1342
 126  109.2577
 127  179.3719
 128  90.94162
 129  732.8939
 130  1742.43
 131  2024.83
 132  2184.387
 133  1537.237
 134  925.9064
 135  243.5079
 136  -199.6795
 137  805.6674
 138  1176.758
 139  1399.455
 140  1196.95
 141  615.9217
 142  -423.1137
 143  -903.0278
 144  -1003.789
 145  -1089.813
 146  -618.7864
 147  -771.5524
 148  -498.8271
 149  -671.7022
 150  -993.7504
 151  -1090.838
 152  -866.3935
 153  -206.3591
 154  -66.08644
 155  -66.90022
 156  -605.2628
 157  -559.3162
 158  -511.9386
 159  -467.6138
 160  557.8301
 161  977.1952
 162  2418.99
 163  2618.551
 164  2114.483
 165  1495.798
 166  871.8671
 167  1462.631
 168  1497.582
 169  1824.15
 170  2328.565
 171  2423.201
 172  1370.924
 173  647.2382
 174  123.8496
 175  64.53951
 176  -271.7668
 177  -344.505
 178  -584.1881
 179  -698.5569
 180  -530.9458
 181  -448.2855
 182  -214.0046
 183  -355.1218
 184  -781.5114
 185  -682.6773
 186  -570.673
 187  -308.2733
 188  -661.2278
 189  -692.2182
 190  -830.4203
 191  -612.2239
 192  404.5008
 193  641.846
 194  579.2608
 195  896.22
 196  436.7793
 197  -393.6475
 198  -393.8562
 199  711.1796
 200  1076.418
 201  992.7935
 202  706.524
 203  361.9215
 204  -29.37522
 205  348.0892
 206  938.3494
 207  1153.809
 208  850.4491
 209  -11.34596
 210  129.2098
 211  229.3044
 212  246.0954
 213  94.5686
 214  404.4642
 215  558.251
 216  493.9016
 217  237.3125
 218  110.7711
 219  283.7979
 220  13.04006
 221  273.4324
 222  201.5633
 223  169.5931
 224  366.2256
 225  963.9016
 226  1909.236
 227  2102.761
 228  2352.217
 229  2001.447
 230  1139.492
 231  614.4178
 232  999.1268
 233  2681.366
 234  3298.994
 235  3613.977
 236  3438.699
 237  1236.552
 238  436.2367
 239  -37.44613
 240  -164.1388
 241  -276.4477
 242  -41.81171
 243  16.50601
 244  23.45661
 245  85.29539
 246  -227.6251
 247  -734.1033
 248  -882.4928
 249  -462.0116
 250  -189.9536
 251  -453.5045
 252  18.33052
 253  79.7971
 254  334.5886
 255  276.8986
 256  920.6786
 257  1858.744
 258  1328.04
 259  1337.511
 260  1358.104
 261  1172.838
 262  1212.038
 263  1531.52
 264  1829.927
 265  1723.313
 266  1911.319
 267  2495.69
 268  2531.106
 269  1905.383
 270  1268.623
 271  646.8657
 272  1211.113
 273  1613.755
 274  1795.858
 275  1238.681
 276  1121.866
 277  1012.07
 278  516.0351
 279  338.4111
 280  -91.9103
 281  -79.43938
 282  660.9638
 283  1022.594
 284  745.1887
 285  -101.6169
 286  -455.9551
 287  -672.1108
 288  -221.3526
 289  -26.74312
 290  -450.0421
 291  -528.9256
 292  -286.9682
 293  -89.35439
 294  -516.3419
 295  -1184.132
 296  -1063.743
 297  -602.3646
 298  -282.4838
 299  -233.0497
 300  -477.2243
 301  -251.7999
 302  -282.5972
 303  -951.2272
 304  -1347.661
 305  -727.6489
 306  -25.36399
 307  286.3757
 308  402.758
 309  214.4312
 310  241.8064
 311  669.5292
 312  1015.876
 313  1205.251
 314  1059.73
 315  832.4231
 316  923.0914
 317  747.8118
 318  381.7423
 319  378.8798
 320  427.6147
 321  415.0434
 322  241.7842
 323  159.2253
 324  73.69823
 325  -301.7418
 326  -207.205
 327  27.90917
 328  303.8372
 329  534.7079
 330  575.0332
 331  270.7043
 332  50.75911
 333  143.9912
 334  710.7374
 335  1360.315
 336  1163.753
 337  808.17
 338  175.3848
 339  -145.4632
 340  26.85741
 341  314.2383
 342  292.4317
 343  535.4417
 344  17.19723
 345  -28.1987
 346  -551.4618
 347  -587.8282
 348  -592.322
 349  -627.7938
 350  -734.4492
 351  -667.9656
 352  -617.663
 353  -601.5308
 354  -520.3637
 355  -500.7312
 356  -1034.931
 357  -910.3187
 358  -1012.179
 359  -848.1354
 360  -774.6409
 361  -1028.492
 362  -1219.231
 363  -1163.8
 364  -1137.91
 365  -1147.394
 366  -1341.206
 367  -1280.923
 368  -951.9975
 369  -442.9789
 370  181.2439
 371  190.8642
 372  269.6904
 373  27.27205
 374  -397.7341
 375  -354.2774
 376  -13.0141
 377  452.9158
 378  612.775
 379  676.4643
 380  104.4161
 381  -610.5207
 382  -565.9598
 383  -480.9089
 384  -532.492
 385  -331.226
 386  -177.3886
 387  -353.1567
 388  -453.4691
 389  -356.4694
 390  -550.256
 391  -560.86
 392  -495.3836
 393  46.76139
 394  183.7234
 395  437.5551
 396  427.7401
 397  -113.7703
 398  -691.6798
 399  -871.5538
 400  -560.9778
 401  -706.5823
 402  -461.1924
 403  -702.0191
 404  -867.233
 405  -712.558
 406  -970.6254
 407  -1137.945
 408  -708.9025
 409  -533.2697
 410  430.7665
 411  770.6613
 412  693.4239
 413  496.5849
 414  398.5878
 415  334.1066
 416  60.57666
 417  854.9839
 418  1320.629
 419  1372.278
 420  956.2226
 421  698.3233
 422  663.0495
 423  -150.6449
 424  -984.1649
 425  -1346.96
 426  -1168.492
 427  -995.0157
 428  -978.3636
 429  -316.616
 430  -542.2926
 431  -861.7972
 432  -966.3425
 433  -1057.739
 434  -1191.777
 435  -1208.565
 436  -1114.499
 437  -1161.539
 438  -1309.611
 439  -1125.282
 440  -710.7378
 441  -977.1317
 442  -812.7554
 443  -918.1516
 444  -1223.549
 445  -1399.35
 446  -1467.396
 447  -1178.754
 448  -1193.415
 449  -853.9147
 450  -980.0363
 451  -804.9274
 452  -1039.258
 453  -1215.923
 454  -1231.894
 455  -1230.293
 456  -982.7555
 457  -1088.415
 458  -796.6317
 459  -528.2203
 460  -722.0515
 461  -845.1434
 462  -812.2374
 463  -295.6729
 464  72.1418
 465  -100.0933
 466  -367.3508
 467  -511.7796
 468  -851.156
 469  -1076.728
 470  -952.4981
 471  -914.3961
 472  -687.6512
 473  -421.8951
 474  -928.4874
 475  -1135.087
 476  -960.0466
 477  -898.9327
 478  -631.9619
 479  -731.9648
 480  -936.0754
 481  -1013.718
 482  -1318.803
 483  -1061.074
 484  -1053.745
 485  -1278.109
 486  -1024.5
 487  -874.3486
 488  -927.3229
 489  -1200.199
 490  -407.3912
 491  -348.9231
 492  -175.3285
 493  -281.9293
 494  -227.8216
 495  -913.1665
 496  -1204.722
 497  -465.053
 498  -84.40837
 499  156.7782
 500  252.0608
 501  89.59592
 502  -820.601
 503  -1028.657
 504  -1435.39
 505  -1627.349
 506  -1667.806
 507  -1623.17
 508  -1279.139
 509  -1254.361
 510  -1464.195
 511  -1483.631
