# Input file       =  1198446620.102143_cleaned.dat
# Candidate        =  PSR_0332+5434
# Telescope        =  AR
# Epoch_topo       =  58114.910174793324
# Epoch_bary       =  N/A
# T_sample         =  0.002
# Data Folded      =  7340032
# Data Avg         =  0.0285661791425935
# Data StdDev      =  1.00006199103852 
# Profile Bins     =  512
# Profile Avg      =  409.310841801376 
# Profile StdDev   =  119.740458752036 
# Reduced chi-sqr  =  0.905
# Prob(Noise)      <  0.939   (~0.0 sigma)
# P_topo (ms)      =  714.552544722768  +/- 0.000245
# P'_topo (s/s)    =  -0                +/- 1.29e-10
# P''_topo (s/s^2) =  0                 +/- 5.72e-14
# P_bary (ms)      =  N/A
# P'_bary (s/s)    =  N/A
# P''_bary (s/s^2) =  N/A
# P_orb (s)        =  N/A
# asin(i)/c (s)    =  N/A
# eccentricity     =  N/A
# w (rad)          =  N/A
# T_peri           =  N/A
######################################################
   0  720.5461
   1  655.5571
   2  605.6285
   3  548.0454
   4  607.4557
   5  533.049
   6  447.3323
   7  470.1795
   8  554.2927
   9  507.5217
  10  443.1035
  11  472.8269
  12  454.9012
  13  475.8518
  14  558.1856
  15  405.1862
  16  356.5247
  17  317.8602
  18  304.144
  19  412.2408
  20  448.8727
  21  489.8511
  22  281.2926
  23  311.9024
  24  369.6341
  25  342.0854
  26  353.6958
  27  375.3215
  28  466.1653
  29  492.6097
  30  500.5005
  31  461.831
  32  377.6253
  33  403.6798
  34  417.887
  35  496.7742
  36  413.4532
  37  339.4471
  38  257.5232
  39  388.05
  40  417.0185
  41  464.6431
  42  483.9825
  43  437.5647
  44  369.3088
  45  338.1961
  46  408.0321
  47  463.4562
  48  417.5543
  49  394.8861
  50  417.4624
  51  389.099
  52  360.8218
  53  324.1828
  54  431.3482
  55  424.7313
  56  355.6907
  57  486.7793
  58  442.3517
  59  435.753
  60  489.3833
  61  425.4428
  62  494.6316
  63  466.0558
  64  498.4954
  65  478.0712
  66  438.7499
  67  539.7262
  68  439.5887
  69  349.7675
  70  400.5237
  71  455.4342
  72  374.8062
  73  341.9359
  74  414.9032
  75  523.5398
  76  494.4713
  77  554.3883
  78  535.9412
  79  457.5656
  80  478.7732
  81  497.1283
  82  449.2782
  83  388.4077
  84  394.0916
  85  396.7176
  86  477.6128
  87  486.3162
  88  495.9781
  89  546.2096
  90  355.0839
  91  431.4135
  92  501.4649
  93  510.1827
  94  374.0157
  95  421.5829
  96  407.4921
  97  366.744
  98  440.2351
  99  463.4501
 100  390.4176
 101  420.121
 102  407.2305
 103  340.4633
 104  398.3054
 105  435.9472
 106  399.9378
 107  439.0443
 108  409.7828
 109  301.458
 110  424.9805
 111  482.2419
 112  384.6637
 113  410.449
 114  355.6736
 115  375.169
 116  452.3275
 117  409.5541
 118  428.6815
 119  367.06
 120  307.1924
 121  298.721
 122  409.3861
 123  413.6609
 124  434.2116
 125  496.7854
 126  362.304
 127  434.5044
 128  405.9891
 129  321.1447
 130  381.6604
 131  394.616
 132  539.0645
 133  406.772
 134  290.5574
 135  263.3983
 136  323.4746
 137  335.2758
 138  363.8786
 139  496.1294
 140  452.8631
 141  428.9007
 142  443.0537
 143  383.4012
 144  494.0589
 145  534.6897
 146  552.716
 147  540.267
 148  378.5428
 149  425.5089
 150  359.105
 151  295.8386
 152  333.6042
 153  475.3434
 154  467.9111
 155  429.273
 156  377.2828
 157  396.905
 158  456.811
 159  514.8377
 160  468.7097
 161  499.3498
 162  479.3417
 163  514.3605
 164  427.444
 165  435.6543
 166  419.671
 167  401.8005
 168  316.5725
 169  387.8555
 170  490.3659
 171  460.2522
 172  370.8615
 173  349.2242
 174  438.0356
 175  439.442
 176  433.2429
 177  510.1732
 178  604.2342
 179  684.0381
 180  534.6547
 181  478.5054
 182  437.4135
 183  406.5131
 184  442.7863
 185  342.8399
 186  324.6556
 187  378.8581
 188  301.7775
 189  296.5663
 190  387.708
 191  400.0954
 192  425.5343
 193  477.4295
 194  440.8288
 195  510.5784
 196  510.1361
 197  443.0713
 198  409.946
 199  416.3582
 200  429.9474
 201  441.1614
 202  441.0873
 203  507.0698
 204  369.0893
 205  453.8892
 206  499.2075
 207  500.3044
 208  426.8191
 209  387.6654
 210  395.541
 211  441.3117
 212  480.7678
 213  377.3057
 214  393.0699
 215  440.03
 216  366.4345
 217  343.8813
 218  356.2412
 219  255.746
 220  328.304
 221  394.3232
 222  391.5654
 223  443.0793
 224  367.2491
 225  319.0854
 226  475.85
 227  484.242
 228  499.8211
 229  382.3925
 230  365.8959
 231  309.9619
 232  424.2709
 233  491.0395
 234  448.5404
 235  319.9366
 236  426.7264
 237  372.6708
 238  412.5095
 239  448.1878
 240  490.7025
 241  498.5847
 242  462.3053
 243  453.3154
 244  364.1659
 245  321.3982
 246  320.7578
 247  381.7338
 248  324.4448
 249  267.1421
 250  414.3406
 251  367.9051
 252  418.7625
 253  319.3763
 254  429.3154
 255  439.1944
 256  472.2495
 257  451.4175
 258  411.6188
 259  314.0915
 260  440.876
 261  444.3381
 262  390.5228
 263  445.5883
 264  515.0219
 265  368.6707
 266  394.0897
 267  423.1704
 268  471.3411
 269  519.458
 270  459.285
 271  396.6362
 272  334.4306
 273  382.8228
 274  397.1526
 275  446.8943
 276  473.4251
 277  421.7384
 278  486.2743
 279  434.5456
 280  437.492
 281  240.5952
 282  323.0879
 283  443.3444
 284  452.8759
 285  358.4559
 286  390.9934
 287  296.4814
 288  378.4363
 289  376.8353
 290  335.0661
 291  291.5492
 292  332.2576
 293  456.2002
 294  447.4933
 295  391.8141
 296  267.5707
 297  284.236
 298  304.1742
 299  261.9498
 300  345.6527
 301  177.5231
 302  271.6703
 303  358.9494
 304  280.2043
 305  341.4154
 306  351.5177
 307  366.0018
 308  376.8886
 309  304.09
 310  356.0049
 311  415.5385
 312  342.5168
 313  430.2038
 314  378.9869
 315  429.7924
 316  417.963
 317  424.2196
 318  462.2006
 319  360.2334
 320  266.6856
 321  410.476
 322  400.155
 323  326.2113
 324  248.7901
 325  319.4306
 326  378.2443
 327  465.3098
 328  394.5405
 329  309.2261
 330  163.5541
 331  318.1629
 332  378.8005
 333  516.8489
 334  651.098
 335  527.9355
 336  414.7252
 337  333.4446
 338  351.5336
 339  314.158
 340  257.0197
 341  259.3965
 342  299.5325
 343  378.4402
 344  426.792
 345  352.2815
 346  278.6944
 347  337.1997
 348  292.6226
 349  300.2344
 350  472.1836
 351  494.9654
 352  411.708
 353  389.2293
 354  497.9767
 355  363.4421
 356  371.294
 357  484.0991
 358  433.203
 359  381.6255
 360  362.9257
 361  408.1175
 362  313.9665
 363  306.6554
 364  428.3236
 365  266.5142
 366  459.1552
 367  441.7906
 368  380.3337
 369  426.1982
 370  389.995
 371  292.6581
 372  323.1875
 373  309.8763
 374  375.559
 375  361.8565
 376  327.3737
 377  367.1801
 378  363.4085
 379  374.9522
 380  471.6407
 381  440.8493
 382  381.7568
 383  370.3369
 384  295.5751
 385  260.0771
 386  330.3252
 387  388.317
 388  353.9873
 389  368.1688
 390  354.1536
 391  298.2775
 392  362.6593
 393  434.832
 394  372.9037
 395  406.8382
 396  402.4779
 397  463.8495
 398  398.7852
 399  397.5371
 400  383.3572
 401  400.9575
 402  518.6925
 403  491.5554
 404  495.7121
 405  459.7361
 406  384.9
 407  306.2351
 408  243.9971
 409  182.8862
 410  232.4612
 411  291.4388
 412  402.9804
 413  401.419
 414  387.0316
 415  339.0018
 416  384.3146
 417  341.9774
 418  334.8992
 419  353.5573
 420  464.1335
 421  478.5681
 422  386.1938
 423  324.3434
 424  511.0258
 425  581.3312
 426  488.2213
 427  428.9727
 428  392.3699
 429  293.4446
 430  375.3631
 431  361.0829
 432  354.8762
 433  388.6453
 434  386.1683
 435  336.1631
 436  329.333
 437  309.6954
 438  352.6699
 439  245.2983
 440  262.725
 441  339.6815
 442  378.6003
 443  477.4919
 444  456.7022
 445  439.4436
 446  273.5243
 447  334.0342
 448  381.3271
 449  333.2043
 450  434.227
 451  431.5808
 452  382.3139
 453  267.0512
 454  277.1846
 455  283.07
 456  259.2086
 457  518.5723
 458  524.649
 459  474.4535
 460  476.2523
 461  571.9594
 462  538.7738
 463  423.4666
 464  424.8264
 465  554.7873
 466  431.6938
 467  475.2022
 468  439.2045
 469  488.7771
 470  341.7717
 471  339.2833
 472  410.6413
 473  463.9099
 474  371.3574
 475  415.8446
 476  399.6254
 477  354.0802
 478  268.4498
 479  333.5482
 480  297.5316
 481  297.2593
 482  359.4713
 483  506.8342
 484  560.061
 485  480.0909
 486  368.5028
 487  553.1466
 488  479.8489
 489  362.2086
 490  369.5928
 491  317.298
 492  408.3406
 493  546.2119
 494  524.4897
 495  483.2125
 496  566.7626
 497  568.7524
 498  554.9124
 499  396.8606
 500  427.1766
 501  455.1639
 502  585.876
 503  400.0521
 504  344.1141
 505  413.1071
 506  407.972
 507  520.1819
 508  613.4527
 509  687.5212
 510  692.6442
 511  685.4024
