# Input file       =  1198446620.102143_cleaned.dat
# Candidate        =  PSR_0332+5434
# Telescope        =  AR
# Epoch_topo       =  58114.910174793324
# Epoch_bary       =  N/A
# T_sample         =  0.002
# Data Folded      =  7340032
# Data Avg         =  0.0285661791425935
# Data StdDev      =  1.00006199103852 
# Profile Bins     =  512
# Profile Avg      =  409.310900059938 
# Profile StdDev   =  119.740458752036 
# Reduced chi-sqr  =  0.905
# Prob(Noise)      <  0.939   (~0.0 sigma)
# P_topo (ms)      =  714.552545939741  +/- 0.000246
# P'_topo (s/s)    =  -0                +/- 1.3e-10
# P''_topo (s/s^2) =  0                 +/- 5.72e-14
# P_bary (ms)      =  N/A
# P'_bary (s/s)    =  N/A
# P''_bary (s/s^2) =  N/A
# P_orb (s)        =  N/A
# asin(i)/c (s)    =  N/A
# eccentricity     =  N/A
# w (rad)          =  N/A
# T_peri           =  N/A
######################################################
   0  448.8272
   1  489.4798
   2  278.6291
   3  312.6748
   4  368.8453
   5  343.3222
   6  354.3352
   7  376.4107
   8  467.733
   9  491.5679
  10  501.3035
  11  459.9134
  12  377.8908
  13  402.2747
  14  420.5497
  15  497.8047
  16  411.4664
  17  336.8234
  18  257.8565
  19  390.3283
  20  417.1065
  21  465.7052
  22  482.6463
  23  437.6729
  24  367.604
  25  338.6177
  26  409.7748
  27  464.2731
  28  415.1521
  29  395.7831
  30  416.6197
  31  388.8975
  32  360.3444
  33  325.5461
  34  433.2624
  35  419.9103
  36  357.3682
  37  488.4774
  38  441.6731
  39  437.222
  40  489.285
  41  422.9629
  42  498.0962
  43  463.2447
  44  500.6622
  45  476.6583
  46  440.0938
  47  540.0692
  48  437.0105
  49  350.5382
  50  401.2249
  51  455.2787
  52  373.1385
  53  341.8475
  54  417.4977
  55  523.2531
  56  495.9922
  57  553.8242
  58  535.9397
  59  455.8089
  60  479.4847
  61  496.9456
  62  448.3041
  63  387.8031
  64  393.4021
  65  399.548
  66  477.0037
  67  485.5843
  68  495.9722
  69  546.2368
  70  352.8375
  71  434.4548
  72  502.3017
  73  509.3241
  74  373.7237
  75  422.2609
  76  406.2497
  77  366.1843
  78  442.4415
  79  461.8342
  80  389.1377
  81  422.5377
  82  404.4547
  83  340.3032
  84  400.0439
  85  436.3561
  86  398.9063
  87  440.9605
  88  407.5803
  89  302.084
  90  427.9489
  91  478.612
  92  385.2633
  93  408.2213
  94  357.2024
  95  376.4419
  96  452.426
  97  409.442
  98  427.4697
  99  366.6195
 100  306.3694
 101  299.8435
 102  411.4503
 103  414.0797
 104  434.9413
 105  495.094
 106  359.767
 107  436.1347
 108  404.1862
 109  321.9935
 110  382.7077
 111  395.3827
 112  540.5831
 113  401.912
 114  290.9128
 115  264.5728
 116  324.1369
 117  334.9476
 118  365.3565
 119  497.47
 120  451.0379
 121  430.0291
 122  441.7914
 123  383.4671
 124  497.337
 125  532.9179
 126  555.2547
 127  536.0302
 128  379.6274
 129  424.2387
 130  358.775
 131  293.0341
 132  338.0072
 133  476.7089
 134  465.9837
 135  429.1946
 136  376.4626
 137  398.1715
 138  457.3574
 139  515.2667
 140  468.9597
 141  499.9892
 142  479.0391
 143  513.7988
 144  424.489
 145  437.1935
 146  419.3933
 147  400.1146
 148  315.6076
 149  391.8924
 150  489.8361
 151  459.9866
 152  368.8827
 153  350.4338
 154  439.3114
 155  438.9981
 156  434.1094
 157  510.6191
 158  606.7463
 159  682.986
 160  532.5506
 161  479.7751
 162  434.6071
 163  407.1846
 164  441.1553
 165  341.8597
 166  326.4133
 167  378.1422
 168  300.8704
 169  297.5571
 170  389.5442
 171  398.771
 172  426.7973
 173  476.7202
 174  440.9498
 175  512.9674
 176  509.0858
 177  442.4697
 178  407.8696
 179  418.8315
 180  428.4387
 181  443.5562
 182  439.8443
 183  507.6161
 184  367.2192
 185  456.7557
 186  498.2618
 187  501.3454
 188  424.1064
 189  387.6994
 190  396.6578
 191  441.8717
 192  479.53
 193  374.854
 194  396.6986
 195  437.7014
 196  366.6851
 197  344.6532
 198  353.3513
 199  256.4253
 200  329.8279
 201  395.0505
 202  390.9659
 203  444.4351
 204  364.6316
 205  321.1726
 206  477.5825
 207  483.6568
 208  498.6467
 209  381.5332
 210  366.1572
 211  309.5951
 212  425.5257
 213  491.9408
 214  446.5605
 215  319.8698
 216  426.9033
 217  372.7818
 218  413.6564
 219  449.2491
 220  489.6576
 221  499.0459
 222  461.8782
 223  453.0188
 224  362.8196
 225  318.6789
 226  325.032
 227  381.0596
 228  322.9857
 229  266.3409
 230  416.4319
 231  366.812
 232  419.563
 233  318.397
 234  432.2378
 235  438.4698
 236  471.7785
 237  451.9392
 238  409.7286
 239  314.7113
 240  442.3762
 241  442.4292
 242  390.2946
 243  447.2014
 244  514.7871
 245  367.213
 246  395.8831
 247  422.3654
 248  473.2446
 249  518.1094
 250  459.0058
 251  394.9114
 252  334.8111
 253  384.4514
 254  397.2982
 255  447.9601
 256  472.1915
 257  422.1372
 258  485.3268
 259  434.952
 260  435.2642
 261  238.093
 262  328.2872
 263  443.2602
 264  453.6947
 265  356.1978
 266  391.2838
 267  295.7241
 268  379.6876
 269  375.4948
 270  335.1703
 271  290.3
 272  335.4126
 273  456.264
 274  447.9756
 275  389.6609
 276  266.1438
 277  284.5153
 278  304.2156
 279  261.8283
 280  345.1215
 281  176.1702
 282  273.997
 283  358.622
 284  280.4627
 285  343.1174
 286  350.2782
 287  368.5293
 288  373.004
 289  306.462
 290  355.8399
 291  415.3798
 292  343.294
 293  430.3178
 294  378.439
 295  430.8458
 296  417.1498
 297  425.1894
 298  461.9464
 299  356.5071
 300  268.9395
 301  411.1984
 302  400.2493
 303  323.1541
 304  248.9969
 305  320.8766
 306  380.3389
 307  466.501
 308  393.0715
 309  306.7737
 310  161.526
 311  321.2816
 312  380.5706
 313  519.4968
 314  651.7254
 315  525.4787
 316  412.9131
 317  332.8163
 318  351.2132
 319  314.2838
 320  255.4019
 321  260.9396
 322  299.1011
 323  381.1417
 324  426.1373
 325  349.7569
 326  279.1849
 327  338.0971
 328  290.5461
 329  303.868
 330  473.2566
 331  493.5494
 332  409.0954
 333  390.5286
 334  499.9594
 335  361.4004
 336  373.0163
 337  482.6073
 338  433.0025
 339  381.9655
 340  362.0703
 341  410.1642
 342  309.8195
 343  310.5286
 344  426.0098
 345  266.9634
 346  463.6103
 347  437.9886
 348  382.0035
 349  425.9071
 350  388.8534
 351  292.1822
 352  323.6501
 353  308.6341
 354  376.7411
 355  361.4513
 356  328.665
 357  367.7035
 358  360.5323
 359  377.6617
 360  470.6233
 361  441.3639
 362  379.8125
 363  370.9809
 364  294.4799
 365  258.9854
 366  332.9007
 367  388.1928
 368  353.7929
 369  369.1379
 370  353.0997
 371  297.705
 372  364.336
 373  434.6405
 374  372.6214
 375  405.4598
 376  404.6503
 377  463.0651
 378  398.009
 379  397.7311
 380  384.4285
 381  402.578
 382  519.1032
 383  491.149
 384  495.9088
 385  457.9258
 386  383.9401
 387  304.4392
 388  243.0991
 389  181.9838
 390  232.3977
 391  293.9139
 392  404.3259
 393  402.0377
 394  385.2338
 395  340.8909
 396  383.5751
 397  341.2008
 398  334.9338
 399  355.1296
 400  465.6534
 401  477.9937
 402  383.4524
 403  326.2772
 404  513.3896
 405  581.6799
 406  485.2318
 407  429.5248
 408  389.1842
 409  293.3254
 410  376.3651
 411  361.8526
 412  355.8832
 413  387.7097
 414  385.6823
 415  336.4485
 416  328.6792
 417  310.0121
 418  353.0122
 419  242.6486
 420  263.9992
 421  341.0907
 422  378.3211
 423  479.3703
 424  456.2649
 425  438.2767
 426  270.6126
 427  337.997
 428  380.2117
 429  334.5382
 430  434.5778
 431  430.827
 432  380.5783
 433  265.9811
 434  278.9106
 435  280.3509
 436  262.7494
 437  522.1447
 438  523.2389
 439  474.394
 440  476.6421
 441  573.666
 442  535.7407
 443  422.5133
 444  426.4952
 445  555.2524
 446  429.7558
 447  475.58
 448  438.9822
 449  488.8769
 450  340.0652
 451  339.9742
 452  412.8228
 453  462.0349
 454  372.1488
 455  415.2871
 456  399.9062
 457  352.8656
 458  267.1563
 459  334.7156
 460  296.7953
 461  298.4622
 462  360.965
 463  508.5662
 464  560.0518
 465  475.8392
 466  370.2504
 467  554.8093
 468  477.508
 469  360.9233
 470  369.9292
 471  316.7645
 472  411.754
 473  547.9924
 474  522.6929
 475  486.8976
 476  564.6697
 477  570.019
 478  552.3881
 479  395.991
 480  427.3716
 481  458.5152
 482  584.1496
 483  395.1553
 484  346.1176
 485  413.1125
 486  409.5596
 487  522.6482
 488  613.9967
 489  688.7687
 490  691.1389
 491  686.1057
 492  720.7183
 493  655.1633
 494  602.9728
 495  549.9712
 496  606.6644
 497  529.6902
 498  449.6713
 499  471.1036
 500  553.8051
 501  505.5074
 502  442.1858
 503  474.5628
 504  453.502
 505  478.7531
 506  556.5981
 507  403.6423
 508  355.1505
 509  317.4177
 510  305.2056
 511  414.4129
