# Input file       =  1198761694.129448-PSRB0329-2ms-sampling-dd.dat
# Candidate        =  PSR_0332+5434
# Telescope        =  AR
# Epoch_topo       =  58118.556864924169
# Epoch_bary       =  N/A
# T_sample         =  0.002
# Data Folded      =  7471104
# Data Avg         =  -1.19025131591398e-09
# Data StdDev      =  87.2184670136269 
# Profile Bins     =  512
# Profile Avg      =  2.378804512755   
# Profile StdDev   =  10535.7597704161 
# Reduced chi-sqr  =  1.078
# Prob(Noise)      <  0.107   (~1.2 sigma)
# P_topo (ms)      =  714.555366844508  +/- 0.000309
# P'_topo (s/s)    =  -0                +/- 1.6e-10
# P''_topo (s/s^2) =  0                 +/- 6.94e-14
# P_bary (ms)      =  N/A
# P'_bary (s/s)    =  N/A
# P''_bary (s/s^2) =  N/A
# P_orb (s)        =  N/A
# asin(i)/c (s)    =  N/A
# eccentricity     =  N/A
# w (rad)          =  N/A
# T_peri           =  N/A
######################################################
   0  2977.773
   1  4778.123
   2  3170.126
   3  3442.009
   4  -3921.824
   5  -5440.065
   6  -4517.029
   7  1611.356
   8  128.6688
   9  109.1448
  10  -143.2826
  11  -3639.392
  12  -4735.6
  13  -6324.478
  14  -7305.177
  15  -5807.913
  16  -4811.725
  17  -3716.01
  18  2519.002
  19  9469.869
  20  16172.38
  21  16423.49
  22  14273.29
  23  9130.233
  24  -2860.912
  25  7456.4
  26  15809
  27  23554.85
  28  22568.3
  29  16505.16
  30  10921.34
  31  5912.859
  32  4025.625
  33  2990.896
  34  1170.357
  35  -16.14119
  36  1166.021
  37  3619.19
  38  3553.47
  39  3496.621
  40  1777.742
  41  -466.7216
  42  -396.1704
  43  2377.593
  44  2372.923
  45  5427.092
  46  11172.4
  47  8595.199
  48  7828.064
  49  7573.917
  50  11094.62
  51  5744.502
  52  8311.89
  53  12311.67
  54  15184.3
  55  20167.82
  56  21565
  57  18174.34
  58  14232.52
  59  1767.009
  60  176.1544
  61  13163
  62  20279.44
  63  22285.66
  64  20164.73
  65  10740.84
  66  2696.992
  67  -2562.531
  68  -1383.394
  69  -1883.647
  70  -2933.942
  71  125.0864
  72  1396.742
  73  7345.321
  74  11996.57
  75  10863.13
  76  11370.39
  77  3416.185
  78  977.7505
  79  -541.8473
  80  12712.71
  81  11115.99
  82  8743.128
  83  7730.141
  84  3050.111
  85  2521.1
  86  2540.512
  87  1337.238
  88  1365.165
  89  1108.064
  90  -1362.417
  91  3070.441
  92  7824.979
  93  12754.55
  94  13477.96
  95  14627.98
  96  15309.24
  97  9044.986
  98  12282.68
  99  11994.44
 100  11298.43
 101  6184.185
 102  5300.915
 103  5471.135
 104  5401.517
 105  6141.556
 106  6402.451
 107  4221.313
 108  1408.863
 109  2562.913
 110  5176.517
 111  7664.515
 112  12133.96
 113  14647.14
 114  9514.541
 115  11593.99
 116  13281.93
 117  17906.27
 118  13751.25
 119  13498.89
 120  14011.99
 121  3490.573
 122  4113.675
 123  4875.278
 124  8602.669
 125  14740.54
 126  30354.61
 127  32552
 128  29491.81
 129  26868.81
 130  -92.79926
 131  2844.57
 132  8276.014
 133  29540.96
 134  28300.91
 135  24013.49
 136  15771.28
 137  -3790.858
 138  -8212.558
 139  -8933.51
 140  -7879.521
 141  -6484.125
 142  -5414.523
 143  -5588.858
 144  -6867.225
 145  -6993.081
 146  -8704.787
 147  -5207.644
 148  -4027.198
 149  -2991.487
 150  -1873.923
 151  -457.9787
 152  1737.778
 153  3383.447
 154  4248.439
 155  3482.677
 156  -2370.08
 157  -2025.953
 158  -842.2446
 159  3009.436
 160  3061.438
 161  2433.274
 162  533.5629
 163  -6424.227
 164  -8045.695
 165  -9430.049
 166  -11262.85
 167  -8163.738
 168  -6064.192
 169  -4350.209
 170  -2710.44
 171  -3741.831
 172  -4719.858
 173  -7515.099
 174  -4607.364
 175  -3262.387
 176  -986.3491
 177  4383.217
 178  5986.866
 179  3327.269
 180  986.6057
 181  -2710.138
 182  -8198.081
 183  -4166.217
 184  2123.026
 185  4788.363
 186  3463.541
 187  2800.363
 188  -1069.466
 189  -6412.629
 190  -6011.794
 191  -5553.819
 192  -5352.184
 193  -5375.532
 194  -3621.661
 195  -6461.699
 196  -7260.214
 197  -8683.263
 198  -9990.415
 199  -11163.75
 200  -10931.82
 201  -8355.928
 202  -3487.164
 203  -1835.829
 204  3774.821
 205  6124.187
 206  -323.4291
 207  1769.673
 208  -783.325
 209  6043.865
 210  5972.929
 211  9509.583
 212  8066.723
 213  580.3802
 214  1030.495
 215  -340.6383
 216  -1423.713
 217  -1627.785
 218  -3749.291
 219  -6002.597
 220  -7499.559
 221  -6434.157
 222  -6798.222
 223  -6804.197
 224  -7909.499
 225  -8276.803
 226  -7684.332
 227  -8055.087
 228  -6893.215
 229  -5993.369
 230  -5694.423
 231  -6446.74
 232  -6939.279
 233  -6301.757
 234  -4842.895
 235  -3983.328
 236  -3707.753
 237  -4864.056
 238  -7194.739
 239  -7508.24
 240  -6676.386
 241  -5802.523
 242  -5284.604
 243  -3559.974
 244  -4432.317
 245  -5363.751
 246  -5273.106
 247  -6083.509
 248  -5167.878
 249  -4394.73
 250  -3355.966
 251  -2211.799
 252  -1983.458
 253  -2583.214
 254  -2831.371
 255  -4571.326
 256  -5830.45
 257  -4514.74
 258  5755.83
 259  10872.67
 260  10823.64
 261  9262.317
 262  979.2483
 263  -5475.361
 264  -7967.559
 265  7978.443
 266  9842.197
 267  10209.67
 268  7573.066
 269  7.834095
 270  -5332.45
 271  -9348.846
 272  -7181.106
 273  -3122.719
 274  1439.747
 275  3422.165
 276  2862.958
 277  573.0299
 278  -1284.12
 279  -5820.34
 280  -668.2019
 281  2548.322
 282  2817.986
 283  1798.611
 284  813.3414
 285  631.6744
 286  -2942.793
 287  -2713.348
 288  -5393.988
 289  -8914.227
 290  -10086.43
 291  -8454.381
 292  -8937.858
 293  -8660.754
 294  -7930.806
 295  -8871.75
 296  -9307.644
 297  -9845.67
 298  -9679.98
 299  -9133.142
 300  -9137.432
 301  -8964.393
 302  -8970.901
 303  -8776.324
 304  -8293.545
 305  -8331.312
 306  -8642.135
 307  -8929.403
 308  -6713.561
 309  -5520.669
 310  -4220.015
 311  -3354.498
 312  -5381.106
 313  -6873.157
 314  -8709.396
 315  -5893.32
 316  -2740.632
 317  -1588.517
 318  -2304.078
 319  -4102.645
 320  -4509.454
 321  -3201.995
 322  1152.6
 323  4621.166
 324  5707.771
 325  2275.933
 326  -2997.521
 327  -3214.752
 328  -4300.826
 329  -1033.464
 330  1199.666
 331  1872.597
 332  605.3432
 333  -1788.71
 334  -3557.032
 335  -7622.491
 336  -7555.029
 337  -6246.182
 338  -3612.056
 339  -5883.378
 340  -5120.59
 341  -4189.639
 342  -2943.34
 343  174.8712
 344  1779.831
 345  1187.689
 346  -6792.958
 347  -5381.58
 348  -4603.954
 349  -3372.22
 350  -959.708
 351  1860.606
 352  4297.583
 353  4748.436
 354  6627.78
 355  4082.214
 356  -813.1285
 357  -3586.089
 358  -2219.238
 359  -833.6125
 360  7109.938
 361  10920.9
 362  10472.73
 363  6741.39
 364  915.2481
 365  -2745.677
 366  -6820.309
 367  -5011.267
 368  -3617.84
 369  -2493.275
 370  -1997.402
 371  -4197.945
 372  -6098.398
 373  -8673.58
 374  -4744.541
 375  76.14972
 376  5450.404
 377  6194.861
 378  7322.417
 379  7104.598
 380  2410.73
 381  6443.102
 382  8474.423
 383  9526.685
 384  4736.287
 385  4752.792
 386  5085.455
 387  1424.686
 388  1783.764
 389  2562.607
 390  7033.996
 391  5616.898
 392  5739.601
 393  5279.085
 394  -1687.932
 395  -1421.566
 396  -302.8786
 397  4763.722
 398  5636.773
 399  5933.211
 400  4407.671
 401  -536.89
 402  -2550.473
 403  858.8104
 404  -1051.815
 405  54.60944
 406  -1275.062
 407  -6151.812
 408  -7493.742
 409  -7541.983
 410  -1368.309
 411  1712.179
 412  3809.804
 413  1965.893
 414  -1644.625
 415  -7866.125
 416  -7866.128
 417  1787.519
 418  13033.19
 419  17960.51
 420  16575.13
 421  11417.13
 422  2474.916
 423  -9986.623
 424  2217.583
 425  6542.562
 426  8592.83
 427  5130.537
 428  47.48251
 429  -4482.462
 430  -10913.25
 431  -9958.811
 432  -8145.207
 433  -8812.68
 434  -8664.185
 435  -6872.693
 436  -6496.174
 437  -6293.038
 438  -5104.779
 439  -5722.719
 440  -5909.655
 441  -7869.642
 442  -5099.525
 443  -3778.554
 444  -5332.902
 445  -5948.505
 446  -7838.734
 447  -10118.29
 448  -10089.73
 449  -10113.33
 450  -10234.42
 451  -10161.91
 452  -10684.99
 453  -11189.63
 454  -10415.04
 455  -9574.734
 456  -10226.56
 457  -9475.12
 458  -9450.426
 459  -9198.716
 460  -8937.158
 461  -7790.061
 462  -7219.844
 463  -6182.341
 464  -5966.156
 465  -6881.374
 466  -6903.733
 467  -8075.631
 468  -6997.2
 469  -6575.756
 470  -5304.625
 471  -5786.118
 472  -5786.177
 473  -4344.018
 474  -4620.637
 475  -6283.546
 476  -7422.535
 477  -9417.643
 478  -6768.419
 479  -5655.983
 480  -3899.668
 481  885.4686
 482  2447.734
 483  4618.396
 484  3157.078
 485  348.6207
 486  -3197.68
 487  -10309.2
 488  -3421.93
 489  120.7071
 490  1661.803
 491  1136.646
 492  -1830.548
 493  -5239.371
 494  -10187.34
 495  -9706.303
 496  -10482.46
 497  -10571
 498  -9936.28
 499  -9988.76
 500  -9621.075
 501  -9357.056
 502  -8447.742
 503  -8534.031
 504  -7288.274
 505  -5159.965
 506  -3870.537
 507  -4657.977
 508  -3765.281
 509  -4619.432
 510  -6025.001
 511  -1267.215
