# Input file       =  1199997843.109079-PSRB0329-2ms-sampling-dd.dat
# Candidate        =  PSR_0332+5434
# Telescope        =  AR
# Epoch_topo       =  58132.864144781008
# Epoch_bary       =  N/A
# T_sample         =  0.002
# Data Folded      =  7340032
# Data Avg         =  -8.57897675588733e-09
# Data StdDev      =  501.158463677055 
# Profile Bins     =  512
# Profile Avg      =  -0.144051804623897
# Profile StdDev   =  60005.2245619691 
# Reduced chi-sqr  =  0.992
# Prob(Noise)      <  0.542   (~0.0 sigma)
# P_topo (ms)      =  714.566833542897  +/- 0.000347
# P'_topo (s/s)    =  -0                +/- 1.83e-10
# P''_topo (s/s^2) =  0                 +/- 8.07e-14
# P_bary (ms)      =  N/A
# P'_bary (s/s)    =  N/A
# P''_bary (s/s^2) =  N/A
# P_orb (s)        =  N/A
# asin(i)/c (s)    =  N/A
# eccentricity     =  N/A
# w (rad)          =  N/A
# T_peri           =  N/A
######################################################
   0  -5177.784
   1  -17579.63
   2  -58593.2
   3  -59114.35
   4  -57452.92
   5  -57499.88
   6  -47635.56
   7  -38174.7
   8  -34842.93
   9  -20173.27
  10  -4302.073
  11  8617.871
  12  -4512.23
  13  7733.464
  14  10923.75
  15  11791.27
  16  35462.94
  17  63093.87
  18  65475.75
  19  19488.72
  20  7952.059
  21  -2362.884
  22  3752.159
  23  10157.06
  24  17101.54
  25  5959.13
  26  -14413.29
  27  -24889.28
  28  -14710.03
  29  -4791.921
  30  -473.4646
  31  6879.005
  32  -13875.8
  33  -5331.258
  34  -8498.046
  35  18089.62
  36  49909.33
  37  44974.17
  38  56313.05
  39  36558.65
  40  27753.79
  41  27265.89
  42  -27818.51
  43  -13062.53
  44  2243.176
  45  30139.92
  46  36932.51
  47  20638.37
  48  2065.568
  49  -29696.2
  50  -59265.08
  51  -23348.78
  52  26691.95
  53  80917.98
  54  93288.05
  55  120392.8
  56  87520.64
  57  -1161.489
  58  16512.38
  59  59431.93
  60  128616.3
  61  128866.6
  62  150493.7
  63  101950.3
  64  8618.194
  65  -17710.75
  66  -39837.13
  67  -56360.11
  68  -56112.69
  69  -53785.66
  70  -47109.34
  71  -30533.83
  72  -23547.45
  73  -11616.41
  74  -3445.057
  75  -16019.06
  76  -5657.825
  77  5908.883
  78  37167.46
  79  1697.61
  80  22508.78
  81  36657.09
  82  35773.87
  83  33234.91
  84  21755.66
  85  -1723.853
  86  -37649.91
  87  -44558.71
  88  -45998.32
  89  -57322.68
  90  -56780.58
  91  -53086.83
  92  -52408.22
  93  -44684.12
  94  -44878.73
  95  -48723.62
  96  -57930.88
  97  -44456.96
  98  -34604.87
  99  -25643.91
 100  -26764.08
 101  -35615.4
 102  -50084.85
 103  -52894.95
 104  -50025.77
 105  -47501.17
 106  -48669.84
 107  -49681.09
 108  -45360.17
 109  -24132.53
 110  -11774.42
 111  6605.603
 112  25693.64
 113  33359.91
 114  18953
 115  40756.66
 116  91399.05
 117  69230.69
 118  63854.29
 119  64484.68
 120  52577.36
 121  26338.53
 122  18657.02
 123  5373.453
 124  -24854.89
 125  -30735.51
 126  -30226.01
 127  -43196.5
 128  -58918.07
 129  -56644.39
 130  -25254.6
 131  -13985.05
 132  -9607.756
 133  257.7979
 134  -12096.02
 135  -16378.97
 136  -28119.74
 137  -6218.023
 138  -5933.185
 139  5941.558
 140  29150.85
 141  42908.94
 142  29551.19
 143  50190.31
 144  45617.95
 145  35033.66
 146  16065.95
 147  -25882.76
 148  -50977.99
 149  -3146.773
 150  28027.11
 151  42634.78
 152  46470.19
 153  16610.85
 154  -18702.72
 155  -54378.91
 156  -45644.69
 157  -38958.56
 158  -39306.82
 159  -37123.54
 160  -43229.66
 161  -60213.29
 162  -57092.95
 163  -47376.26
 164  -45738.43
 165  -43588.19
 166  -42900.71
 167  -43275.69
 168  -32393.97
 169  -23703.67
 170  -16478.8
 171  -11078.14
 172  -18302.52
 173  -37685.95
 174  16617.6
 175  56029.95
 176  79744.28
 177  85769.51
 178  63332.89
 179  35521.04
 180  20077.75
 181  36960.19
 182  50773.08
 183  18878.33
 184  -1276.844
 185  -20488.15
 186  -48458.2
 187  -21834.76
 188  -12660.14
 189  -10326.01
 190  -7932.685
 191  -20731.68
 192  -32364.16
 193  -49606.66
 194  -49772.66
 195  -42996.57
 196  -34221.36
 197  -29969.67
 198  -37781.39
 199  -34776.63
 200  -47070.26
 201  -25150.62
 202  -12049.99
 203  7555.46
 204  16514.1
 205  4160.638
 206  -17217.96
 207  -18451.73
 208  -13125.84
 209  -13761.04
 210  -23982.06
 211  -41088.34
 212  -48648.69
 213  -43829.32
 214  -33776.88
 215  -31348.72
 216  -32058.98
 217  -33270.54
 218  -19888.12
 219  -10537.76
 220  10149.35
 221  10106.98
 222  4916.131
 223  -23895.97
 224  -1847.307
 225  2880.606
 226  12588.81
 227  -5323.226
 228  -19975.62
 229  -31574.67
 230  -26015.08
 231  -10700.12
 232  5496.819
 233  14586.3
 234  -2527.663
 235  1384.99
 236  1181.016
 237  61546.86
 238  81148.07
 239  74423.95
 240  34264.84
 241  2336.65
 242  -1283.634
 243  14462.89
 244  1045.806
 245  -10168.04
 246  -20792.66
 247  -54536.89
 248  -52626.56
 249  -49970.64
 250  -44588.12
 251  -42328.1
 252  -43765.96
 253  -40333.44
 254  -46883.96
 255  -48183.8
 256  -50009.89
 257  -10076.45
 258  3383.622
 259  12623.78
 260  9527.132
 261  -28668.95
 262  -51304.96
 263  -36758.68
 264  -20269.15
 265  -1280.432
 266  -2662.604
 267  -14075.15
 268  -18140.64
 269  -54863.54
 270  -21635.54
 271  -3687.056
 272  21087.5
 273  19563.99
 274  13392.82
 275  -17526.96
 276  -47816.4
 277  -55872.61
 278  -56763.2
 279  -40900.55
 280  -23148.92
 281  -12928.27
 282  20186
 283  33088.48
 284  33839.1
 285  37929.43
 286  27476.83
 287  47972.31
 288  49792.09
 289  106144.3
 290  159114.6
 291  149056.7
 292  110586.8
 293  41828.84
 294  -18302.64
 295  18981.92
 296  35216.08
 297  57426.84
 298  42767.54
 299  4107.816
 300  -20570.04
 301  -3188.494
 302  13476.05
 303  28875.42
 304  74299.97
 305  45620.84
 306  23810.23
 307  1361.34
 308  -18345.68
 309  -10927.52
 310  -5247.09
 311  7502.27
 312  -7954.666
 313  -17205.51
 314  -32337.54
 315  -43334.34
 316  -48181.83
 317  -52555.55
 318  -57655.48
 319  -57787.02
 320  -61015.84
 321  -61052.98
 322  -60998.71
 323  -63290.45
 324  -60179.88
 325  -59299.56
 326  -57753.69
 327  -256.255
 328  6077.292
 329  11398.19
 330  41025.68
 331  14309.04
 332  5490.434
 333  -792.5043
 334  64177.7
 335  66648.27
 336  50193.45
 337  80072.73
 338  75709.98
 339  78801.92
 340  30622.45
 341  52049.01
 342  96622.79
 343  93339.55
 344  104883.8
 345  118312.1
 346  98648.29
 347  55558.91
 348  62295.16
 349  49264.1
 350  15202.01
 351  2076.687
 352  -11151.5
 353  -27258.23
 354  -23224.12
 355  -22162.18
 356  -14711.14
 357  -5921.608
 358  3924.54
 359  -4295.858
 360  -18310.94
 361  -6799.39
 362  -19418.29
 363  -9265.767
 364  8205.678
 365  -7258.062
 366  -20721.05
 367  -33813.88
 368  -53895.39
 369  -58975.69
 370  -60334.23
 371  -57824.9
 372  -53306.77
 373  -31314.03
 374  -20285.96
 375  -16142.21
 376  -9273.116
 377  -30225.66
 378  -8215.153
 379  651.4913
 380  48673.78
 381  49248.52
 382  28768.1
 383  -12618.2
 384  -10283.62
 385  -3275.811
 386  10955.31
 387  8274.756
 388  -9541.584
 389  -22727.64
 390  -45977.71
 391  -48803.76
 392  -51224.68
 393  -56622.26
 394  -56591.79
 395  -58214.41
 396  -60502.2
 397  -58140.68
 398  -58574.7
 399  -62002.64
 400  -47556.66
 401  -37297.11
 402  -12162.75
 403  -12215.65
 404  -20124.28
 405  -34511.45
 406  -58545
 407  -39403
 408  -6773.468
 409  7352.279
 410  22806.52
 411  31769.1
 412  -11885.99
 413  -8055.585
 414  5904.708
 415  64741.48
 416  91430.37
 417  109931.9
 418  122886.9
 419  46598.62
 420  34528.27
 421  12780.01
 422  10331.34
 423  28571.14
 424  22866.21
 425  17326.87
 426  12016.02
 427  4430.538
 428  27388.3
 429  45698.32
 430  15386.99
 431  -3696.866
 432  4253.511
 433  55199.99
 434  69001.63
 435  109496.8
 436  87598.42
 437  27815.13
 438  -20738.21
 439  -19272.28
 440  -28505.07
 441  -20132.97
 442  -4733.875
 443  983.038
 444  3802.001
 445  36688.18
 446  82827.95
 447  85569.28
 448  78502.18
 449  79022.03
 450  52770.74
 451  44190.85
 452  79949.66
 453  104082.6
 454  58108.07
 455  30885.33
 456  9789.085
 457  52512.05
 458  55671.46
 459  72031
 460  62074.44
 461  19034.51
 462  484.8289
 463  -16853.53
 464  -1172.879
 465  8518.925
 466  -34499
 467  -12884.5
 468  13527.83
 469  71602.84
 470  97423.64
 471  87345.55
 472  54590.92
 473  -12940.47
 474  -29335.47
 475  -43588.08
 476  -27311.43
 477  645.651
 478  13438.68
 479  15832.1
 480  -7873.129
 481  -29589.73
 482  -45436.52
 483  -19032.49
 484  -14537.94
 485  -9876.953
 486  -8426.634
 487  -55342.02
 488  -48332.13
 489  -28198.56
 490  16511.15
 491  19549.08
 492  15831.75
 493  -336.8908
 494  -49660.25
 495  -36858.1
 496  -35606.09
 497  -19228.1
 498  -9205.752
 499  -12494.38
 500  -41581.99
 501  -48270.08
 502  -34073.62
 503  -29032.28
 504  -24136.53
 505  -23700.64
 506  -28762.33
 507  -44381.39
 508  -40136.76
 509  -24234.15
 510  4887.669
 511  5075.485
