# Input file       =  1199967776.101105_cleaned.dat
# Candidate        =  PSR_0332+5434
# Telescope        =  AR
# Epoch_topo       =  58132.516147003531
# Epoch_bary       =  N/A
# T_sample         =  0.002
# Data Folded      =  7405568
# Data Avg         =  0.0194517789624274
# Data StdDev      =  1.00015390933218 
# Profile Bins     =  512
# Profile Avg      =  281.201032130563 
# Profile StdDev   =  120.284881143831 
# Reduced chi-sqr  =  1.603
# Prob(Noise)      <  1.19e-16   (~8.2 sigma)
# P_topo (ms)      =  714.566228165537  +/- 0.000209
# P'_topo (s/s)    =  -0                +/- 1.09e-10
# P''_topo (s/s^2) =  0                 +/- 4.77e-14
# P_bary (ms)      =  N/A
# P'_bary (s/s)    =  N/A
# P''_bary (s/s^2) =  N/A
# P_orb (s)        =  N/A
# asin(i)/c (s)    =  N/A
# eccentricity     =  N/A
# w (rad)          =  N/A
# T_peri           =  N/A
######################################################
   0  1118.826
   1  1034.016
   2  668.8071
   3  379.4024
   4  350.0515
   5  347.3056
   6  293.8451
   7  269.031
   8  150.497
   9  237.0226
  10  127.7504
  11  221.3355
  12  296.5192
  13  171.5979
  14  211.2644
  15  269.4699
  16  301.9585
  17  307.5598
  18  304.7735
  19  235.9103
  20  298.0246
  21  314.2033
  22  349.7814
  23  292.3755
  24  161.7487
  25  312.9051
  26  303.0197
  27  324.9952
  28  235.3535
  29  233.9033
  30  345.7186
  31  175.2447
  32  109.9841
  33  281.8922
  34  343.4991
  35  243.9181
  36  262.7038
  37  173.4145
  38  157.9405
  39  199.0061
  40  195.6477
  41  241.5901
  42  304.6585
  43  297.5357
  44  183.3089
  45  173.4538
  46  380.477
  47  428.6738
  48  379.1553
  49  237.2894
  50  173.4717
  51  189.0198
  52  287.9355
  53  293.004
  54  332.8333
  55  340.2971
  56  220.9659
  57  167.6742
  58  220.6113
  59  447.1537
  60  432.5609
  61  270.9175
  62  283.7361
  63  362.4425
  64  365.6323
  65  263.4909
  66  252.0347
  67  229.3945
  68  270.3287
  69  234.9532
  70  226.4413
  71  264.8646
  72  351.6095
  73  443.0229
  74  265.5571
  75  299.5908
  76  376.1295
  77  347.8649
  78  324.6158
  79  314.001
  80  245.9451
  81  189.7168
  82  202.5793
  83  308.0562
  84  272.0094
  85  203.7649
  86  238.6656
  87  302.5551
  88  123.3738
  89  145.4249
  90  302.4569
  91  399.9218
  92  439.1076
  93  403.4806
  94  366.3464
  95  413.6742
  96  290.6584
  97  238.2243
  98  313.6014
  99  377.6793
 100  384.8803
 101  381.7365
 102  291.4873
 103  390.2772
 104  351.5049
 105  393.3521
 106  325.0954
 107  296.7689
 108  338.6174
 109  275.0409
 110  215.6526
 111  241.223
 112  151.9853
 113  188.4658
 114  265.7735
 115  357.512
 116  188.9254
 117  158.2354
 118  129.7867
 119  42.50356
 120  152.8616
 121  88.13177
 122  229.3729
 123  243.862
 124  192.0308
 125  244.0941
 126  410.6671
 127  471.6882
 128  373.4091
 129  333.9346
 130  248.4494
 131  253.0537
 132  307.6754
 133  370.0696
 134  307.1312
 135  254.0298
 136  315.2801
 137  328.4232
 138  239.436
 139  349.5176
 140  216.8778
 141  121.5366
 142  140.7897
 143  353.8642
 144  358.4557
 145  315.4006
 146  296.8479
 147  300.0722
 148  252.2539
 149  264.1545
 150  237.1489
 151  168.0978
 152  218.0574
 153  333.7534
 154  326.8719
 155  324.977
 156  344.0645
 157  310.223
 158  315.5753
 159  391.9435
 160  373.4768
 161  332.8942
 162  229.4573
 163  200.768
 164  269.2281
 165  252.4211
 166  211.16
 167  280.4982
 168  287.3744
 169  342.3423
 170  252.0086
 171  164.4375
 172  188.1844
 173  273.7591
 174  307.8905
 175  226.3225
 176  309.3462
 177  309.8961
 178  446.5058
 179  407.4429
 180  304.7172
 181  154.2915
 182  231.7143
 183  454.9154
 184  263.6661
 185  325.2629
 186  186.1974
 187  214.2574
 188  322.1852
 189  180.3576
 190  205.519
 191  200.442
 192  263.4756
 193  303.5424
 194  223.6615
 195  175.2764
 196  127.5281
 197  144.1669
 198  228.153
 199  323.8535
 200  410.4446
 201  385.0296
 202  323.5315
 203  292.993
 204  287.8542
 205  358.2429
 206  336.881
 207  158.7333
 208  194.727
 209  209.5371
 210  400.374
 211  397.565
 212  291.5883
 213  369.5723
 214  328.2202
 215  336.3306
 216  227.2885
 217  152.0656
 218  216.5544
 219  377.4854
 220  324.2512
 221  359.1985
 222  428.2924
 223  320.9023
 224  248.6091
 225  104.8994
 226  152.499
 227  153.9063
 228  301.8111
 229  252.4327
 230  287.0799
 231  307.053
 232  317.8696
 233  238.2264
 234  206.0339
 235  211.7602
 236  249.7827
 237  317.7344
 238  285.4985
 239  244.3264
 240  392.6022
 241  484.7668
 242  377.5821
 243  314.0849
 244  178.2822
 245  260.587
 246  341.2539
 247  398.191
 248  339.0117
 249  291.0442
 250  208.4046
 251  335.7849
 252  289.2295
 253  329.5417
 254  354.3578
 255  230.1025
 256  187.3095
 257  269.0732
 258  360.2583
 259  389.2748
 260  364.792
 261  292.5533
 262  244.665
 263  236.7155
 264  356.3084
 265  364.2768
 266  377.8281
 267  323.5623
 268  289.2314
 269  254.8121
 270  271.3783
 271  292.2552
 272  274.7492
 273  372.91
 274  303.3594
 275  206.0962
 276  328.7178
 277  425.5269
 278  272.9894
 279  182.7686
 280  331.4388
 281  412.8725
 282  342.9522
 283  387.2686
 284  381.9353
 285  237.9362
 286  410.7812
 287  384.8397
 288  304.3968
 289  304.9413
 290  233.5445
 291  231.8084
 292  238.7411
 293  250.8906
 294  375.6212
 295  339.2553
 296  304.3056
 297  243.5621
 298  58.10002
 299  101.9897
 300  148.4248
 301  214.0556
 302  337.7079
 303  335.6348
 304  313.983
 305  405.205
 306  343.4872
 307  171.1332
 308  227.5346
 309  209.3643
 310  355.4954
 311  406.6514
 312  252.3919
 313  249.9832
 314  287.0951
 315  302.0587
 316  431.0526
 317  511.5521
 318  504.6982
 319  393.228
 320  332.5352
 321  294.9056
 322  292.1908
 323  273.8856
 324  343.3008
 325  317.1646
 326  140.7063
 327  132.9432
 328  244.5516
 329  287.9214
 330  209.3904
 331  294.3401
 332  363.1427
 333  270.6248
 334  259.7733
 335  230.4557
 336  100.0765
 337  276.0869
 338  263.1018
 339  292.6527
 340  238.0619
 341  210.6142
 342  193.3215
 343  202.2811
 344  226.5395
 345  210.2832
 346  157.4592
 347  342.1495
 348  391.3101
 349  330.6637
 350  272.4046
 351  187.3738
 352  239.0325
 353  362.4651
 354  214.3931
 355  218.7399
 356  135.6212
 357  221.0119
 358  307.8463
 359  344.3318
 360  485.9517
 361  313.078
 362  335.1026
 363  246.9253
 364  126.1671
 365  95.78535
 366  301.4998
 367  432.8994
 368  331.7314
 369  332.7691
 370  314.9815
 371  167.7643
 372  277.1795
 373  290.2821
 374  238.9545
 375  213.1996
 376  317.475
 377  231.2291
 378  288.8959
 379  290.2793
 380  216.3093
 381  222.8347
 382  209.1807
 383  199.409
 384  33.28475
 385  110.8446
 386  356.0634
 387  373.7199
 388  187.0975
 389  192.2476
 390  221.1779
 391  123.8705
 392  244.353
 393  310.3296
 394  411.2116
 395  141.9773
 396  168.6326
 397  261.6592
 398  150.2354
 399  224.0135
 400  327.4837
 401  369.226
 402  291.4355
 403  132.9916
 404  308.0943
 405  267.953
 406  250.7396
 407  178.7129
 408  7.479293
 409  178.2936
 410  234.4294
 411  180.4058
 412  158.607
 413  48.12144
 414  321.0354
 415  328.9836
 416  293.9087
 417  165.9277
 418  150.791
 419  156.9992
 420  137.457
 421  192.1576
 422  195.0412
 423  301.9766
 424  222.3304
 425  326.6518
 426  350.0083
 427  218.5473
 428  171.4712
 429  214.6556
 430  382.5872
 431  199.7975
 432  224.0816
 433  240.9077
 434  234.5674
 435  240.498
 436  175.4695
 437  192.0716
 438  152.8517
 439  160.8513
 440  264.4946
 441  296.0348
 442  270.9445
 443  449.0716
 444  327.6542
 445  186.8808
 446  173.8477
 447  220.1125
 448  247.9107
 449  240.9896
 450  249.2967
 451  226.4802
 452  315.5732
 453  225.0059
 454  192.841
 455  295.4064
 456  293.9283
 457  284.723
 458  186.302
 459  234.9649
 460  206.1518
 461  183.3992
 462  257.3488
 463  298.4395
 464  225.1403
 465  236.0769
 466  259.4675
 467  340.9815
 468  381.9912
 469  391.8922
 470  284.2782
 471  262.9464
 472  300.0356
 473  298.5982
 474  279.0712
 475  123.2155
 476  181.6552
 477  247.2866
 478  382.508
 479  361.9503
 480  349.9559
 481  147.7126
 482  235.9096
 483  254.1038
 484  114.1046
 485  95.44163
 486  98.28355
 487  199.0423
 488  265.9257
 489  177.9159
 490  83.55048
 491  266.5339
 492  373.7377
 493  361.6812
 494  314.4988
 495  318.0799
 496  247.6279
 497  212.3765
 498  359.373
 499  434.5204
 500  376.8274
 501  306.9563
 502  414.3738
 503  288.2857
 504  353.8551
 505  375.8988
 506  466.9841
 507  515.1176
 508  542.6827
 509  764.2773
 510  854.4435
 511  967.4875
