# Input file       =  1199623241.089426_cleaned.dat
# Candidate        =  PSR_0332+5434
# Telescope        =  AR
# Epoch_topo       =  58128.528473257247
# Epoch_bary       =  N/A
# T_sample         =  0.002
# Data Folded      =  7143424
# Data Avg         =  0.0339090090505623
# Data StdDev      =  1.0006106479969  
# Profile Bins     =  512
# Profile Avg      =  473.160418706611 
# Profile StdDev   =  118.190713358878 
# Reduced chi-sqr  =  1.620
# Prob(Noise)      <  2.09e-17   (~8.4 sigma)
# P_topo (ms)      =  714.56336054723   +/- 0.000209
# P'_topo (s/s)    =  -0                +/- 1.13e-10
# P''_topo (s/s^2) =  0                 +/- 5.13e-14
# P_bary (ms)      =  N/A
# P'_bary (s/s)    =  N/A
# P''_bary (s/s^2) =  N/A
# P_orb (s)        =  N/A
# asin(i)/c (s)    =  N/A
# eccentricity     =  N/A
# w (rad)          =  N/A
# T_peri           =  N/A
######################################################
   0  1365.587
   1  1155.669
   2  823.7145
   3  839.6907
   4  644.8829
   5  620.0437
   6  531.1162
   7  519.8754
   8  471.2874
   9  409.5057
  10  513.075
  11  517.2136
  12  562.6781
  13  638.4279
  14  610.0153
  15  628.205
  16  616.3841
  17  626.1608
  18  557.7372
  19  497.0156
  20  398.0172
  21  566.7036
  22  404.1181
  23  313.925
  24  343.7789
  25  357.6382
  26  475.1518
  27  494.6364
  28  487.7745
  29  447.1981
  30  476.2488
  31  458.4738
  32  414.3148
  33  487.8698
  34  517.3522
  35  495.716
  36  461.7921
  37  480.5589
  38  542.9258
  39  491.191
  40  337.3274
  41  457.777
  42  526.533
  43  481.9862
  44  530.9998
  45  528.304
  46  478.8004
  47  410.9478
  48  420.9007
  49  368.8461
  50  356.7007
  51  403.6157
  52  435.5657
  53  335.9032
  54  369.6508
  55  489.7773
  56  511.7816
  57  517.2713
  58  472.0486
  59  520.4855
  60  371.6039
  61  396.7287
  62  434.5232
  63  491.5673
  64  498.8026
  65  435.4199
  66  542.0152
  67  388.0617
  68  284.5697
  69  320.2753
  70  360.9973
  71  438.6648
  72  536.2579
  73  382.1867
  74  377.9899
  75  398.5181
  76  411.0659
  77  411.9922
  78  470.0605
  79  480.0423
  80  432.1073
  81  420.5964
  82  331.5493
  83  392.8913
  84  560.2941
  85  507.83
  86  416.4748
  87  361.2417
  88  427.7386
  89  438.1156
  90  503.3741
  91  509.6732
  92  479.5429
  93  420.2126
  94  535.0619
  95  569.8307
  96  432.3891
  97  349.2544
  98  572.6238
  99  527.4337
 100  481.6568
 101  436.5349
 102  426.846
 103  345.7488
 104  295.2867
 105  377.6075
 106  393.5499
 107  512.7437
 108  455.016
 109  458.0558
 110  444.8295
 111  503.1347
 112  475.1204
 113  550.3091
 114  474.2656
 115  333.7964
 116  517.675
 117  473.5978
 118  459.7441
 119  475.9614
 120  526.4723
 121  515.3976
 122  450.5374
 123  441.2165
 124  506.6141
 125  494.0087
 126  479.047
 127  464.0471
 128  416.9591
 129  520.1006
 130  528.7404
 131  437.3174
 132  518.8308
 133  556.5276
 134  483.3039
 135  398.6196
 136  354.3327
 137  526.9781
 138  438.3726
 139  353.606
 140  432.178
 141  383.4354
 142  305.1972
 143  333.6722
 144  418.5651
 145  486.4932
 146  531.0709
 147  458.8043
 148  516.5678
 149  493.555
 150  535.9352
 151  565.7101
 152  667.0475
 153  432.9403
 154  378.6746
 155  460.4505
 156  469.2665
 157  504.0826
 158  450.0356
 159  358.562
 160  409.4276
 161  557.4355
 162  621.2527
 163  506.0497
 164  464.3706
 165  482.6192
 166  510.142
 167  541.8255
 168  509.2959
 169  480.8489
 170  493.5633
 171  538.8825
 172  459.6234
 173  363.8626
 174  415.8968
 175  645.3063
 176  477.593
 177  403.813
 178  345.0333
 179  542.7555
 180  612.2589
 181  540.8426
 182  463.5599
 183  514.8334
 184  458.1699
 185  402.6646
 186  419.2493
 187  337.3675
 188  418.1767
 189  592.4807
 190  521.1168
 191  450.5559
 192  423.8118
 193  461.6029
 194  465.6492
 195  508.4959
 196  479.6795
 197  416.7327
 198  556.3386
 199  426.9771
 200  441.7016
 201  483.5034
 202  442.5177
 203  465.456
 204  679.3828
 205  420.8847
 206  419.7623
 207  494.1484
 208  538.7222
 209  547.3359
 210  514.6565
 211  485.5453
 212  506.4054
 213  500.5322
 214  545.1943
 215  610.7183
 216  712.1459
 217  481.8917
 218  499.8138
 219  489.1719
 220  485.0315
 221  441.8904
 222  454.7
 223  407.0269
 224  503.2226
 225  452.3657
 226  489.2837
 227  382.0854
 228  281.3592
 229  373.9048
 230  367.6327
 231  454.9074
 232  609.9503
 233  496.9318
 234  492.9381
 235  573.2355
 236  523.6823
 237  566.5916
 238  643.7113
 239  559.0476
 240  590.147
 241  437.1872
 242  590.1832
 243  710.5019
 244  749.3996
 245  469.047
 246  358.9499
 247  420.2362
 248  446.9154
 249  488.4618
 250  499.0161
 251  489.4008
 252  422.1443
 253  396.5674
 254  473.495
 255  545.6657
 256  584.9231
 257  383.9946
 258  439.5852
 259  583.9094
 260  566.6622
 261  526.8859
 262  564.0512
 263  423.6191
 264  361.8536
 265  373.6841
 266  447.238
 267  357.9861
 268  430.3924
 269  460.7564
 270  411.3228
 271  433.5311
 272  435.7151
 273  399.0678
 274  466.1914
 275  525.1434
 276  520.4791
 277  461.8147
 278  543.2533
 279  529.0183
 280  538.1076
 281  445.7422
 282  315.8909
 283  334.0456
 284  335.989
 285  400.84
 286  545.8349
 287  501.3604
 288  371.7366
 289  338.3767
 290  500.0624
 291  451.556
 292  483.9267
 293  451.3265
 294  541.9198
 295  474.8817
 296  463.7648
 297  586.1711
 298  468.626
 299  396.1111
 300  391.3244
 301  563.0208
 302  645.7468
 303  467.5791
 304  390.581
 305  353.8836
 306  468.6753
 307  422.7492
 308  400.0955
 309  455.7368
 310  514.0777
 311  470.8364
 312  470.5392
 313  444.8474
 314  415.7481
 315  487.7089
 316  583.2426
 317  597.6002
 318  513.9887
 319  460.0922
 320  420.9988
 321  395.5222
 322  406.0506
 323  325.1639
 324  325.4899
 325  455.6689
 326  521.9101
 327  462.988
 328  370.6343
 329  502.0968
 330  557.0881
 331  488.7018
 332  535.7014
 333  505.2936
 334  471.9612
 335  359.0614
 336  416.4211
 337  511.9524
 338  546.2384
 339  398.8575
 340  349.6183
 341  292.066
 342  349.4786
 343  356.5147
 344  378.6469
 345  417.0004
 346  416.6783
 347  375.6322
 348  495.702
 349  454.9286
 350  458.686
 351  571.5076
 352  487.6566
 353  451.2115
 354  498.1754
 355  415.3322
 356  487.314
 357  500.2616
 358  579.3315
 359  620.2269
 360  648.8029
 361  543.4493
 362  412.5734
 363  459.6803
 364  442.3514
 365  409.248
 366  534.9578
 367  442.9824
 368  490.6017
 369  354.871
 370  369.1492
 371  408.6561
 372  447.5889
 373  311.7169
 374  253.3685
 375  467.0158
 376  446.3529
 377  432.9009
 378  448.1459
 379  486.7909
 380  294.7453
 381  269.8072
 382  413.293
 383  437.1456
 384  410.6727
 385  527.525
 386  566.3535
 387  446.5855
 388  401.0586
 389  378.5822
 390  499.9735
 391  505.2081
 392  568.9269
 393  433.5252
 394  449.6495
 395  387.0147
 396  373.3086
 397  427.7434
 398  465.0673
 399  489.8248
 400  530.8901
 401  583.3071
 402  654.5925
 403  585.1773
 404  534.4041
 405  431.4123
 406  500.5501
 407  517.7906
 408  338.2357
 409  252.5638
 410  405.3916
 411  439.745
 412  434.1447
 413  420.7581
 414  412.0662
 415  416.2832
 416  457.782
 417  485.4227
 418  501.8058
 419  410.9334
 420  456.2464
 421  629.1774
 422  587.2591
 423  452.0672
 424  409.3255
 425  518.7162
 426  441.4768
 427  343.2357
 428  406.8246
 429  448.2402
 430  496.878
 431  438.3664
 432  355.045
 433  398.3268
 434  464.0365
 435  521.4682
 436  295.4594
 437  277.7816
 438  390.6784
 439  355.1634
 440  409.2162
 441  469.5849
 442  544.249
 443  573.7548
 444  477.119
 445  625.0295
 446  611.8395
 447  500.7276
 448  447.2392
 449  384.5596
 450  602.551
 451  478.7793
 452  391.9072
 453  498.8358
 454  437.4824
 455  381.0811
 456  489.3761
 457  489.5232
 458  403.6474
 459  444.3838
 460  494.7181
 461  508.4413
 462  499.4562
 463  416.8577
 464  426.2049
 465  601.2359
 466  602.3807
 467  493.09
 468  331.677
 469  366.4324
 470  375.1593
 471  584.5925
 472  554.3052
 473  396.5288
 474  489.5093
 475  448.508
 476  395.5265
 477  367.4415
 478  473.1311
 479  538.2449
 480  517.6682
 481  525.5267
 482  469.975
 483  405.6474
 484  419.063
 485  467.9344
 486  293.8034
 487  277.8367
 488  412.3187
 489  426.0675
 490  305.3076
 491  274.5543
 492  395.6748
 493  407.6454
 494  548.3968
 495  636.528
 496  569.0649
 497  540.139
 498  349.2322
 499  433.7052
 500  547.5967
 501  475.4868
 502  481.623
 503  515.0292
 504  356.5076
 505  473.8141
 506  502.4093
 507  511.4037
 508  781.3163
 509  967.2662
 510  1036.583
 511  1233.552
