# Input file       =  1199810099.108133_cleaned.dat
# Candidate        =  PSR_0332+5434
# Telescope        =  AR
# Epoch_topo       =  58130.691181807095
# Epoch_bary       =  N/A
# T_sample         =  0.002
# Data Folded      =  7340032
# Data Avg         =  0.117179072778332
# Data StdDev      =  1.00023187653878 
# Profile Bins     =  512
# Profile Avg      =  1679.91463622939 
# Profile StdDev   =  119.760799658819 
# Reduced chi-sqr  =  0.900
# Prob(Noise)      <  0.948   (~0.0 sigma)
# P_topo (ms)      =  714.564958873735  +/- 3.85e-05
# P'_topo (s/s)    =  -0                +/- 2.03e-11
# P''_topo (s/s^2) =  0                 +/- 8.97e-15
# P_bary (ms)      =  N/A
# P'_bary (s/s)    =  N/A
# P''_bary (s/s^2) =  N/A
# P_orb (s)        =  N/A
# asin(i)/c (s)    =  N/A
# eccentricity     =  N/A
# w (rad)          =  N/A
# T_peri           =  N/A
######################################################
   0  2141.573
   1  2079.486
   2  1973.908
   3  1919.295
   4  1871.116
   5  1733.194
   6  1667.181
   7  1615.498
   8  1678.426
   9  1644.708
  10  1737.269
  11  1772.857
  12  1695.012
  13  1747.288
  14  1766.156
  15  1677.635
  16  1633.641
  17  1713.337
  18  1628.394
  19  1596.064
  20  1536.01
  21  1649.884
  22  1679.601
  23  1687.413
  24  1705.358
  25  1785.034
  26  1677.66
  27  1568.269
  28  1621.354
  29  1609.323
  30  1517.823
  31  1524.162
  32  1543.306
  33  1573.659
  34  1487.328
  35  1786.431
  36  1758.224
  37  1605.149
  38  1607.123
  39  1775.666
  40  1682.388
  41  1617.599
  42  1725.539
  43  1755.427
  44  1706.175
  45  1696.88
  46  1610.951
  47  1558.276
  48  1539.27
  49  1563.544
  50  1616.359
  51  1593.039
  52  1630.904
  53  1650.482
  54  1588.321
  55  1555.158
  56  1555.531
  57  1601.436
  58  1595.8
  59  1638.503
  60  1728.238
  61  1653.4
  62  1636.709
  63  1660.009
  64  1823.356
  65  1800.862
  66  1655.93
  67  1608.943
  68  1663.348
  69  1670.364
  70  1567.853
  71  1571.174
  72  1607.924
  73  1562.496
  74  1727.686
  75  1770.203
  76  1624.851
  77  1582.039
  78  1659.766
  79  1687.809
  80  1626.498
  81  1643.469
  82  1730.511
  83  1797.541
  84  1841.098
  85  1839.666
  86  1795.259
  87  1688.327
  88  1799.793
  89  1840.683
  90  1812.876
  91  1787.612
  92  1725.504
  93  1738.116
  94  1649.103
  95  1609.203
  96  1718.978
  97  1674.851
  98  1686.781
  99  1618.088
 100  1660.965
 101  1736.544
 102  1665.299
 103  1686.47
 104  1641.149
 105  1559.963
 106  1596.069
 107  1701.417
 108  1595.52
 109  1556.085
 110  1585.173
 111  1517.398
 112  1510.952
 113  1609.114
 114  1628.232
 115  1566.495
 116  1643.809
 117  1740.73
 118  1632.783
 119  1552.819
 120  1580.372
 121  1645.151
 122  1793.105
 123  1709.411
 124  1588.086
 125  1634.546
 126  1644.376
 127  1633.886
 128  1640.375
 129  1724.998
 130  1662.269
 131  1697.776
 132  1701.767
 133  1687.39
 134  1650.368
 135  1658.515
 136  1774.797
 137  1796.707
 138  1741.367
 139  1632.251
 140  1662.014
 141  1568.287
 142  1585.956
 143  1684.132
 144  1722.842
 145  1729.091
 146  1780.057
 147  1737.018
 148  1671.671
 149  1682.768
 150  1684.535
 151  1536.143
 152  1455.433
 153  1498.671
 154  1637.417
 155  1722.605
 156  1786.668
 157  1613.444
 158  1577.658
 159  1576.607
 160  1596.189
 161  1623.63
 162  1669.219
 163  1689.812
 164  1698.73
 165  1741.005
 166  1565.181
 167  1611.242
 168  1670.751
 169  1477.577
 170  1622.882
 171  1637.179
 172  1719.503
 173  1612.677
 174  1683.238
 175  1733.104
 176  1664.946
 177  1556.732
 178  1613.943
 179  1622.319
 180  1610.54
 181  1620.314
 182  1691.382
 183  1717.048
 184  1625.275
 185  1698.968
 186  1741.855
 187  1680.943
 188  1735.249
 189  1706.142
 190  1667.458
 191  1628.703
 192  1673.818
 193  1720.968
 194  1721.051
 195  1602.389
 196  1659.997
 197  1681.966
 198  1661.559
 199  1578.11
 200  1645.596
 201  1691.279
 202  1675.865
 203  1746.901
 204  1669.368
 205  1667.061
 206  1678.596
 207  1683.359
 208  1724.646
 209  1697.726
 210  1645.143
 211  1536.756
 212  1629.503
 213  1667.271
 214  1787.593
 215  1719.143
 216  1583.452
 217  1647.837
 218  1733.998
 219  1732.491
 220  1609.343
 221  1778.085
 222  1920.259
 223  1830.945
 224  1739.608
 225  1672.243
 226  1534.428
 227  1649.058
 228  1823.646
 229  1776.013
 230  1724.611
 231  1707.06
 232  1754.481
 233  1645.295
 234  1598.69
 235  1676.212
 236  1732.907
 237  1804.004
 238  1664.18
 239  1697.713
 240  1711.287
 241  1706.469
 242  1761.667
 243  1742.127
 244  1669.443
 245  1599.145
 246  1600.487
 247  1702.594
 248  1652.829
 249  1676.774
 250  1654.876
 251  1559.989
 252  1560.508
 253  1528.122
 254  1670.043
 255  1710.603
 256  1651.791
 257  1828.25
 258  1752.977
 259  1580.743
 260  1542.226
 261  1727.148
 262  1645.563
 263  1650.528
 264  1750.846
 265  1761.199
 266  1653.139
 267  1655.228
 268  1608.875
 269  1602.619
 270  1599.229
 271  1648.461
 272  1617.693
 273  1702.347
 274  1738.797
 275  1759.499
 276  1683.325
 277  1609.181
 278  1653.69
 279  1680.717
 280  1627.127
 281  1689.939
 282  1845.582
 283  1776.871
 284  1688.215
 285  1685.087
 286  1697.502
 287  1643.221
 288  1660.561
 289  1859.412
 290  1798.522
 291  1803.418
 292  1703.462
 293  1711.982
 294  1658.845
 295  1656.325
 296  1687.192
 297  1780.345
 298  1693.41
 299  1601.286
 300  1666.531
 301  1701.241
 302  1696.99
 303  1768.683
 304  1765.79
 305  1714.131
 306  1607.67
 307  1738.553
 308  1788.168
 309  1716.216
 310  1704.451
 311  1687.285
 312  1714.941
 313  1771.3
 314  1790.017
 315  1699.783
 316  1603.204
 317  1645.479
 318  1807.069
 319  1804.893
 320  1645.462
 321  1709.723
 322  1801.583
 323  1742.602
 324  1699.958
 325  1769.081
 326  1710.905
 327  1619.729
 328  1685.691
 329  1650.309
 330  1649.984
 331  1650.075
 332  1740.381
 333  1786.737
 334  1686.157
 335  1690.029
 336  1740.344
 337  1699.365
 338  1652.194
 339  1772.453
 340  1743.331
 341  1567.773
 342  1662.592
 343  1726.532
 344  1713.337
 345  1681.885
 346  1647.526
 347  1714.535
 348  1743.897
 349  1688.899
 350  1700.875
 351  1706.06
 352  1658.168
 353  1717.8
 354  1729.224
 355  1780.043
 356  1670.938
 357  1774.829
 358  1693.596
 359  1680.577
 360  1755.221
 361  1723.611
 362  1619.745
 363  1622.941
 364  1734.663
 365  1786.763
 366  1692.685
 367  1699.101
 368  1691.439
 369  1665.122
 370  1649.702
 371  1635.398
 372  1694.965
 373  1678.402
 374  1536.683
 375  1531.101
 376  1595.491
 377  1664.498
 378  1648.866
 379  1705.151
 380  1709.095
 381  1662.946
 382  1607.729
 383  1567.439
 384  1679.399
 385  1632.324
 386  1737.038
 387  1772.856
 388  1547.857
 389  1541.919
 390  1628.691
 391  1760.913
 392  1664.055
 393  1603.267
 394  1675.769
 395  1675.103
 396  1641.772
 397  1662.092
 398  1739.005
 399  1755.641
 400  1786.689
 401  1728.853
 402  1693.75
 403  1681.094
 404  1711.485
 405  1746.364
 406  1696.2
 407  1674.096
 408  1765.734
 409  1689.55
 410  1619.902
 411  1743.053
 412  1765.46
 413  1729.138
 414  1659.532
 415  1646.068
 416  1638.592
 417  1654.079
 418  1729.8
 419  1666.745
 420  1613.699
 421  1609.408
 422  1689.27
 423  1608.476
 424  1565.061
 425  1566.822
 426  1652.3
 427  1712.624
 428  1720.879
 429  1679.608
 430  1605.038
 431  1589.828
 432  1693.318
 433  1828.221
 434  1736.859
 435  1686.909
 436  1782.505
 437  1885.201
 438  1809.513
 439  1726.447
 440  1746.216
 441  1812.58
 442  1752.495
 443  1693.197
 444  1612.324
 445  1523.01
 446  1635.556
 447  1676.798
 448  1687.813
 449  1566.927
 450  1621.83
 451  1717.952
 452  1756.133
 453  1664.088
 454  1699.835
 455  1708.182
 456  1636.4
 457  1650.348
 458  1670.236
 459  1615.249
 460  1765.261
 461  1819.702
 462  1693.043
 463  1664.621
 464  1588.719
 465  1633.276
 466  1632.619
 467  1607.37
 468  1639.339
 469  1719.518
 470  1671.515
 471  1685.821
 472  1671.964
 473  1729.431
 474  1701.235
 475  1682.662
 476  1728.74
 477  1701.1
 478  1580.717
 479  1616.259
 480  1571.481
 481  1516.925
 482  1653.359
 483  1710.56
 484  1731.12
 485  1659.615
 486  1715.483
 487  1744.231
 488  1665.886
 489  1649.345
 490  1612.903
 491  1560.524
 492  1623.444
 493  1689.578
 494  1713.937
 495  1724.117
 496  1781.651
 497  1668.09
 498  1512.073
 499  1559
 500  1656.966
 501  1712.721
 502  1601.483
 503  1552.853
 504  1675.179
 505  1715.242
 506  1659.808
 507  1755.732
 508  1808.919
 509  1807.355
 510  1954.945
 511  2017.364
