# Input file       =  1199723963.108346_cleaned.dat
# Candidate        =  PSR_0332+5434
# Telescope        =  AR
# Epoch_topo       =  58129.694237365118
# Epoch_bary       =  N/A
# T_sample         =  0.002
# Data Folded      =  7340032
# Data Avg         =  0.533574340601002
# Data StdDev      =  5.74754158248703 
# Profile Bins     =  1024
# Profile Avg      =  3824.61332513292 
# Profile StdDev   =  486.610101672426 
# Reduced chi-sqr  =  0.521
# Prob(Noise)      <  1   (~0.0 sigma)
# P_topo (ms)      =  714.564238960847  +/- 3.11e-05
# P'_topo (s/s)    =  -0                +/- 1.64e-11
# P''_topo (s/s^2) =  0                 +/- 7.25e-15
# P_bary (ms)      =  N/A
# P'_bary (s/s)    =  N/A
# P''_bary (s/s^2) =  N/A
# P_orb (s)        =  N/A
# asin(i)/c (s)    =  N/A
# eccentricity     =  N/A
# w (rad)          =  N/A
# T_peri           =  N/A
######################################################
   0  4097.834
   1  3853.714
   2  3631.28
   3  3558.036
   4  3678.908
   5  3630.953
   6  3620.633
   7  3790.166
   8  3796.726
   9  3859.322
  10  3761.322
  11  3992.524
  12  4018.416
  13  4056.993
  14  3916.366
  15  4030.605
  16  4139.011
  17  4130.35
  18  3937.197
  19  3628.143
  20  3625.854
  21  3565.799
  22  3694.948
  23  3752.088
  24  3867.268
  25  3734.243
  26  3707.8
  27  3963.416
  28  4151.826
  29  4061.765
  30  3949.257
  31  4021.578
  32  4040.728
  33  3777.193
  34  3621.598
  35  3792.245
  36  3872.85
  37  3764.268
  38  3649.783
  39  3754.235
  40  3954.971
  41  4000.398
  42  3864.471
  43  3721.816
  44  3574.176
  45  3586.458
  46  3586.185
  47  3621.343
  48  3629.136
  49  3660.866
  50  3680.813
  51  3779.344
  52  3921.218
  53  4004.158
  54  3932.374
  55  3780.927
  56  3861.433
  57  3673.448
  58  3680.871
  59  3836.447
  60  3978.272
  61  3910.023
  62  3545.978
  63  3531.845
  64  3704.572
  65  3798.55
  66  3792.814
  67  3653.027
  68  3655.24
  69  3650.345
  70  3767.243
  71  3820.157
  72  3828.724
  73  3848.736
  74  3908.941
  75  3870.647
  76  3878.631
  77  4126.393
  78  4167.873
  79  4041.552
  80  3982.338
  81  3966.534
  82  3718.648
  83  3645.105
  84  3673.896
  85  3820.886
  86  3614.923
  87  3616.697
  88  3673.538
  89  3827.17
  90  3951.51
  91  3942.299
  92  3971.959
  93  4018.126
  94  4083.439
  95  3889.241
  96  3874.597
  97  3749.51
  98  3784.617
  99  3670.439
 100  3667.424
 101  3641.45
 102  3845.691
 103  3840.362
 104  3785.975
 105  3778.866
 106  3935.794
 107  3972.134
 108  3983.347
 109  4105.991
 110  4099.124
 111  3886.463
 112  3757.086
 113  3676.681
 114  3765.403
 115  3683.075
 116  3613.219
 117  3717.804
 118  3862.717
 119  4025.991
 120  3886.746
 121  4005.355
 122  3943.14
 123  3877.754
 124  3818.014
 125  3904.911
 126  4158.86
 127  4157.146
 128  3748.35
 129  3607.872
 130  3630.258
 131  3747.175
 132  3566.946
 133  3712.962
 134  4072.104
 135  4231.095
 136  4122.297
 137  4115.866
 138  4047.522
 139  4052.98
 140  3892.05
 141  3746.688
 142  3827.115
 143  3748.805
 144  3734.475
 145  3675.943
 146  3725.814
 147  3746.473
 148  3808.954
 149  3889.181
 150  4135.459
 151  4110.131
 152  3930.423
 153  3716.263
 154  3627.748
 155  3768.276
 156  3668.542
 157  3812.376
 158  4057.347
 159  4364.768
 160  4136.032
 161  4098.159
 162  3997.581
 163  4225.532
 164  4075.35
 165  3919.403
 166  3829.004
 167  3723.189
 168  3799.687
 169  3744.879
 170  3762.038
 171  3869.522
 172  3701.911
 173  3624.316
 174  3755.967
 175  3839.742
 176  3776.759
 177  3460.218
 178  3322.952
 179  3619.78
 180  3691.094
 181  3801.527
 182  3763.439
 183  3808.699
 184  3932.692
 185  3916.406
 186  4003.375
 187  3981.413
 188  3735.106
 189  3653.735
 190  3892.059
 191  4199.881
 192  4288.764
 193  4166.406
 194  4228.674
 195  4349.989
 196  4175.167
 197  3865.542
 198  3782.191
 199  4003.678
 200  4111.857
 201  3919.44
 202  3642.596
 203  3652.076
 204  3777.873
 205  3946.614
 206  3958.906
 207  3979.362
 208  4005.501
 209  4010.667
 210  3889.582
 211  3800.123
 212  3810.542
 213  3681.462
 214  3539.331
 215  3800.282
 216  4211.663
 217  4365.422
 218  4232.336
 219  4221.045
 220  4409.056
 221  4268.032
 222  4077.89
 223  4170.168
 224  4307.963
 225  4296.913
 226  4159.32
 227  3973.123
 228  3983.588
 229  3849.958
 230  3808.263
 231  3788.574
 232  3948.479
 233  4120.466
 234  4267.51
 235  4193.902
 236  4170.763
 237  4299.541
 238  4177.045
 239  4089.279
 240  4031.038
 241  4296.003
 242  4368.998
 243  4153.293
 244  4160.43
 245  4102.506
 246  4132.412
 247  3991.684
 248  3846.031
 249  3889.155
 250  3852.508
 251  3735.767
 252  3754.047
 253  3617.422
 254  3654.505
 255  3580.651
 256  3764.531
 257  3847.22
 258  3810.35
 259  3651.258
 260  3571.103
 261  3573
 262  3602.319
 263  3550.981
 264  3585.129
 265  3842.531
 266  3946.571
 267  3747.735
 268  3703.012
 269  3805.276
 270  3824.243
 271  3751.926
 272  3648.489
 273  3712.848
 274  3772.373
 275  3853.544
 276  3863.336
 277  3731.568
 278  3650.383
 279  3625.688
 280  3723.328
 281  3974.464
 282  3933.706
 283  3753.662
 284  3672.54
 285  3827.558
 286  3968.461
 287  3971.039
 288  3874.807
 289  3877.415
 290  3910.058
 291  3831.353
 292  3758.034
 293  3803.651
 294  3844.767
 295  3781.081
 296  3667.989
 297  3632.321
 298  3634.838
 299  3722.743
 300  3756.02
 301  3938.06
 302  3968.249
 303  4010.532
 304  3952.812
 305  4007.952
 306  4175.23
 307  4120.354
 308  4005.447
 309  3920.086
 310  3991.488
 311  4018.349
 312  3761.612
 313  3545.825
 314  3791.77
 315  3862.694
 316  3872.776
 317  3689.415
 318  3784.581
 319  3952.494
 320  3926.79
 321  3895.906
 322  4085.332
 323  4221.832
 324  4337.976
 325  4079.051
 326  4044.51
 327  4142.065
 328  3934.65
 329  3945.237
 330  3844.912
 331  3903.338
 332  3786.848
 333  3693.263
 334  3537.785
 335  3601.794
 336  3661.917
 337  3723.254
 338  3701.995
 339  3842.706
 340  3903.091
 341  3715.002
 342  3658.818
 343  3755.556
 344  3780.533
 345  3876.992
 346  3868.292
 347  3951.673
 348  3867.997
 349  3824.342
 350  3767.779
 351  3827.921
 352  3846.488
 353  3751.419
 354  3701.012
 355  3683.062
 356  3773.823
 357  3917.293
 358  3954.255
 359  4157.133
 360  4176.447
 361  4079.823
 362  3844.724
 363  3959.534
 364  4261.832
 365  4143.735
 366  3976.516
 367  3879.102
 368  3875.545
 369  3738.106
 370  3702.716
 371  3758.952
 372  3829.417
 373  3739.024
 374  3801.61
 375  4045.524
 376  4223.075
 377  4180.592
 378  3993.52
 379  3972.367
 380  3935.503
 381  4003.617
 382  4090.544
 383  4118.883
 384  4198.92
 385  4182.506
 386  4136.421
 387  4112.367
 388  4001.197
 389  3897.894
 390  3849.942
 391  4038.732
 392  4181.032
 393  4192.516
 394  4196.606
 395  4231.839
 396  4267.407
 397  4052.262
 398  3873.544
 399  3822.729
 400  3989.604
 401  3996.417
 402  3868.604
 403  3878.429
 404  3906.735
 405  4164.881
 406  4095.868
 407  4053.608
 408  4073.271
 409  4097.671
 410  4080.219
 411  4015.605
 412  4070.686
 413  4072.364
 414  4050.172
 415  3965.062
 416  4063.122
 417  4037.489
 418  3999.349
 419  3794.574
 420  3808.271
 421  3980.148
 422  4062.437
 423  3818.832
 424  3756.631
 425  3817.945
 426  3890.312
 427  3772.273
 428  3724.568
 429  3957.43
 430  3955.382
 431  3904.756
 432  3970.961
 433  3934.529
 434  3927.356
 435  3752.233
 436  3769.051
 437  3848.134
 438  3857.842
 439  3834.257
 440  3811.951
 441  3825.25
 442  3901.251
 443  3810.107
 444  3847.022
 445  3901.872
 446  3904.691
 447  3833.321
 448  3618.662
 449  3724.747
 450  3826.669
 451  3720.553
 452  3449.496
 453  3423.901
 454  3425.319
 455  3398.833
 456  3406.836
 457  3619.673
 458  3790.624
 459  3734.92
 460  3595.107
 461  3642.293
 462  3777.089
 463  3831.685
 464  3629.787
 465  3512.514
 466  3514.877
 467  3519.322
 468  3537.62
 469  3423.112
 470  3542.069
 471  3652.862
 472  3729.906
 473  3776.689
 474  3715.774
 475  3615.508
 476  3565.508
 477  3604.872
 478  3676.547
 479  3538.299
 480  3497.553
 481  3576.218
 482  3667.283
 483  3631.634
 484  3696.354
 485  3722.65
 486  3955.708
 487  3840.913
 488  3841.487
 489  3773.013
 490  3751.306
 491  3835.199
 492  3848.151
 493  3756.467
 494  3811.309
 495  3941.954
 496  4091.518
 497  4066.02
 498  3915.138
 499  3927.351
 500  3966.929
 501  3963.72
 502  4069.248
 503  3933.711
 504  3877.974
 505  3808.468
 506  3830.601
 507  3782.597
 508  3673.307
 509  3650.463
 510  3708.982
 511  3561.476
 512  3642.6
 513  3685.787
 514  3921.344
 515  3994.319
 516  3959.948
 517  3770.216
 518  3836.132
 519  3749.055
 520  3797.318
 521  3753.994
 522  3696.107
 523  3767.284
 524  3698.667
 525  3698.534
 526  3753.75
 527  3840.781
 528  3777.67
 529  3671.773
 530  3630.755
 531  3610.072
 532  3410.556
 533  3322.814
 534  3470.255
 535  3581.793
 536  3684.632
 537  3641.885
 538  3619.898
 539  3604.899
 540  3748.64
 541  3740.746
 542  3704.06
 543  3508.306
 544  3507.902
 545  3548.113
 546  3726.239
 547  3867.374
 548  3963.482
 549  3834.569
 550  3699.748
 551  3632.042
 552  3732.784
 553  3854.769
 554  3754.707
 555  3750.376
 556  3746.757
 557  3795.925
 558  3604.957
 559  3623.368
 560  3929.267
 561  3893.719
 562  3684.824
 563  3442.729
 564  3744.986
 565  3790.982
 566  3782.85
 567  3747.973
 568  3711.485
 569  3588.804
 570  3509.679
 571  3618.333
 572  3829.945
 573  3894.604
 574  3917.372
 575  3976.553
 576  4121.613
 577  4314.48
 578  4216.345
 579  3968.503
 580  3971.232
 581  3956.02
 582  3954.506
 583  3698.165
 584  3657.346
 585  3662.32
 586  3677.776
 587  3768.858
 588  3979.356
 589  4079.285
 590  3897.744
 591  3905.759
 592  3843.124
 593  3934.147
 594  3729.669
 595  3662.796
 596  3728.247
 597  3712.086
 598  3823.129
 599  3780.351
 600  3767.978
 601  3703.176
 602  3715.836
 603  3827.9
 604  4023.448
 605  4014.219
 606  4016.206
 607  3992.477
 608  3953.706
 609  3896.834
 610  3993.96
 611  3986.892
 612  4230.849
 613  4292.302
 614  4388.519
 615  4240.377
 616  4093.979
 617  4239.517
 618  4458.853
 619  4535.86
 620  4624.23
 621  4522.938
 622  4623.787
 623  4423.071
 624  4411.23
 625  4276.513
 626  4055.5
 627  3802.104
 628  3858.662
 629  4012.71
 630  4002.47
 631  3838.04
 632  3788.037
 633  3859.183
 634  3986.432
 635  3991.239
 636  3833.557
 637  3839.248
 638  3781.465
 639  3881.489
 640  3885.054
 641  3895.391
 642  3856.085
 643  3839.487
 644  3655.12
 645  3642.951
 646  3614.659
 647  3625.977
 648  3426.927
 649  3432.212
 650  3667.821
 651  3786.306
 652  3777.109
 653  3770.09
 654  3839.01
 655  3761.698
 656  3534.288
 657  3432.494
 658  3570.749
 659  3773.576
 660  3758.885
 661  3724.869
 662  3852.585
 663  3978.439
 664  3890.226
 665  3824.368
 666  3894.201
 667  4074.17
 668  3968.059
 669  3779.153
 670  3573.365
 671  3747.542
 672  3851.602
 673  3832.176
 674  3791.011
 675  3841.079
 676  3823.43
 677  3703.167
 678  3600.285
 679  3769.584
 680  3666.705
 681  3563.347
 682  3470.911
 683  3657.139
 684  3540.737
 685  3368.623
 686  3430.254
 687  3791.679
 688  3753.598
 689  3709.764
 690  3707.642
 691  3878.881
 692  3928.371
 693  3885.939
 694  3781.635
 695  3608.56
 696  3582.455
 697  3564.526
 698  3666.858
 699  3753.817
 700  3772.325
 701  3805.179
 702  3785.4
 703  3842.31
 704  3908.479
 705  3945.02
 706  3747.112
 707  3587.8
 708  3652.117
 709  3688.55
 710  3752.913
 711  3762.302
 712  3790.515
 713  3617.688
 714  3485.401
 715  3711.519
 716  3786.981
 717  3688.215
 718  3557.219
 719  3789.543
 720  3908.336
 721  3681.811
 722  3535.063
 723  3581.987
 724  3778.844
 725  3722.849
 726  3684.634
 727  3752.092
 728  3812.638
 729  3793.159
 730  3728.319
 731  3929.975
 732  3918.902
 733  3818.851
 734  3686.832
 735  3688.106
 736  3899.605
 737  3930.703
 738  3937.717
 739  3997.931
 740  3958.02
 741  3869.499
 742  3555.879
 743  3446.514
 744  3707.093
 745  3810.058
 746  3869.273
 747  3619.006
 748  3734.906
 749  3804.141
 750  3923.93
 751  3768.232
 752  3783.303
 753  3673.824
 754  3524.485
 755  3458.485
 756  3448.214
 757  3789.231
 758  3964.449
 759  4012.88
 760  3954.822
 761  3709.816
 762  3770.815
 763  3971.239
 764  3982.603
 765  3857.871
 766  3625.63
 767  3531.705
 768  3615.76
 769  3694.596
 770  3743.687
 771  3500.144
 772  3417.453
 773  3657.411
 774  3716.795
 775  3770.35
 776  3762.819
 777  3906.541
 778  3963.815
 779  3802.821
 780  3748.504
 781  3769.168
 782  3828.688
 783  3726.911
 784  3705.847
 785  3792.418
 786  3803.546
 787  3716.35
 788  3716.571
 789  3710.184
 790  3733.958
 791  3630.231
 792  3662.309
 793  3726.064
 794  3993.309
 795  3865.397
 796  3642.189
 797  3605.534
 798  3668.757
 799  3738.024
 800  3653.743
 801  3645.598
 802  3636.515
 803  3560.914
 804  3590.563
 805  3730.912
 806  3893.709
 807  3816.948
 808  3629.27
 809  3689.205
 810  3817.811
 811  3820.211
 812  3753.094
 813  3798.698
 814  3830.954
 815  3771.555
 816  3809.445
 817  3907.556
 818  3812.865
 819  3764.824
 820  3677.34
 821  3821.477
 822  3819.723
 823  3740.798
 824  3581.91
 825  3641.997
 826  3785.154
 827  3767.339
 828  3557.618
 829  3495.819
 830  3701.1
 831  3842.393
 832  3738.633
 833  3626.67
 834  3679.106
 835  3788.121
 836  3852.874
 837  3690.142
 838  3708.691
 839  3623.424
 840  3647.178
 841  3607.695
 842  3461.204
 843  3645.823
 844  3485.063
 845  3454.635
 846  3550.435
 847  3567.716
 848  3607.103
 849  3412.776
 850  3499.403
 851  3798.679
 852  3869.004
 853  3816.407
 854  3734.252
 855  3605.042
 856  3475.13
 857  3396.229
 858  3447.776
 859  3680.613
 860  3702.957
 861  3774.016
 862  3854.867
 863  3978.303
 864  3900.745
 865  3641.634
 866  3542.732
 867  3761.95
 868  3998.544
 869  4005.067
 870  3883.369
 871  3670.872
 872  3600.451
 873  3508.629
 874  3482.572
 875  3611.14
 876  3664.584
 877  3670.014
 878  3618.289
 879  3793.189
 880  3956.067
 881  3914.065
 882  3689.464
 883  3749.655
 884  3895.895
 885  3834.316
 886  3779.869
 887  3745.759
 888  3750.031
 889  3764.24
 890  3993.968
 891  3893.549
 892  3723.712
 893  3576.367
 894  3796.066
 895  3852.419
 896  3768.803
 897  3609.591
 898  3577.353
 899  3627.787
 900  3733.293
 901  3704.702
 902  3625.845
 903  3661.927
 904  3843.051
 905  3982.347
 906  3978.542
 907  3740.581
 908  3734.396
 909  3857.017
 910  3910.359
 911  3862.842
 912  3698.036
 913  3734.823
 914  3694.038
 915  3670.023
 916  3718.855
 917  3845.305
 918  3758.666
 919  3611.495
 920  3546.922
 921  3868.095
 922  3963.934
 923  4004.887
 924  4061.442
 925  4119.663
 926  4062.936
 927  3810.81
 928  3611.573
 929  3638.58
 930  3810.598
 931  3898.103
 932  4050.787
 933  3938.458
 934  3883.463
 935  3754.942
 936  3777.313
 937  3888.508
 938  3891.946
 939  3731.364
 940  3806.15
 941  3957.694
 942  4132.562
 943  3900.853
 944  3894.316
 945  4008.869
 946  4204.911
 947  4102.954
 948  4134.854
 949  3989.565
 950  3893.06
 951  3641.504
 952  3556.086
 953  3519.254
 954  3528.033
 955  3464.803
 956  3612.447
 957  3600.802
 958  3667.391
 959  3689.059
 960  3820.026
 961  3920.761
 962  3931.615
 963  3824.998
 964  3792.81
 965  3876.339
 966  3957.715
 967  3747.108
 968  3679.321
 969  3804.207
 970  3950.3
 971  3740.101
 972  3767.837
 973  3995.394
 974  4122.491
 975  3936.359
 976  3712.426
 977  3748.554
 978  3936.979
 979  3969.214
 980  3695.443
 981  3739.883
 982  3904.661
 983  4028.452
 984  3955.243
 985  3962.907
 986  3884.482
 987  3796.375
 988  3698.351
 989  3921.396
 990  3958.341
 991  3828.335
 992  3543.972
 993  3580.391
 994  3822.289
 995  3814.793
 996  3688.694
 997  3685.028
 998  3761.576
 999  3787.887
1000  3688.537
1001  3517.833
1002  3637
1003  3752.638
1004  4015.554
1005  4061.812
1006  4055.681
1007  4030.475
1008  3976.446
1009  3976.157
1010  4063.417
1011  4034.704
1012  3830.807
1013  3749.572
1014  3819.703
1015  4003.708
1016  3901.888
1017  3629.62
1018  3617.346
1019  3711.215
1020  3810.928
1021  3867.992
1022  3895.961
1023  4142.568
