# Input file       =  1199709341.112284_cleaned.dat
# Candidate        =  PSR_0332+5434
# Telescope        =  AR
# Epoch_topo       =  58129.525001299582
# Epoch_bary       =  N/A
# T_sample         =  0.002
# Data Folded      =  7208960
# Data Avg         =  0.187029088730923
# Data StdDev      =  5.4451625495763  
# Profile Bins     =  256
# Profile Avg      =  5266.93177420133 
# Profile StdDev   =  913.749545875259 
# Reduced chi-sqr  =  0.777
# Prob(Noise)      <  0.997   (~0.0 sigma)
# P_topo (ms)      =  714.564098609565  +/- 7.24e-05
# P'_topo (s/s)    =  -0                +/- 3.89e-11
# P''_topo (s/s^2) =  0                 +/- 1.75e-14
# P_bary (ms)      =  N/A
# P'_bary (s/s)    =  N/A
# P''_bary (s/s^2) =  N/A
# P_orb (s)        =  N/A
# asin(i)/c (s)    =  N/A
# eccentricity     =  N/A
# w (rad)          =  N/A
# T_peri           =  N/A
######################################################
   0  5519.332
   1  4137.496
   2  4005.149
   3  5933.455
   4  5833.15
   5  5259.394
   6  5162.145
   7  5216.036
   8  6372.558
   9  5200.251
  10  4837.025
  11  5155.123
  12  4766.722
  13  5210.207
  14  5904.354
  15  6052.417
  16  5325.927
  17  4652.942
  18  4050.868
  19  4986.667
  20  5512.031
  21  5392.55
  22  4765.574
  23  5539.789
  24  6526.241
  25  5247.539
  26  4887.624
  27  4616.929
  28  5515.265
  29  5848.655
  30  5518.074
  31  4979.555
  32  5280.302
  33  3907.032
  34  4166.941
  35  5080.618
  36  5583.089
  37  5409.157
  38  4521.872
  39  4280.719
  40  6087.436
  41  6316.67
  42  4696.946
  43  4592.754
  44  4774.278
  45  6161.037
  46  6143.725
  47  5243.385
  48  5610.495
  49  5340.416
  50  5045.382
  51  4778.931
  52  5267.974
  53  5438.152
  54  5053.38
  55  4045.621
  56  5402.154
  57  6062.81
  58  5156.766
  59  4263.37
  60  4185.819
  61  4973.473
  62  5380.43
  63  5517.515
  64  5529.499
  65  5106.981
  66  5871.158
  67  5246.416
  68  5058.976
  69  5509.607
  70  5076.165
  71  4215.321
  72  5181.341
  73  5888.31
  74  5273.553
  75  4344.811
  76  3744.134
  77  4563.071
  78  5090.271
  79  5820.822
  80  5211.755
  81  4697.933
  82  4988.99
  83  6102.875
  84  4923.678
  85  4549.258
  86  5053.735
  87  5013.795
  88  5125.104
  89  5513.455
  90  6264.727
  91  4898.86
  92  4634.813
  93  4780.386
  94  6118.479
  95  5959.688
  96  4409.253
  97  4746.312
  98  6239.693
  99  6162.095
 100  5212.78
 101  4886.446
 102  5087.056
 103  5798.788
 104  5210.835
 105  5539.583
 106  6333.468
 107  5193.417
 108  4254.283
 109  4386.256
 110  4985.365
 111  5361.186
 112  5865.694
 113  4991.246
 114  4827.908
 115  6075.236
 116  5911.086
 117  4894.153
 118  5164.737
 119  5721.44
 120  5430.853
 121  5715.942
 122  5748.367
 123  5840.03
 124  5266.004
 125  4682.803
 126  4985.868
 127  5558.755
 128  5924.59
 129  3968.37
 130  4915.375
 131  6468.355
 132  5639.384
 133  4887.605
 134  4541.192
 135  5695.548
 136  5791.275
 137  6553.897
 138  5768.667
 139  5430.897
 140  4700.519
 141  5155.072
 142  4406.771
 143  5053.378
 144  6320.388
 145  4582.251
 146  4493.331
 147  5943.323
 148  5636.322
 149  4036.99
 150  4028.037
 151  4127.787
 152  5335.368
 153  6646.608
 154  8184.118
 155  8079.932
 156  6313.488
 157  5496.354
 158  5106.253
 159  5378.438
 160  4998.669
 161  4808.493
 162  4370.103
 163  4981.483
 164  6111.559
 165  5781.379
 166  4424.591
 167  4811.495
 168  5008.892
 169  6216.645
 170  6063.585
 171  5261.075
 172  4972.781
 173  5871.276
 174  5958.608
 175  5156.582
 176  5484.517
 177  5371.923
 178  5841.659
 179  5572.649
 180  5770.813
 181  5330.715
 182  4893.528
 183  4002.552
 184  4672.462
 185  6234.932
 186  6273.979
 187  4660.747
 188  5549.057
 189  5846.274
 190  6029.882
 191  5061.744
 192  5316.955
 193  5079.654
 194  5066.305
 195  5726.004
 196  6543.57
 197  6395.868
 198  5877.243
 199  5824.938
 200  4866.749
 201  5754.176
 202  6771.471
 203  5312.086
 204  4251.187
 205  4896.842
 206  6376.781
 207  6091.569
 208  4179.42
 209  4737.616
 210  6039.242
 211  5949.262
 212  5062.025
 213  5800.974
 214  5236.161
 215  4438.301
 216  3973.08
 217  4710.944
 218  5280.101
 219  4591.708
 220  3860.442
 221  5026.795
 222  5973.408
 223  5184.743
 224  4141.505
 225  3906.428
 226  5232.785
 227  5680.401
 228  5770.061
 229  4682.564
 230  5554.779
 231  4852.911
 232  3939.179
 233  4286.584
 234  4474.663
 235  4995.478
 236  5056.745
 237  5336.359
 238  6286.284
 239  6124.869
 240  5191.036
 241  4205.353
 242  4449.776
 243  5277.381
 244  5487.035
 245  4881.332
 246  4966.162
 247  5021.977
 248  5918.11
 249  5656
 250  5394.471
 251  5330.482
 252  5008.562
 253  5089.53
 254  6251.188
 255  6139.788
