# Input file       =  1199911133.099623-PSRB0329-2ms-sampling-dd.dat
# Candidate        =  PSR_0332+5434
# Telescope        =  AR
# Epoch_topo       =  58131.860556708598
# Epoch_bary       =  N/A
# T_sample         =  0.002
# Data Folded      =  7340032
# Data Avg         =  8.81896089928551e-09
# Data StdDev      =  448.974658709193 
# Profile Bins     =  512
# Profile Avg      =  -0.00870880496158933
# Profile StdDev   =  53757.0991434739 
# Reduced chi-sqr  =  1.087
# Prob(Noise)      <  0.0842   (~1.4 sigma)
# P_topo (ms)      =  714.566123365759  +/- 0.000287
# P'_topo (s/s)    =  -0                +/- 1.51e-10
# P''_topo (s/s^2) =  0                 +/- 6.68e-14
# P_bary (ms)      =  N/A
# P'_bary (s/s)    =  N/A
# P''_bary (s/s^2) =  N/A
# P_orb (s)        =  N/A
# asin(i)/c (s)    =  N/A
# eccentricity     =  N/A
# w (rad)          =  N/A
# T_peri           =  N/A
######################################################
   0  160215.9
   1  167360.6
   2  114039.9
   3  69953.16
   4  30275.85
   5  -159.2429
   6  -9253.832
   7  -21653.74
   8  -15096.02
   9  17346.49
  10  25004.13
  11  24838.46
  12  22382.74
  13  -7160.205
  14  -29809.93
  15  -36462.71
  16  10532.38
  17  36480.02
  18  49709.91
  19  34481.73
  20  12474.45
  21  -18813.24
  22  -41152.82
  23  -33007.63
  24  -15066.45
  25  -8286.054
  26  -11365.88
  27  -14644.04
  28  -27110.86
  29  -36055.79
  30  -40265.91
  31  -39489.46
  32  -41173.02
  33  -39794.26
  34  -39142.66
  35  -40256.77
  36  -38307.07
  37  -38637.45
  38  -40842.64
  39  -36405.91
  40  -36183.41
  41  -33831.29
  42  -21334.14
  43  -17133.27
  44  -16980.08
  45  -21041.64
  46  -27948.37
  47  -31383.55
  48  -34776.23
  49  -17095.83
  50  -17272.35
  51  -19033.31
  52  -24289.1
  53  -30922.38
  54  -37628.47
  55  -42436.05
  56  -36093.46
  57  -33852.63
  58  -28223.2
  59  -11766.54
  60  -10011.56
  61  -3041.454
  62  5819.695
  63  -6464.092
  64  37001.55
  65  44090.59
  66  77170.3
  67  75249.42
  68  48812.69
  69  27549.01
  70  35475.05
  71  67465.43
  72  69875.14
  73  61475.13
  74  39363.02
  75  35896.98
  76  67114.95
  77  60843.39
  78  56245.54
  79  50750.31
  80  33396.8
  81  28208.79
  82  25987.99
  83  92680.8
  84  71286.59
  85  57924.57
  86  36651.84
  87  -2637.265
  88  -12124.45
  89  -18111.88
  90  -19891.26
  91  -3101.948
  92  -7812.879
  93  4893.958
  94  11456.21
  95  4252.122
  96  -6920.94
  97  -16526.61
  98  4989.021
  99  7570.664
 100  21674.08
 101  13122.69
 102  21942.5
 103  13123.61
 104  36009.37
 105  47850.18
 106  29616.53
 107  23210.03
 108  11058.53
 109  18054.65
 110  8131.963
 111  84754.84
 112  78003.95
 113  65733.31
 114  32665.31
 115  1538.766
 116  -5982.761
 117  -19983.68
 118  -2254.147
 119  25335.06
 120  14902.93
 121  16383.81
 122  13182.29
 123  -2783.39
 124  -7101.152
 125  -9146.359
 126  17965.15
 127  13531
 128  6959.129
 129  -118.2841
 130  -20538.04
 131  -33576.38
 132  -30822.39
 133  -30708.99
 134  -21288.44
 135  2060.69
 136  2468.821
 137  -3335.294
 138  -6912.603
 139  -26527.32
 140  -19499.77
 141  -10960.65
 142  10883.35
 143  -335.6633
 144  -10272.55
 145  -25633.57
 146  -39895.84
 147  -43491.75
 148  -42322.26
 149  -30078.8
 150  -23505.1
 151  -17966.86
 152  -19135.04
 153  -29131.25
 154  -37653.72
 155  -43069.08
 156  -28799.58
 157  -16406.48
 158  -18398.96
 159  -16203.79
 160  24201.18
 161  26497.28
 162  32325.3
 163  33866.91
 164  -2388.371
 165  -26599.62
 166  -29767.44
 167  37030.95
 168  49486.73
 169  42501.11
 170  23621.7
 171  -5263.273
 172  -31669.15
 173  -13458.23
 174  14420.51
 175  14788.81
 176  26967.63
 177  22483.26
 178  -24563.97
 179  -27314.12
 180  -9185.79
 181  37771.79
 182  31139.88
 183  20755.69
 184  10168.84
 185  -35655.2
 186  -39674.11
 187  -41090.59
 188  -43230.91
 189  -44411.13
 190  -43477.66
 191  -45693.93
 192  -41453.24
 193  -28645.74
 194  -24883.18
 195  -20574.28
 196  -15823.03
 197  -32485.29
 198  -42683.31
 199  -45200.36
 200  -14017
 201  -15574.83
 202  -16889.52
 203  -20607.04
 204  -29808.11
 205  -9785.768
 206  -5083.565
 207  972.5205
 208  4266.288
 209  -27991.74
 210  -33358.34
 211  -35997.79
 212  17504.74
 213  14053.08
 214  10925.96
 215  -3959.999
 216  -31236.21
 217  -43988.84
 218  -46581.22
 219  -45493.67
 220  -45135.36
 221  -44062.24
 222  -44907.31
 223  -45652.77
 224  -44275.96
 225  -43055.87
 226  -43049.06
 227  -31430.33
 228  -16826.29
 229  -8017.827
 230  4115.034
 231  13247.99
 232  32917.07
 233  60504.64
 234  93255.59
 235  137918.4
 236  108771
 237  94562.22
 238  133631.1
 239  106897.6
 240  124357.8
 241  128519.2
 242  84606.84
 243  50335.66
 244  21011.68
 245  -6208.672
 246  -27405.73
 247  -39187.45
 248  -36436.3
 249  -46679.91
 250  -42654.29
 251  -31493.46
 252  -34681.7
 253  -33739.45
 254  -35092.8
 255  -41204.07
 256  -19652.65
 257  5297.354
 258  15394.84
 259  29635.17
 260  24565.08
 261  -24703.38
 262  -20762.79
 263  15610.26
 264  83402.12
 265  96031.03
 266  85158.75
 267  69289.99
 268  -32584.85
 269  -41662.14
 270  -46856.39
 271  -46809.62
 272  -44596.77
 273  -43965.06
 274  -48099.36
 275  -47734.44
 276  -46448.57
 277  -40231.41
 278  -31686.75
 279  -25560.05
 280  -21640.67
 281  -23492.28
 282  -30538.37
 283  -47038.01
 284  1894.837
 285  24404.35
 286  44090.57
 287  63681.63
 288  26172.13
 289  -12685.38
 290  -34956.85
 291  15350.68
 292  49675.65
 293  63557.11
 294  46695.99
 295  15812.52
 296  -36274.13
 297  -41973.29
 298  -44111.36
 299  -45619.41
 300  -42401.67
 301  -42465.11
 302  -36934.25
 303  -31435.08
 304  -28465.24
 305  -30599.96
 306  -34755.55
 307  -38845.79
 308  -36249
 309  -33332.89
 310  -30555.82
 311  -26346.31
 312  -28264.21
 313  -26451.33
 314  6015.399
 315  19789.23
 316  28233.21
 317  40335.81
 318  13696.02
 319  -5431.041
 320  -25222.71
 321  19178.72
 322  16052.83
 323  13066.62
 324  7078.112
 325  -16600.19
 326  -32548.3
 327  -45545.41
 328  -45132.28
 329  -44126.11
 330  -43423.16
 331  -44339.23
 332  -43940.54
 333  -34333.84
 334  -29685.95
 335  -25148.17
 336  -29443.61
 337  -31680.46
 338  -34619.59
 339  -51101.18
 340  -32051.02
 341  -22253.19
 342  -25268.79
 343  -17571.29
 344  -17397.08
 345  -31772.32
 346  -34050.69
 347  -32183.21
 348  -38850.62
 349  12091.88
 350  47160.96
 351  78067.24
 352  86706.92
 353  57348.74
 354  23967.91
 355  -49623.43
 356  29976.79
 357  78186.02
 358  96183.4
 359  79714.34
 360  45434.05
 361  -8068.928
 362  -47531.71
 363  -45627.21
 364  -39128.7
 365  -29616.32
 366  -19381.29
 367  -13612.18
 368  -16002.92
 369  -24864.32
 370  -41428.02
 371  -31420.64
 372  -22669.08
 373  -9334.364
 374  -10435.62
 375  -8355.343
 376  -13142.73
 377  -21822.51
 378  -12770.32
 379  -22897.26
 380  -33625.41
 381  -31443.48
 382  -26519.45
 383  -28765.81
 384  -21935.75
 385  -18709.42
 386  -12609.64
 387  -12231.54
 388  -13723.15
 389  -17865.6
 390  -27960.63
 391  -31348.5
 392  -42082.66
 393  -32560.68
 394  -26731.95
 395  -19965.26
 396  -18489.58
 397  -21122.2
 398  -28268.29
 399  -36588.66
 400  -35750.41
 401  -36935.71
 402  -41464.54
 403  -37393.8
 404  -36187.8
 405  -36921.21
 406  -25281.56
 407  -15968.25
 408  -7294.848
 409  -4246.771
 410  -7372.674
 411  -20203.25
 412  -22277.13
 413  -28492.22
 414  -9834.432
 415  20430.1
 416  34448.43
 417  34204.88
 418  26427.16
 419  18444.79
 420  -1951.106
 421  -21979.08
 422  32557.68
 423  46269.55
 424  53724.08
 425  53797.17
 426  30784.18
 427  -237.7027
 428  -24318.34
 429  4298.892
 430  21630.13
 431  45376.19
 432  50988.8
 433  36091.11
 434  40809.61
 435  -7436.663
 436  44146.31
 437  87256.95
 438  113752.4
 439  88470.98
 440  46437.48
 441  43993.81
 442  46175.8
 443  45676.02
 444  47431.2
 445  24717.15
 446  6731.334
 447  13626.52
 448  36062.04
 449  62740.74
 450  37391.39
 451  8313.404
 452  -13031.7
 453  -6857.572
 454  9331.156
 455  4701.792
 456  -5656.407
 457  -18679.21
 458  -40334.89
 459  -41040.36
 460  -39603.35
 461  -28542.99
 462  -8451.087
 463  16391.81
 464  21809.43
 465  20435.97
 466  15922.9
 467  -32023.91
 468  -4422.527
 469  17855.18
 470  50475.96
 471  36379.45
 472  19111.6
 473  -2073.931
 474  -35266.78
 475  -31004.6
 476  -25136
 477  -30643.49
 478  -9316.064
 479  7506.67
 480  8395.946
 481  19045.7
 482  11847.65
 483  -3675.549
 484  -23522.72
 485  -8588.671
 486  25850.79
 487  29436.05
 488  22678.23
 489  7914.094
 490  -25627.93
 491  -35824.13
 492  -40026.63
 493  -40983.76
 494  -39288.68
 495  -41208.64
 496  -42111.74
 497  -38094.7
 498  -36304.52
 499  -38707.04
 500  -37932.39
 501  -16050.94
 502  -4430.155
 503  20028.02
 504  61272.65
 505  75564.11
 506  84471.79
 507  92983.25
 508  98751.34
 509  92019.95
 510  113834.1
 511  156294.5
