# Input file       =  1199637838.101933_cleaned.dat
# Candidate        =  PSR_0332+5434
# Telescope        =  AR
# Epoch_topo       =  58128.697420161261
# Epoch_bary       =  N/A
# T_sample         =  0.002
# Data Folded      =  7340032
# Data Avg         =  1.11397511435332 
# Data StdDev      =  7.97737749322822 
# Profile Bins     =  512
# Profile Avg      =  15969.8459317112 
# Profile StdDev   =  955.15562958789  
# Reduced chi-sqr  =  0.634
# Prob(Noise)      <  1   (~0.0 sigma)
# P_topo (ms)      =  714.56350521783   +/- 4.34e-05
# P'_topo (s/s)    =  -0                +/- 2.29e-11
# P''_topo (s/s^2) =  0                 +/- 1.01e-14
# P_bary (ms)      =  N/A
# P'_bary (s/s)    =  N/A
# P''_bary (s/s^2) =  N/A
# P_orb (s)        =  N/A
# asin(i)/c (s)    =  N/A
# eccentricity     =  N/A
# w (rad)          =  N/A
# T_peri           =  N/A
######################################################
   0  17631.68
   1  18071.79
   2  18377.63
   3  18179.77
   4  17146.38
   5  16412.92
   6  16276.58
   7  16851.28
   8  16888.73
   9  15731.1
  10  14999.33
  11  14903.19
  12  15919.71
  13  15930.85
  14  16268.32
  15  16785.96
  16  16707.54
  17  16185.3
  18  15969.17
  19  14843.37
  20  15098.61
  21  16080.8
  22  15608.45
  23  15696.94
  24  15941.24
  25  15447.18
  26  15829.72
  27  16020.26
  28  16140.33
  29  15699.07
  30  15191.04
  31  15842.73
  32  16887.03
  33  16450.06
  34  16466.26
  35  16266.15
  36  16432.9
  37  16565.29
  38  16276.03
  39  16174.61
  40  16037.34
  41  16281.33
  42  17081.28
  43  17275.53
  44  16233.55
  45  16413.54
  46  17204.34
  47  16685.7
  48  16261.44
  49  15856.72
  50  16549.69
  51  16275.5
  52  16079
  53  16002.78
  54  16177.97
  55  16469.27
  56  16344.92
  57  16439.08
  58  16240.01
  59  16150.02
  60  15791.67
  61  15602.88
  62  15584.91
  63  16244.29
  64  16736.68
  65  16577.77
  66  16226.54
  67  15667.86
  68  15639.5
  69  16093.32
  70  16325.54
  71  16217.64
  72  16188.05
  73  16399.65
  74  16059.51
  75  15839.26
  76  15739.81
  77  15548.87
  78  15879.71
  79  16509.98
  80  16292.53
  81  16810.26
  82  16027.99
  83  16338.45
  84  16094.95
  85  16189.5
  86  16241.03
  87  15249.32
  88  15748.86
  89  16364.15
  90  16348.28
  91  15563.7
  92  15088.59
  93  15964.71
  94  16207.88
  95  16149.31
  96  15837.75
  97  16135.13
  98  16054.29
  99  15954.69
 100  16077.17
 101  15639.74
 102  15647.69
 103  16326.2
 104  16374.16
 105  16715.02
 106  16506.73
 107  16350.42
 108  16236.01
 109  16107.81
 110  16182.85
 111  15467.17
 112  15320.43
 113  15676.07
 114  16443.45
 115  15804.4
 116  15679.82
 117  16021.42
 118  16721.3
 119  15950.19
 120  15110.13
 121  15021.26
 122  15699.82
 123  16619.35
 124  16414.02
 125  15280.62
 126  15402.68
 127  16293.87
 128  16250.92
 129  15406.69
 130  15391.03
 131  14987.64
 132  15862.97
 133  17012.96
 134  16534.36
 135  16499.13
 136  16498.48
 137  16703.96
 138  16451.16
 139  16296.59
 140  15926.98
 141  16433.23
 142  16096.89
 143  16239.94
 144  15471.78
 145  15585.1
 146  15733.87
 147  15844.85
 148  16480.62
 149  16496.34
 150  16137.55
 151  16535.07
 152  16512.81
 153  15884.88
 154  15199.71
 155  15717.03
 156  16007.87
 157  16435.49
 158  16225.64
 159  16022.81
 160  15691.43
 161  15495.89
 162  15402.46
 163  15636.57
 164  15124.44
 165  15340.31
 166  15605.71
 167  15722.87
 168  15490.98
 169  15723.61
 170  15358.65
 171  15825.51
 172  16198.96
 173  15823.68
 174  15751.61
 175  16313.5
 176  15603.08
 177  14609.75
 178  15141.18
 179  15641.07
 180  15814.55
 181  16305.36
 182  16111.26
 183  15245.94
 184  15866.96
 185  16650.08
 186  15771.36
 187  15061.5
 188  15665.1
 189  15683.88
 190  16147.33
 191  15849.74
 192  15822.72
 193  15321.49
 194  15605.23
 195  15278.04
 196  15384.87
 197  15487.5
 198  15380.5
 199  14817.74
 200  15263.71
 201  15609.26
 202  16026.25
 203  15960.83
 204  16669.53
 205  15735.87
 206  15751.94
 207  15594.77
 208  15638.72
 209  15991.51
 210  15686.79
 211  15820.13
 212  15900.01
 213  16408.65
 214  16565.75
 215  16433.33
 216  14882.57
 217  15096.01
 218  15488.34
 219  15379.28
 220  15137.42
 221  15418.68
 222  15956.05
 223  16100.6
 224  15688.1
 225  14892.39
 226  15564.96
 227  15863.26
 228  16512.05
 229  16491.97
 230  16428.9
 231  15605.37
 232  16002.54
 233  16593.92
 234  16266.44
 235  15652.62
 236  15710.82
 237  16170.74
 238  16389.35
 239  16827.48
 240  16667.82
 241  15918.66
 242  16184.04
 243  16491.08
 244  15852.84
 245  16117.56
 246  16539.26
 247  16757.81
 248  16180.46
 249  16154.63
 250  15859.3
 251  16242.13
 252  16872.14
 253  16875.81
 254  16345.36
 255  16088.54
 256  16051.18
 257  16760.43
 258  15838.53
 259  15397.94
 260  15562.94
 261  15635.09
 262  15535.29
 263  14847.76
 264  14875.85
 265  15560.56
 266  16609.59
 267  16262
 268  15338.72
 269  15341.73
 270  15922.42
 271  15458.34
 272  15403.99
 273  15481.37
 274  15156.72
 275  15415.72
 276  15373.51
 277  15668.66
 278  15667.31
 279  15322.36
 280  15518.11
 281  15724.8
 282  15390.25
 283  14484.59
 284  14797.99
 285  15303.22
 286  16035.94
 287  15940.98
 288  14983.44
 289  15334.65
 290  16192.1
 291  15522.02
 292  15123.08
 293  15075.62
 294  15706.56
 295  15612.79
 296  15557.78
 297  15706.19
 298  15907.43
 299  15502.35
 300  15642.43
 301  15883.96
 302  15379.89
 303  15410.13
 304  15399.67
 305  15346.52
 306  15496.02
 307  15796.62
 308  16169.92
 309  16811.66
 310  16716.07
 311  16234.18
 312  15402.35
 313  15938.74
 314  15947.75
 315  16529.93
 316  16519.53
 317  15616.81
 318  15561.2
 319  15980.88
 320  16411.7
 321  16210.45
 322  15709.35
 323  16293.85
 324  16022.18
 325  16451.82
 326  16408.74
 327  16140.41
 328  16397.76
 329  16469.11
 330  15770.23
 331  15289.96
 332  14969.69
 333  15777.38
 334  16304.26
 335  16646.61
 336  16429.79
 337  16542.69
 338  16852.46
 339  16261.27
 340  15269.91
 341  15300.42
 342  15923.24
 343  16238.33
 344  16490.5
 345  15624.88
 346  15101.99
 347  14621.88
 348  15380.95
 349  15091.88
 350  15524.5
 351  15538.04
 352  15499.12
 353  15839.24
 354  16226.97
 355  16118.19
 356  15963.22
 357  16752.2
 358  16555.01
 359  15979.58
 360  16172.12
 361  15682.6
 362  15425.13
 363  15388.07
 364  15573.76
 365  15670.16
 366  16141.52
 367  16067.04
 368  15775.25
 369  14898.47
 370  15506.8
 371  15742.66
 372  15824.64
 373  15870.68
 374  16026.34
 375  15565.48
 376  16018.59
 377  16524.79
 378  16326.09
 379  16260.28
 380  16367.56
 381  16372.18
 382  15555.59
 383  15142.93
 384  15013.31
 385  16038.79
 386  16935.36
 387  16324.91
 388  15204.66
 389  15323.93
 390  15756.18
 391  15729.44
 392  15719.81
 393  15943.79
 394  16071.24
 395  16989.18
 396  17383.46
 397  16273.8
 398  15292.81
 399  15217.89
 400  16208.81
 401  16545.2
 402  15895.81
 403  15596.72
 404  16091.59
 405  16094.08
 406  15523.55
 407  15230.61
 408  15879.84
 409  16242.46
 410  16518.12
 411  15735.12
 412  15762.59
 413  16430.78
 414  16144.35
 415  16349.9
 416  16070.17
 417  16091.16
 418  15979.5
 419  15977.67
 420  15805.05
 421  16064.98
 422  15369.42
 423  16169.12
 424  15893.54
 425  15989.94
 426  15618.47
 427  14793.13
 428  15273.57
 429  15708.25
 430  15056.17
 431  14568.64
 432  14359.38
 433  15301.1
 434  15581.31
 435  16438.03
 436  16690.67
 437  15971.81
 438  16074.31
 439  15934.43
 440  15088.35
 441  15408.37
 442  16056.99
 443  15916.38
 444  16314.03
 445  16272.71
 446  16324.34
 447  16670.73
 448  16653.63
 449  16437.24
 450  16364.89
 451  16242.7
 452  16623
 453  17566.87
 454  16941.93
 455  16228.4
 456  16209.35
 457  16821.97
 458  16891.46
 459  15928.93
 460  16099.2
 461  15551.6
 462  16014.55
 463  16628.64
 464  16544.72
 465  15894.91
 466  16484.42
 467  16941.06
 468  16410.5
 469  16205.49
 470  15558.45
 471  15327.33
 472  16420.13
 473  16075.74
 474  16418.15
 475  16553.79
 476  16684.84
 477  16465.5
 478  16815.08
 479  16105.02
 480  15577.26
 481  16045.65
 482  16184.81
 483  15591.06
 484  14717.54
 485  15983.15
 486  16480.33
 487  16263.87
 488  16177.91
 489  15858.57
 490  15853.33
 491  15676.71
 492  15926.02
 493  15850.11
 494  16129.68
 495  16240.25
 496  16532.69
 497  16295.63
 498  15551.4
 499  15579.69
 500  15811.78
 501  16086.91
 502  15840.67
 503  15864.3
 504  16008.16
 505  16124.84
 506  16053.47
 507  16624.2
 508  16124.99
 509  16054.67
 510  16829.43
 511  17362.07
