# Input file       =  1199551715.147240-PSRB0329-2ms-sampling-dd.dat
# Candidate        =  PSR_0332+5434
# Telescope        =  AR
# Epoch_topo       =  58127.700626704165
# Epoch_bary       =  N/A
# T_sample         =  0.002
# Data Folded      =  7340032
# Data Avg         =  -3.8868464586558e-09
# Data StdDev      =  287.586937715077 
# Profile Bins     =  512
# Profile Avg      =  -0.0213164405311465
# Profile StdDev   =  34433.6572749221 
# Reduced chi-sqr  =  1.328
# Prob(Noise)      <  8.67e-07   (~4.8 sigma)
# P_topo (ms)      =  714.562758892901  +/- 0.00028
# P'_topo (s/s)    =  -0                +/- 1.48e-10
# P''_topo (s/s^2) =  0                 +/- 6.53e-14
# P_bary (ms)      =  N/A
# P'_bary (s/s)    =  N/A
# P''_bary (s/s^2) =  N/A
# P_orb (s)        =  N/A
# asin(i)/c (s)    =  N/A
# eccentricity     =  N/A
# w (rad)          =  N/A
# T_peri           =  N/A
######################################################
   0  9950.909
   1  21600.58
   2  27160.03
   3  25939.21
   4  -6364.893
   5  -20061.7
   6  -26783.42
   7  -30324.7
   8  -28235.17
   9  -24155
  10  -23729.1
  11  -25731.98
  12  -23908.71
  13  -25163.04
  14  -32745.5
  15  -30280.05
  16  -27287.04
  17  -24208.38
  18  -5084.876
  19  5426.413
  20  14429.4
  21  9200.548
  22  -566.7385
  23  -10716.29
  24  -33322.95
  25  -9237.346
  26  12057.75
  27  20141.06
  28  14060.87
  29  4942.929
  30  -15112.42
  31  -21251.61
  32  -15364.47
  33  3297.874
  34  8928.546
  35  8708.459
  36  3577.205
  37  -15027.24
  38  -24178.17
  39  -19014.38
  40  -18415.83
  41  -13632.1
  42  -15561.07
  43  -25628.71
  44  -29553.27
  45  -28633.95
  46  -30543.38
  47  -30851.9
  48  -29587.87
  49  -21743.6
  50  -12485.28
  51  -1367.983
  52  -5909.734
  53  -11514.15
  54  -17666.46
  55  -23282.86
  56  -21753.48
  57  -15766.92
  58  -8307.267
  59  -10104.21
  60  -16936.1
  61  -11641
  62  -10649.06
  63  -9396.934
  64  -4240.846
  65  -551.4258
  66  -10460.77
  67  -12761.98
  68  -18581.78
  69  -21639.44
  70  -19166.07
  71  -22666.99
  72  -19492.68
  73  7476.968
  74  -921.4423
  75  -8640.958
  76  -19921.14
  77  -20719.74
  78  -28009.8
  79  -31148.04
  80  -27724.19
  81  -29952.27
  82  -33411.93
  83  -33212.21
  84  -32440.08
  85  -19927.45
  86  -10994.96
  87  6830.605
  88  30517.87
  89  31535.63
  90  27170.36
  91  15143.76
  92  36051.29
  93  63392.59
  94  89431.98
  95  107900.5
  96  61008.83
  97  40994.47
  98  24919.19
  99  39753.78
 100  38443.47
 101  35595
 102  1248.328
 103  -18283.35
 104  -30206.24
 105  -30115.67
 106  -31232.93
 107  -30305.38
 108  -21744.91
 109  -19631.88
 110  -3062.865
 111  10957.9
 112  6882.985
 113  2183.763
 114  -8062.28
 115  -5735.854
 116  12593.18
 117  27270.88
 118  25712.83
 119  5852.543
 120  -22548.07
 121  -29902.47
 122  -32469.48
 123  -31135.41
 124  -32690.7
 125  -31054.56
 126  -28474.92
 127  -29575.44
 128  -22107.2
 129  -22476.1
 130  -30297.88
 131  -27303.94
 132  -19068.53
 133  -1472.899
 134  25907.37
 135  29026.33
 136  48053.64
 137  10324.45
 138  12910.3
 139  -280.9615
 140  -16220.37
 141  -12291.8
 142  -15515.77
 143  -4443.462
 144  3796.907
 145  -4656.114
 146  -6737.363
 147  -21691.38
 148  -17683.24
 149  -11708.15
 150  -10667.84
 151  10948.33
 152  22905.57
 153  19585.74
 154  25554.26
 155  17739.71
 156  6048.835
 157  -18804.27
 158  18865.53
 159  40628.65
 160  62153.63
 161  59447.9
 162  31560.86
 163  4719.968
 164  -7300.205
 165  8767.079
 166  16241.36
 167  16269.34
 168  3837.618
 169  -17530.71
 170  -14008.21
 171  -7952.177
 172  18017.38
 173  33792.41
 174  27715.2
 175  12988.15
 176  -1455.002
 177  -2358.435
 178  -9628.122
 179  14731.66
 180  21195.58
 181  19579.04
 182  12270.19
 183  9872.394
 184  -142.2073
 185  -15232.87
 186  -6150.078
 187  -7288.611
 188  -18279.3
 189  -21620.34
 190  4163.471
 191  42698.47
 192  73872.84
 193  70788.68
 194  62791.67
 195  14596.01
 196  -15826.69
 197  -11324.62
 198  5000.403
 199  24732.49
 200  15168.08
 201  11337.5
 202  10782.31
 203  -4566.931
 204  8264.443
 205  5504.366
 206  -10758.39
 207  -14855.47
 208  8061.542
 209  33848.98
 210  56873.57
 211  52138.87
 212  18468.69
 213  -13928.36
 214  -19779.23
 215  -21444.91
 216  -33799.8
 217  -27034.29
 218  -17091.46
 219  -2575.324
 220  -396.1714
 221  -3093.424
 222  -4096.501
 223  -19374.65
 224  -18786.96
 225  6251.27
 226  20367.94
 227  26937.76
 228  29432.99
 229  9737.292
 230  9628.971
 231  11835.56
 232  9885.568
 233  3320.098
 234  1140.253
 235  -1350.359
 236  -2620.075
 237  7742.395
 238  4194.272
 239  -4531.507
 240  14734.95
 241  51568.31
 242  64732.98
 243  86101.28
 244  66199
 245  21590.42
 246  -10373.96
 247  4122.255
 248  18790.22
 249  17723.11
 250  9951.569
 251  -2642.881
 252  -26746.93
 253  -31116.65
 254  -32560.74
 255  -18795.69
 256  -15062.38
 257  -14906.85
 258  -12560.21
 259  -22704.27
 260  -28281.11
 261  -25598.33
 262  -7630.474
 263  15555.23
 264  33366.87
 265  44002.98
 266  30014.26
 267  11252.39
 268  -7451.333
 269  -16798.13
 270  -5910.011
 271  14996.86
 272  16434.13
 273  12818.12
 274  6592.313
 275  -10425.17
 276  -15491.81
 277  -13351.24
 278  -13432.98
 279  -16866.71
 280  -18335.79
 281  -23925.35
 282  -31820.78
 283  -24786.94
 284  -22353.3
 285  -21052.16
 286  -19187.38
 287  -24554.12
 288  -28029.91
 289  -27557.02
 290  -24964.24
 291  -22264.71
 292  -14877.16
 293  -11187
 294  -12922.07
 295  -29464.69
 296  -11665.42
 297  3135.28
 298  25944.75
 299  39583.99
 300  11700.86
 301  734.8144
 302  -21325.64
 303  8965.749
 304  31346.45
 305  31568.73
 306  22421.65
 307  -13066.78
 308  -20709.43
 309  -19975.91
 310  -13375.04
 311  2337.005
 312  12933.05
 313  192.815
 314  -2872.018
 315  -10665.22
 316  -15031.16
 317  -3458.786
 318  3806.48
 319  261.6455
 320  -11921.78
 321  -25976.08
 322  -30432.8
 323  -34306.12
 324  -35075.3
 325  -34742.38
 326  -34483.84
 327  -34558.16
 328  -34312.2
 329  -32923.43
 330  -32479.54
 331  -31354.66
 332  -31339.71
 333  -31481.62
 334  -31088.97
 335  -30908.7
 336  -30475.6
 337  -26130.73
 338  -24888.8
 339  -29864.51
 340  -27394.38
 341  -28059.1
 342  -23211
 343  -8139.718
 344  2142.639
 345  -2076.608
 346  -6135.989
 347  -13795.77
 348  -22361.34
 349  -32649.94
 350  -16881.89
 351  -13271.01
 352  -12072.55
 353  -13392.79
 354  -19799.71
 355  -26001.58
 356  -26749.03
 357  -25069.96
 358  -26993.54
 359  -28299.9
 360  -26017.17
 361  -21345.36
 362  -15636.13
 363  -11613.9
 364  -9931.028
 365  -5976.816
 366  8758.582
 367  -4950.421
 368  9421.252
 369  16048.31
 370  27307.29
 371  20362.35
 372  13353.42
 373  -7551.15
 374  -31557.26
 375  -28769.78
 376  -16031.75
 377  -2415.791
 378  2251.638
 379  3983.079
 380  2931.781
 381  -10141.77
 382  -16399.16
 383  18817.09
 384  31296.03
 385  37162.95
 386  39319.46
 387  22773.77
 388  11422.1
 389  -9392.734
 390  -5658.136
 391  -11544.5
 392  -23377.87
 393  -23884.83
 394  -23110.67
 395  -19012.17
 396  -4044.969
 397  -5554.64
 398  -2330.548
 399  2336.366
 400  -22771.05
 401  -10692.96
 402  4418.297
 403  25029.04
 404  41173.81
 405  46846.96
 406  13787.94
 407  4847.808
 408  22255.68
 409  51498.39
 410  74700.66
 411  71674.73
 412  70608.91
 413  84.73503
 414  -2956.142
 415  -3943.87
 416  -15781.16
 417  -19.9409
 418  12783.27
 419  13813.76
 420  9797.462
 421  -3064.851
 422  -2054.23
 423  -6497.504
 424  -1951.544
 425  -3861.375
 426  -7680.148
 427  -12432.1
 428  -18693.23
 429  -23441.12
 430  -25716.72
 431  -27679.96
 432  -32527.39
 433  -32384.03
 434  -31947.09
 435  -34463.91
 436  -35173.5
 437  -34167.58
 438  -32549.93
 439  -29898.1
 440  -24841.88
 441  -24537.86
 442  -16648.36
 443  -4880.882
 444  -16390.79
 445  -16769.05
 446  -13807.71
 447  19725.05
 448  18151.68
 449  28843.7
 450  28957.75
 451  2304.345
 452  -12193.87
 453  -11985.11
 454  1130.127
 455  1267.446
 456  36045.42
 457  39225.38
 458  28520.68
 459  51325.73
 460  69045.1
 461  96414.88
 462  127212.9
 463  131530.6
 464  112990.3
 465  105977
 466  125158.8
 467  132974.3
 468  127342.2
 469  50598.21
 470  40388.23
 471  3538.764
 472  15466.04
 473  3450.349
 474  -1906.171
 475  -7533.62
 476  -15573.93
 477  -13303.74
 478  5683.857
 479  12481.1
 480  16389.39
 481  3040.908
 482  -5815.881
 483  -11654.36
 484  -7272.021
 485  -4308.465
 486  -5628.997
 487  -11248.28
 488  -32601.7
 489  -31907.92
 490  -29105.31
 491  -29977.34
 492  -19673.58
 493  -6355.259
 494  20977.21
 495  21760.69
 496  41907.16
 497  43395.96
 498  13147.5
 499  485.012
 500  3578.984
 501  33490.11
 502  40760.25
 503  47453.54
 504  26975.11
 505  7992.885
 506  -2373.395
 507  5298.193
 508  2514.738
 509  -8980.742
 510  -19106.92
 511  -21297.8
