# Input file       =  1199911133.099623_cleaned.dat
# Candidate        =  PSR_0332+5434
# Telescope        =  AR
# Epoch_topo       =  58131.860556708598
# Epoch_bary       =  N/A
# T_sample         =  0.002
# Data Folded      =  7340032
# Data Avg         =  1.59516991591434 
# Data StdDev      =  9.62026788448387 
# Profile Bins     =  256
# Profile Avg      =  45736.6587780879 
# Profile StdDev   =  1628.98152756261 
# Reduced chi-sqr  =  0.910
# Prob(Noise)      <  0.847   (~0.0 sigma)
# P_topo (ms)      =  714.566123455881  +/- 2.21e-05
# P'_topo (s/s)    =  -0                +/- 1.16e-11
# P''_topo (s/s^2) =  0                 +/- 5.14e-15
# P_bary (ms)      =  N/A
# P'_bary (s/s)    =  N/A
# P''_bary (s/s^2) =  N/A
# P_orb (s)        =  N/A
# asin(i)/c (s)    =  N/A
# eccentricity     =  N/A
# w (rad)          =  N/A
# T_peri           =  N/A
######################################################
   0  44328.89
   1  45651.05
   2  45228.19
   3  46013.25
   4  47555.66
   5  44623.18
   6  47018.22
   7  45354.88
   8  46830.05
   9  47924.78
  10  46593.25
  11  48272.57
  12  44655.74
  13  45386.83
  14  46432.67
  15  45312.91
  16  46459.73
  17  45696.12
  18  47043.7
  19  45327.71
  20  43975.43
  21  46791.07
  22  44673.59
  23  46721.39
  24  45484.19
  25  46381.31
  26  44664.41
  27  45900.04
  28  45358.93
  29  44632.3
  30  47577.6
  31  46498.63
  32  46184.33
  33  46783.05
  34  44698.1
  35  47183.84
  36  43884.6
  37  46958.73
  38  45689.25
  39  43815.63
  40  46357.79
  41  42799.09
  42  46053.74
  43  45104.72
  44  48055.63
  45  46546.52
  46  44820.24
  47  45333.32
  48  41328.45
  49  46413.31
  50  45103.66
  51  46178.51
  52  45755.27
  53  45479.45
  54  46666.05
  55  44734.64
  56  45393.71
  57  44055.63
  58  46245.66
  59  46539.2
  60  45239.1
  61  47379.12
  62  46453.07
  63  47208.81
  64  46681.67
  65  44644.14
  66  47323.18
  67  43880.33
  68  44428.72
  69  44510.17
  70  44075.95
  71  45074.88
  72  44333.68
  73  47433.24
  74  44309.13
  75  45343.05
  76  46579.34
  77  44323.13
  78  45307.69
  79  44790.02
  80  48093.37
  81  45291.09
  82  45304.21
  83  47212.55
  84  44402.85
  85  46564.13
  86  42951.14
  87  45374.39
  88  45466.79
  89  42778.58
  90  45842.93
  91  45997.34
  92  46986.58
  93  44599.93
  94  46178.04
  95  46667.52
  96  44812.01
  97  47354.99
  98  43105.61
  99  45473.75
 100  44216.31
 101  42855.66
 102  46847.77
 103  44942.29
 104  45857.49
 105  46009.75
 106  44491.08
 107  46092.36
 108  43691.39
 109  46300.15
 110  44104.9
 111  47270.8
 112  46360.24
 113  42392.7
 114  47172.04
 115  45912.4
 116  45605.31
 117  45497.71
 118  44363.78
 119  45538.3
 120  42059.17
 121  46657.97
 122  44033.88
 123  43876.84
 124  47176.71
 125  45253.52
 126  47067.98
 127  44238.91
 128  48275.35
 129  45135.82
 130  45187.7
 131  47252.8
 132  46762
 133  48977
 134  44677.02
 135  46614.16
 136  45632.78
 137  45610.17
 138  48040.34
 139  45687.2
 140  47679.72
 141  46185.61
 142  47162
 143  47044.38
 144  45189.97
 145  47424.53
 146  45156.41
 147  46584.6
 148  44740.11
 149  45905.24
 150  46927.43
 151  45137.22
 152  48537.55
 153  48961.95
 154  48369.25
 155  46551.58
 156  44970.41
 157  46993.01
 158  42466.49
 159  45297.12
 160  45771.32
 161  45116.58
 162  48607.55
 163  44633.37
 164  47171.87
 165  44055
 166  45427.23
 167  46906.93
 168  44579.38
 169  47019.81
 170  43919.42
 171  46948.06
 172  44309.1
 173  47131.51
 174  48221.8
 175  45177.71
 176  46471
 177  44738.91
 178  45843.59
 179  45486.78
 180  45215.12
 181  45456.38
 182  45305.13
 183  47413.15
 184  45691.06
 185  45972.09
 186  46591.64
 187  44818.35
 188  47731.46
 189  44404.94
 190  45332.28
 191  45732.41
 192  45187.78
 193  47254.08
 194  45975.47
 195  46257.88
 196  45790.67
 197  45021.22
 198  46031.55
 199  44124.32
 200  45258.3
 201  44514.85
 202  47685.05
 203  47643.49
 204  45255.19
 205  47878.4
 206  45452.62
 207  47695.18
 208  46289.76
 209  46769.16
 210  46541.86
 211  44821.7
 212  46136.8
 213  42846.18
 214  46855.64
 215  46264.2
 216  46398.79
 217  47902.51
 218  46448.57
 219  46715.49
 220  43932.76
 221  45856.34
 222  44601.48
 223  44967.02
 224  46949.97
 225  45656.69
 226  47487.02
 227  45572.8
 228  44710.82
 229  44686.43
 230  44367.06
 231  45862.85
 232  45799.59
 233  44494.12
 234  44861.52
 235  44478.71
 236  44717.87
 237  45252.59
 238  44956.59
 239  45635.29
 240  45033.45
 241  45655.16
 242  44886.99
 243  47806.6
 244  45140.27
 245  46854.64
 246  47798.39
 247  44607
 248  46656.44
 249  42425.04
 250  46794.74
 251  45857.32
 252  45373.68
 253  44292.51
 254  43297.16
 255  47709.14
