# Input file       =  1199652744.097252_cleaned.dat
# Candidate        =  PSR_0332+5434
# Telescope        =  AR
# Epoch_topo       =  58128.869943255231
# Epoch_bary       =  N/A
# T_sample         =  0.002
# Data Folded      =  7340032
# Data Avg         =  2.06091501763564 
# Data StdDev      =  16.854282348321  
# Profile Bins     =  256
# Profile Avg      =  59090.5120004389 
# Profile StdDev   =  2853.90333568788 
# Reduced chi-sqr  =  0.652
# Prob(Noise)      <  1   (~0.0 sigma)
# P_topo (ms)      =  714.563969791949  +/- 4.9e-05
# P'_topo (s/s)    =  -0                +/- 2.59e-11
# P''_topo (s/s^2) =  0                 +/- 1.14e-14
# P_bary (ms)      =  N/A
# P'_bary (s/s)    =  N/A
# P''_bary (s/s^2) =  N/A
# P_orb (s)        =  N/A
# asin(i)/c (s)    =  N/A
# eccentricity     =  N/A
# w (rad)          =  N/A
# T_peri           =  N/A
######################################################
   0  56568.76
   1  58857.86
   2  58357.8
   3  57257.51
   4  57643.05
   5  54105.25
   6  58770.9
   7  58650.54
   8  58037.46
   9  57921.29
  10  54773.29
  11  59090.09
  12  59114.91
  13  58849.48
  14  58604.08
  15  58410.84
  16  54698.52
  17  55459.23
  18  54235.63
  19  57828.69
  20  56739
  21  58001.36
  22  57454.18
  23  57004.04
  24  59151.96
  25  53980.41
  26  58698.99
  27  57268.98
  28  57924.62
  29  58934.43
  30  56261.55
  31  60101.54
  32  58198.14
  33  57642.8
  34  57875
  35  61322.22
  36  59525.56
  37  56570.46
  38  57809.59
  39  57748.66
  40  61639.89
  41  54740.08
  42  59775
  43  57996.32
  44  60471.39
  45  59276.83
  46  56722.48
  47  61136.73
  48  59571.24
  49  62290.63
  50  59015.51
  51  59583.78
  52  57513.32
  53  57779.6
  54  57639.43
  55  60320.11
  56  60478.89
  57  57823.95
  58  59010.95
  59  57366.3
  60  59545.19
  61  58521.57
  62  60863.34
  63  60210.54
  64  58381.45
  65  59056.65
  66  56576.88
  67  60858.95
  68  58814.89
  69  59771.1
  70  57737.94
  71  60066.18
  72  62900.36
  73  60498.52
  74  58629.48
  75  58379.01
  76  60979.98
  77  58072.35
  78  59195.35
  79  58654.83
  80  60035.81
  81  57378.82
  82  57377.86
  83  59995.29
  84  62069.27
  85  61453.64
  86  61275.43
  87  59004.93
  88  56447.87
  89  57221.88
  90  63130.36
  91  60069.34
  92  61340.69
  93  59371.79
  94  59877.52
  95  57612.26
  96  59103.2
  97  60128.65
  98  60411.06
  99  57829
 100  55503.42
 101  55171.71
 102  53413.65
 103  57247.72
 104  55570.45
 105  59126.4
 106  57399.04
 107  61278.14
 108  61367.54
 109  58559.21
 110  62148.98
 111  59208.51
 112  59259.9
 113  57572.97
 114  59249.49
 115  59617.1
 116  56485.35
 117  60920.79
 118  59697.77
 119  61017.22
 120  58561.6
 121  59073.3
 122  57726.42
 123  58280.84
 124  55751.51
 125  54499.03
 126  58370.27
 127  58671.38
 128  60457.41
 129  57523.64
 130  57540.57
 131  59555.7
 132  57592.48
 133  61957.35
 134  60850.18
 135  61905.08
 136  63056.29
 137  62045.59
 138  60089.9
 139  58727.65
 140  60569.42
 141  60604.79
 142  61032.01
 143  63085.91
 144  61388.65
 145  59813.12
 146  60919.29
 147  61188.49
 148  59930.43
 149  60570.26
 150  59534.59
 151  62267.27
 152  59461.51
 153  62943.34
 154  59863.87
 155  62584.58
 156  60953.05
 157  60892.31
 158  62845.55
 159  59477.22
 160  57849.62
 161  54067.31
 162  58881.49
 163  60944.72
 164  59135.17
 165  61269.21
 166  59212.45
 167  59533.55
 168  53117.94
 169  58273.59
 170  58492.53
 171  60625.86
 172  56359.27
 173  60081.94
 174  59203.69
 175  58880.19
 176  61125.28
 177  57509.85
 178  60534.03
 179  57389.02
 180  61555.46
 181  58274.93
 182  56715.14
 183  59671.48
 184  60340.87
 185  61165.15
 186  59543.14
 187  61764.18
 188  59765.16
 189  56688.57
 190  61042.56
 191  61785.84
 192  60893.27
 193  59866.49
 194  62698.15
 195  60399.7
 196  61656.36
 197  58931.09
 198  63880.88
 199  59336.46
 200  61387.89
 201  60667.11
 202  59428.82
 203  59526.04
 204  59806.01
 205  62675.38
 206  58875.86
 207  58285.12
 208  58227.15
 209  56001.14
 210  59745.52
 211  58921.92
 212  63040.84
 213  59153.5
 214  57019.54
 215  57174.02
 216  59604.69
 217  59114.04
 218  57434.73
 219  57627.17
 220  59070.54
 221  61183.74
 222  56660.12
 223  56854.54
 224  57981.56
 225  57324.58
 226  61417.85
 227  57637.39
 228  59439.88
 229  56380.9
 230  59003.98
 231  59326.11
 232  59169.81
 233  58597.8
 234  59923.74
 235  62368.52
 236  59826.71
 237  58641
 238  59392.54
 239  59648.57
 240  59538.9
 241  61135.77
 242  60633.58
 243  58244.94
 244  58599.1
 245  57843.53
 246  60694.34
 247  59271.84
 248  61550.01
 249  62028.82
 250  61071.74
 251  59166.2
 252  58941.38
 253  59500.75
 254  55410.33
 255  55084.36
