# Input file       =  1199377074.114452_cleaned.dat
# Candidate        =  PSR_0332+5434
# Telescope        =  AR
# Epoch_topo       =  58125.679318454306
# Epoch_bary       =  N/A
# T_sample         =  0.002
# Data Folded      =  7340032
# Data Avg         =  1.92806085441719 
# Data StdDev      =  10.4048497683702 
# Profile Bins     =  512
# Profile Avg      =  27640.3615241418 
# Profile StdDev   =  1245.80425581106 
# Reduced chi-sqr  =  0.511
# Prob(Noise)      <  1   (~0.0 sigma)
# P_topo (ms)      =  714.561177557671  +/- 0.000768
# P'_topo (s/s)    =  -0                +/- 4.05e-10
# P''_topo (s/s^2) =  0                 +/- 1.79e-13
# P_bary (ms)      =  N/A
# P'_bary (s/s)    =  N/A
# P''_bary (s/s^2) =  N/A
# P_orb (s)        =  N/A
# asin(i)/c (s)    =  N/A
# eccentricity     =  N/A
# w (rad)          =  N/A
# T_peri           =  N/A
######################################################
   0  27443.55
   1  27869.68
   2  27832.19
   3  27472
   4  27364.34
   5  27723.47
   6  28061.2
   7  28153.9
   8  28459.02
   9  28753.18
  10  28320.7
  11  28162.88
  12  27898.81
  13  28315.72
  14  27387.34
  15  27795.88
  16  27464.27
  17  28169.67
  18  28702.04
  19  28439.54
  20  28058.21
  21  27886.94
  22  27850.87
  23  29120.14
  24  28803
  25  28806.27
  26  27694.62
  27  27375.33
  28  28477.87
  29  28910.84
  30  28443.3
  31  28109.22
  32  28149.33
  33  27541.7
  34  27797.04
  35  28363.58
  36  28108.25
  37  27091.09
  38  28424.03
  39  29456.23
  40  28010.37
  41  27652.54
  42  27139.62
  43  27089.65
  44  27258.08
  45  27997.27
  46  28268.36
  47  27779.2
  48  27781.01
  49  26773
  50  27505.28
  51  27021.8
  52  26889.17
  53  27206.51
  54  27410.73
  55  26884.96
  56  27694.54
  57  28430.02
  58  29151.28
  59  27999.25
  60  27815.78
  61  28175.84
  62  27842.5
  63  27551.31
  64  28200.13
  65  28198.9
  66  28508.45
  67  27875.29
  68  27821.09
  69  28070.9
  70  27905.86
  71  27264.03
  72  27397.22
  73  27770.44
  74  27039.83
  75  27477.64
  76  27741.71
  77  27772.69
  78  27359.33
  79  28269.24
  80  28923.22
  81  28662.01
  82  27996.94
  83  27910.12
  84  28539.65
  85  27634.03
  86  28163.76
  87  28509.83
  88  28478.31
  89  28178.83
  90  27727.31
  91  27628.35
  92  27626.04
  93  28054.35
  94  27870.54
  95  27614.62
  96  27309.43
  97  27336.79
  98  27962.97
  99  27840.33
 100  28581.11
 101  28214.33
 102  27152.95
 103  27196.64
 104  27611.08
 105  27614.85
 106  27294.35
 107  27121.81
 108  26574.16
 109  27271.88
 110  28236.61
 111  28127.55
 112  27674.63
 113  27479.02
 114  28312.21
 115  27612.54
 116  27429.69
 117  28150.1
 118  27823.9
 119  27467.88
 120  26491.71
 121  27033.77
 122  26738.82
 123  26699.21
 124  27601.84
 125  27824.51
 126  27672.41
 127  28153.32
 128  27574.49
 129  27600.17
 130  26780.94
 131  27525.44
 132  28008.08
 133  26808.98
 134  27396.99
 135  27049.84
 136  27691.42
 137  27026.09
 138  27614.06
 139  27682.66
 140  28553.16
 141  28058.38
 142  26526.53
 143  26419.49
 144  27561.53
 145  27663.5
 146  27321.06
 147  27679.22
 148  27686.02
 149  27953.5
 150  27054.7
 151  26398.79
 152  27164.25
 153  28042.25
 154  28137.71
 155  28464.54
 156  27387.92
 157  27435.99
 158  28125.9
 159  28451.37
 160  28442.37
 161  28572.27
 162  27830.87
 163  27198.06
 164  27421.53
 165  27054.11
 166  27453.63
 167  28061.14
 168  28839.79
 169  28872.35
 170  27704.9
 171  26522.56
 172  26998.03
 173  27937.38
 174  28267.99
 175  27873.47
 176  27395.44
 177  26889.14
 178  26950.69
 179  27595.23
 180  27394.24
 181  27472.06
 182  27566.86
 183  28711.55
 184  27693.95
 185  27202.88
 186  27567.57
 187  28229.18
 188  28648.99
 189  28227.45
 190  28120.16
 191  28105.26
 192  27746.21
 193  28019.13
 194  27796
 195  28159.28
 196  28431.1
 197  27952.79
 198  27503.79
 199  26970.96
 200  26761.39
 201  27333.73
 202  27998.9
 203  28950.9
 204  28419.78
 205  28386.44
 206  28062.42
 207  27902.9
 208  27686.88
 209  28006.34
 210  27370.87
 211  27629.27
 212  26906.1
 213  26838.29
 214  26593.59
 215  27194.05
 216  27312.38
 217  27651.1
 218  27943.41
 219  27786.33
 220  27031.93
 221  25763
 222  25947.46
 223  26214.12
 224  26840.94
 225  26374.28
 226  26385.35
 227  26369.97
 228  26217.3
 229  26272.05
 230  27900.72
 231  27561.1
 232  27570.43
 233  28023.91
 234  27691.3
 235  27095.57
 236  27286.36
 237  27908.72
 238  27234.35
 239  28211.15
 240  28370.6
 241  27169.68
 242  26860.33
 243  28165.72
 244  27447.4
 245  27301.17
 246  27306.34
 247  27898.99
 248  28977.19
 249  28243.03
 250  27538.35
 251  27595.39
 252  27501.87
 253  27382
 254  27674.26
 255  28641
 256  27855.4
 257  26268.09
 258  27516.99
 259  27903.89
 260  27719.36
 261  28003.32
 262  27677.45
 263  27390.07
 264  27971.11
 265  27936.04
 266  27802.08
 267  27667.06
 268  27701.39
 269  28717.1
 270  27222.19
 271  26547.68
 272  26568.96
 273  27170.1
 274  26883.78
 275  26497.66
 276  26893.58
 277  27588.53
 278  27162.43
 279  27846.92
 280  27568.46
 281  27217.67
 282  26622.52
 283  26462.06
 284  26982.33
 285  26897.28
 286  27342.58
 287  26764.55
 288  27849.35
 289  28123.61
 290  27873.79
 291  27554.09
 292  26661.28
 293  27020.71
 294  27822.62
 295  27626.17
 296  26660.21
 297  27296.73
 298  27705.3
 299  26742
 300  26763.41
 301  26815.56
 302  27610.36
 303  27759.06
 304  28422.97
 305  27924.65
 306  27965.09
 307  28350.78
 308  28425.37
 309  28914.83
 310  28909.98
 311  28098.57
 312  28862.21
 313  27860.29
 314  28291.95
 315  27718.72
 316  28420.8
 317  27989.56
 318  28261.55
 319  26903.52
 320  26692.71
 321  26619.52
 322  26995.27
 323  27722.52
 324  28246.74
 325  27995.25
 326  27868.56
 327  27462.37
 328  27149.71
 329  27267.01
 330  26931.25
 331  27029.72
 332  28478.82
 333  28216.83
 334  27625.19
 335  28313.84
 336  27961.46
 337  27146.95
 338  27830.12
 339  27855.95
 340  27319.3
 341  26722.86
 342  27390.11
 343  27564.2
 344  27673.75
 345  27569.54
 346  27210.18
 347  26744.57
 348  26936.38
 349  27686.48
 350  28087.97
 351  27524.96
 352  27142.86
 353  27610.98
 354  28144.46
 355  28161.33
 356  27679.02
 357  27162.7
 358  26862.93
 359  27324.44
 360  27090.63
 361  27699.79
 362  27622.3
 363  28038.83
 364  27860.24
 365  28487.23
 366  28852.7
 367  28519.75
 368  27591.48
 369  27889.08
 370  27515.5
 371  27266.95
 372  27288.14
 373  27554.93
 374  28372
 375  28068.46
 376  27764.97
 377  27501.63
 378  27677.04
 379  27517.91
 380  27784.51
 381  27733.49
 382  26922.14
 383  26954.05
 384  26663.35
 385  26375.29
 386  26298.87
 387  27311.91
 388  28423.57
 389  28108.31
 390  27274.41
 391  26933.64
 392  27478.23
 393  27685.09
 394  27663.86
 395  27308.35
 396  26998.3
 397  27370.18
 398  27135.23
 399  26834.71
 400  27532.62
 401  26976.57
 402  26910.49
 403  26704.2
 404  27608.47
 405  27251.95
 406  27747.5
 407  26512.14
 408  26624.9
 409  27033.36
 410  26933.15
 411  26904.65
 412  26709.92
 413  27308.13
 414  27551.38
 415  28467.55
 416  27578.79
 417  26831.12
 418  27047.23
 419  27678.67
 420  28801.71
 421  28396.77
 422  28016.23
 423  27088.77
 424  26946.25
 425  26564.58
 426  26596.54
 427  27352.75
 428  27214.59
 429  27221.09
 430  27090.07
 431  27759.14
 432  27139.19
 433  26942.71
 434  27128.22
 435  26749.45
 436  26675.92
 437  27980.01
 438  28023.21
 439  27513.25
 440  27287.2
 441  27705.61
 442  27263.39
 443  27190.9
 444  26496.34
 445  27330.49
 446  27684.78
 447  27348.82
 448  27166.1
 449  27982.45
 450  27029.35
 451  26933.86
 452  26642.94
 453  26859.83
 454  27596.11
 455  27189.55
 456  27283.56
 457  27128.38
 458  27312.12
 459  28218.67
 460  27999.21
 461  26909.78
 462  26802.64
 463  27249.58
 464  26382
 465  26659.16
 466  27153.67
 467  27818.05
 468  27862.2
 469  28256.56
 470  28234.77
 471  27564.52
 472  27409.24
 473  28379.38
 474  28364.3
 475  28061.26
 476  28499.64
 477  28210.51
 478  27881.03
 479  27786.9
 480  27643.8
 481  27824.88
 482  28716.82
 483  28006.86
 484  27791.66
 485  27580.21
 486  27180.48
 487  28251.89
 488  29475.69
 489  29504.2
 490  29625.7
 491  28760.08
 492  28580.02
 493  28176.88
 494  28569.7
 495  29162.79
 496  28479.97
 497  29480.05
 498  28935.61
 499  28098.73
 500  28068.14
 501  26571.87
 502  27199.36
 503  27856.06
 504  28808.04
 505  28975.45
 506  28664.35
 507  27824.37
 508  28520.07
 509  28130.42
 510  27538.17
 511  26333
