# Input file       =  1199795478.095342_cleaned.dat
# Candidate        =  PSR_0332+5434
# Telescope        =  AR
# Epoch_topo       =  58130.521957122015
# Epoch_bary       =  N/A
# T_sample         =  0.002
# Data Folded      =  7208960
# Data Avg         =  0.158299371824515
# Data StdDev      =  5.6994610088347  
# Profile Bins     =  256
# Profile Avg      =  4457.53327066378 
# Profile StdDev   =  956.423221738657 
# Reduced chi-sqr  =  0.598
# Prob(Noise)      <  1   (~0.0 sigma)
# P_topo (ms)      =  714.564822631875  +/- 6e-05
# P'_topo (s/s)    =  -0                +/- 3.23e-11
# P''_topo (s/s^2) =  0                 +/- 1.45e-14
# P_bary (ms)      =  N/A
# P'_bary (s/s)    =  N/A
# P''_bary (s/s^2) =  N/A
# P_orb (s)        =  N/A
# asin(i)/c (s)    =  N/A
# eccentricity     =  N/A
# w (rad)          =  N/A
# T_peri           =  N/A
######################################################
   0  3619.378
   1  4111.173
   2  4462.137
   3  3816.391
   4  3733.969
   5  3517.892
   6  4649.73
   7  4800.624
   8  4810.108
   9  3174.016
  10  4325.429
  11  4085.956
  12  4244.177
  13  4804.69
  14  4817.604
  15  4844.364
  16  4953.098
  17  4527.833
  18  5127.104
  19  4375.73
  20  3498.229
  21  4217.025
  22  5125.07
  23  5745.765
  24  5281.493
  25  4334.948
  26  4872.163
  27  5321.397
  28  4394.712
  29  3668.241
  30  4619.454
  31  5952.411
  32  4604.172
  33  4592.17
  34  4552.07
  35  5688.115
  36  4609.253
  37  4433.682
  38  4491.985
  39  5567.299
  40  5160.376
  41  5392.125
  42  4770.969
  43  4801.555
  44  5411.758
  45  3736.66
  46  5224.253
  47  5437.747
  48  4700.549
  49  4201.435
  50  4932.745
  51  4263.846
  52  4020.793
  53  4207.718
  54  4163.917
  55  4157.396
  56  5803.522
  57  4254.729
  58  3537.32
  59  2692.659
  60  4967.056
  61  4986.72
  62  3113.293
  63  3605.292
  64  4969.445
  65  4088.419
  66  5118.158
  67  3955.125
  68  4532.803
  69  3553.503
  70  3743.969
  71  3997.034
  72  5774.928
  73  5282.395
  74  4389.965
  75  4179.369
  76  5148.524
  77  5645.578
  78  4135.403
  79  3717.523
  80  4554.337
  81  4986.479
  82  4748.366
  83  4475.454
  84  3577.465
  85  4264.44
  86  4318.978
  87  4905.867
  88  3847.962
  89  5425.752
  90  4520.413
  91  4588.563
  92  4170.145
  93  4816.377
  94  4228.833
  95  4288.334
  96  3860.396
  97  6209.265
  98  4844.722
  99  4329.348
 100  3730.685
 101  4943.49
 102  4273.509
 103  4434.354
 104  4110.25
 105  4647.123
 106  3842.667
 107  3940.798
 108  3779.573
 109  4798.667
 110  4745.892
 111  3642.888
 112  4167.181
 113  4834.183
 114  4902.502
 115  4378.494
 116  4590.326
 117  4340.557
 118  3928.474
 119  4052.333
 120  5096.933
 121  3571.437
 122  3811.59
 123  3560.693
 124  3977.903
 125  3637.414
 126  4175.942
 127  3284.852
 128  4589.835
 129  3459.753
 130  5031.806
 131  4137.235
 132  4165.646
 133  4088.375
 134  4564.661
 135  4489.334
 136  3996.198
 137  3968.968
 138  4978.513
 139  4822.183
 140  3794.864
 141  4014.253
 142  4712.419
 143  3960.025
 144  3863.576
 145  4006.552
 146  4420.457
 147  5270.548
 148  4374.474
 149  4241.512
 150  4672.657
 151  5017.185
 152  4971.922
 153  6095.489
 154  5485.712
 155  6778.161
 156  5756.178
 157  5146.174
 158  4014.494
 159  3998.194
 160  4482.516
 161  5297.51
 162  3993.006
 163  5343.709
 164  4654.477
 165  4202.232
 166  3519.692
 167  4712.608
 168  5201.611
 169  3855.986
 170  3648.435
 171  4767.8
 172  5404.031
 173  4038.99
 174  3258.92
 175  3930.373
 176  4612.401
 177  4257.77
 178  5058.138
 179  4385.045
 180  4928.248
 181  3985.652
 182  4472.378
 183  3728.475
 184  5296.701
 185  4571.955
 186  4114.867
 187  4171.453
 188  6094.7
 189  4343.204
 190  4366.848
 191  3386.83
 192  4154.84
 193  3907.759
 194  4002.628
 195  4848.454
 196  4750.882
 197  4886.745
 198  5222.519
 199  4148.274
 200  4748.65
 201  4488.011
 202  4684.17
 203  4001.584
 204  5079.477
 205  5165.391
 206  4333.654
 207  3644.859
 208  3811.543
 209  4600.547
 210  4039.434
 211  4207.793
 212  3801.204
 213  4868.866
 214  4022.133
 215  4329.737
 216  4497.278
 217  4900.474
 218  4082.507
 219  4403.233
 220  4420.427
 221  6303.793
 222  3106.465
 223  3345.619
 224  3363.955
 225  4733.439
 226  4161.143
 227  4560.634
 228  4333.632
 229  4750.999
 230  4613.729
 231  4409.511
 232  3923.342
 233  4584.356
 234  4120.874
 235  4717.946
 236  3811.792
 237  4933.488
 238  5541.481
 239  4097.42
 240  4642.568
 241  4560.593
 242  5397.503
 243  3885.727
 244  3941.681
 245  4434.593
 246  5504.978
 247  5062.543
 248  4097.467
 249  3939.443
 250  4766.569
 251  3690.111
 252  4136.775
 253  3443.352
 254  4769.132
 255  4105.035
