# Input file       =  1199566614.095435_cleaned.dat
# Candidate        =  PSR_0332+5434
# Telescope        =  AR
# Epoch_topo       =  58127.873068234199
# Epoch_bary       =  N/A
# T_sample         =  0.002
# Data Folded      =  7340032
# Data Avg         =  3.57111150239091 
# Data StdDev      =  28.0803607517658 
# Profile Bins     =  512
# Profile Avg      =  51195.5327214739 
# Profile StdDev   =  3362.14685536389 
# Reduced chi-sqr  =  0.353
# Prob(Noise)      <  1   (~0.0 sigma)
# P_topo (ms)      =  714.563225703954  +/- 6.92e-05
# P'_topo (s/s)    =  -0                +/- 3.65e-11
# P''_topo (s/s^2) =  0                 +/- 1.61e-14
# P_bary (ms)      =  N/A
# P'_bary (s/s)    =  N/A
# P''_bary (s/s^2) =  N/A
# P_orb (s)        =  N/A
# asin(i)/c (s)    =  N/A
# eccentricity     =  N/A
# w (rad)          =  N/A
# T_peri           =  N/A
######################################################
   0  53460.16
   1  52602.36
   2  52494.61
   3  52490.72
   4  49978.11
   5  51275.36
   6  50632.67
   7  49767.61
   8  51043.91
   9  51038.05
  10  52506.25
  11  51934.07
  12  51513.71
  13  52246.66
  14  50888.48
  15  49274.55
  16  50567.68
  17  52088.95
  18  52604.03
  19  52174.83
  20  52488.82
  21  51628.23
  22  52228.95
  23  51125.07
  24  50814.53
  25  50006.18
  26  49070.54
  27  52324.27
  28  52051.21
  29  51436.75
  30  51171.09
  31  51602.94
  32  52669.14
  33  51669.83
  34  52131.22
  35  50292.68
  36  51239.19
  37  50692.1
  38  51721.68
  39  52183.36
  40  50247.82
  41  51867.43
  42  53694.17
  43  51759.76
  44  50582.46
  45  49760.26
  46  51397.27
  47  52430.48
  48  52542.77
  49  51688.49
  50  52116.4
  51  51994.72
  52  51327.64
  53  52129.52
  54  51925.46
  55  51831.05
  56  53742.41
  57  54335.66
  58  52511.91
  59  51208.5
  60  51427.9
  61  53242.8
  62  52967.88
  63  51486.81
  64  50830.81
  65  51335.5
  66  52695.22
  67  50626.54
  68  49462.4
  69  51669.5
  70  53110.75
  71  52678.94
  72  51794.73
  73  51690.54
  74  54150.77
  75  54604.38
  76  52868.16
  77  55050.37
  78  55168.93
  79  53600.35
  80  52801.05
  81  53872.16
  82  53598.11
  83  52483.98
  84  53245.32
  85  52174.24
  86  51854.89
  87  50948.37
  88  50470.89
  89  51697.93
  90  50627.94
  91  49778.36
  92  50112.23
  93  49661.61
  94  48922.81
  95  49910.32
  96  50141.86
  97  50481.32
  98  50614.74
  99  51754.04
 100  49977.19
 101  48160.47
 102  49385.69
 103  50570.55
 104  51319.43
 105  49618.63
 106  46592.06
 107  46319.7
 108  49449.95
 109  52129.43
 110  51727.25
 111  51327.39
 112  49684.96
 113  51401.12
 114  53015.82
 115  52070.55
 116  50721.61
 117  51992.38
 118  52415.64
 119  51437.32
 120  52088.27
 121  52879.81
 122  52558.98
 123  50812.1
 124  51955.04
 125  53128.33
 126  53325.11
 127  52940.05
 128  52177.35
 129  50957.76
 130  52203.73
 131  50528.75
 132  49203.57
 133  49676.42
 134  50467.35
 135  50265.02
 136  50200.72
 137  49221.28
 138  50432.61
 139  51054.74
 140  52328.93
 141  51197.25
 142  50574.66
 143  51815.94
 144  50691.17
 145  50800.56
 146  50894.2
 147  51258.77
 148  48685.86
 149  49617.09
 150  51900.78
 151  51487.86
 152  50385.6
 153  51437.6
 154  50479.05
 155  48913.63
 156  50814.53
 157  50716.51
 158  48922.81
 159  47482.65
 160  51044.38
 161  52194.16
 162  48151.07
 163  48508.92
 164  48736.7
 165  50714.93
 166  52172.04
 167  51047.39
 168  50042.81
 169  48732.41
 170  51157.3
 171  52711.86
 172  51142.67
 173  50274.61
 174  50939.83
 175  50965.66
 176  51290.91
 177  52082.86
 178  53911.3
 179  50761.28
 180  49029.05
 181  49994.94
 182  49637.4
 183  47944.3
 184  50443.83
 185  51896
 186  51286.43
 187  49203.1
 188  49888.72
 189  50529.42
 190  52166.46
 191  52038.14
 192  51363.53
 193  49318.25
 194  50526.14
 195  53565.38
 196  52043.37
 197  50375.73
 198  48471.6
 199  49966.99
 200  50995.27
 201  51902.45
 202  52991.34
 203  50966.08
 204  50378.49
 205  49768.43
 206  50581.35
 207  49750.22
 208  51474.22
 209  49558.77
 210  48531.21
 211  49542.89
 212  50168.02
 213  49850.27
 214  52750.82
 215  52896.78
 216  52023.02
 217  50549.58
 218  53702.38
 219  52691.45
 220  52457.45
 221  52097.84
 222  50684.88
 223  51399.86
 224  51848.83
 225  52840.75
 226  49677.67
 227  49853.12
 228  51574.53
 229  51053.2
 230  50901.14
 231  51213.96
 232  52078.36
 233  52131.66
 234  51002
 235  50636.54
 236  49388.83
 237  50530.37
 238  52831.68
 239  52538.42
 240  51655.15
 241  49116.2
 242  51028.51
 243  49402.05
 244  48421.53
 245  49493.76
 246  49675.84
 247  51491.46
 248  51990.89
 249  51859.98
 250  50037.74
 251  51064.17
 252  53264.14
 253  52932.79
 254  49691.7
 255  49809.25
 256  51338.55
 257  50805.7
 258  50368.93
 259  49028.22
 260  50713.56
 261  50257.51
 262  53551.32
 263  52523.45
 264  51922.84
 265  51262.11
 266  50189.56
 267  50861.72
 268  52374.66
 269  50693.51
 270  49438.16
 271  50241.2
 272  51473.56
 273  47512.55
 274  47898.3
 275  51902.12
 276  51883.89
 277  50948.43
 278  49373.99
 279  49448.43
 280  51087.64
 281  51406.5
 282  50511.74
 283  49923.11
 284  49354.01
 285  51619.87
 286  51787.66
 287  50386.27
 288  49449.75
 289  50402.61
 290  52255.2
 291  52897.49
 292  53437.04
 293  52026.58
 294  52122.84
 295  51819.7
 296  50949.77
 297  50238.3
 298  47830.55
 299  48736.27
 300  49513.97
 301  49560
 302  53098.82
 303  50647.59
 304  51624.52
 305  50713.57
 306  52426.29
 307  53349.54
 308  53818.49
 309  53407.49
 310  54418.42
 311  55179
 312  51197.7
 313  51972.61
 314  50695.12
 315  49358.74
 316  48396.98
 317  51231.91
 318  52753.76
 319  52497.74
 320  51913.51
 321  51870.79
 322  52044.78
 323  50167.24
 324  52044.06
 325  52599.04
 326  51169.58
 327  51270.59
 328  51924.43
 329  51725.97
 330  50460.52
 331  52086.38
 332  51531.65
 333  51585.26
 334  52209.89
 335  52973.82
 336  51339.72
 337  49853.68
 338  50932.42
 339  51786.34
 340  50934.36
 341  49082.02
 342  49840.93
 343  53089.95
 344  52786.11
 345  52393.12
 346  50958.61
 347  50835.09
 348  51599.2
 349  49866.82
 350  48985.34
 351  47602.73
 352  50277.74
 353  50969.45
 354  51338.12
 355  49841.61
 356  49708.16
 357  52441.83
 358  51433.77
 359  49001
 360  46475.75
 361  49083.53
 362  50712.25
 363  49719.45
 364  49573.56
 365  50051.19
 366  47780.88
 367  49343.94
 368  49815.46
 369  50830.73
 370  51750.48
 371  51984.48
 372  51140.03
 373  50379.05
 374  50348.01
 375  47722.73
 376  48051.92
 377  49181.11
 378  51250.17
 379  50338.73
 380  52325.68
 381  51309.47
 382  50053.98
 383  50046.45
 384  50250.85
 385  51183.93
 386  51932.91
 387  52482.7
 388  51104.89
 389  51143.69
 390  51778
 391  51248.96
 392  51428.41
 393  50689.55
 394  49748.46
 395  51011.39
 396  52903.86
 397  52257.62
 398  49918.28
 399  50724.42
 400  50700.33
 401  49386.46
 402  49449.05
 403  50185.18
 404  51256.32
 405  51435.37
 406  49496.99
 407  49672.68
 408  50919.02
 409  50402.74
 410  52757.32
 411  50915.7
 412  51676.37
 413  51754.93
 414  52204.21
 415  52077.38
 416  49991.58
 417  50305.51
 418  50879.25
 419  50168.32
 420  47523.54
 421  49942.39
 422  51891.41
 423  51068
 424  52741.85
 425  53783.75
 426  51922.93
 427  51003.27
 428  50375.79
 429  53540.83
 430  53760.04
 431  51867.98
 432  50529.91
 433  51662.29
 434  51554.81
 435  50679.79
 436  51305.79
 437  52272.07
 438  51866.98
 439  52742.98
 440  52032.35
 441  52125.13
 442  53574.64
 443  53488.21
 444  52068.82
 445  48812.94
 446  48196.36
 447  49565.43
 448  50476.07
 449  51650.98
 450  52612.86
 451  52336.46
 452  51584.15
 453  54817.91
 454  53633.34
 455  49561.64
 456  50187.61
 457  51840.97
 458  51810.07
 459  50943.28
 460  51156.54
 461  52655.08
 462  52937.82
 463  53064.71
 464  52749.98
 465  51349.62
 466  50498.45
 467  52116.58
 468  53532.21
 469  51581.24
 470  50212.02
 471  51887.37
 472  52780.07
 473  50049.67
 474  48476.34
 475  50389.85
 476  51368.48
 477  51241.54
 478  51331.58
 479  51453.11
 480  51306.41
 481  49745.19
 482  51955.73
 483  51852.46
 484  50371.29
 485  51948.96
 486  54050.3
 487  52655.53
 488  49357.84
 489  51312.63
 490  52378.23
 491  52406.99
 492  53429.84
 493  54516.56
 494  54100.79
 495  51547.16
 496  51902.57
 497  52500.57
 498  50778.67
 499  50443.73
 500  52444.11
 501  51837.67
 502  50455.38
 503  49853.37
 504  50370.52
 505  51541.46
 506  53990.36
 507  53862.95
 508  51544.92
 509  52126.74
 510  53377.97
 511  53992.29
