# Input file       =  1199997843.109079_cleaned.dat
# Candidate        =  PSR_0332+5434
# Telescope        =  AR
# Epoch_topo       =  58132.864144781008
# Epoch_bary       =  N/A
# T_sample         =  0.002
# Data Folded      =  7340032
# Data Avg         =  0.402053102688764
# Data StdDev      =  5.1873179738816  
# Profile Bins     =  1024
# Profile Avg      =  2881.80319849878 
# Profile StdDev   =  439.179306569797 
# Reduced chi-sqr  =  0.572
# Prob(Noise)      <  1   (~0.0 sigma)
# P_topo (ms)      =  714.566833542897  +/- 8.47e-05
# P'_topo (s/s)    =  -0                +/- 4.47e-11
# P''_topo (s/s^2) =  0                 +/- 1.97e-14
# P_bary (ms)      =  N/A
# P'_bary (s/s)    =  N/A
# P''_bary (s/s^2) =  N/A
# P_orb (s)        =  N/A
# asin(i)/c (s)    =  N/A
# eccentricity     =  N/A
# w (rad)          =  N/A
# T_peri           =  N/A
######################################################
   0  3014.615
   1  2953.398
   2  2916.773
   3  2915.369
   4  2965.059
   5  3059.69
   6  2994.955
   7  3035.004
   8  2929.866
   9  2923.078
  10  3038.454
  11  3123.379
  12  3087.427
  13  2684.627
  14  2459.45
  15  2508.566
  16  2609.995
  17  2830.551
  18  2925.504
  19  3028.306
  20  3049.631
  21  2975.154
  22  2965.987
  23  2665.561
  24  2457.723
  25  2652.426
  26  3035.225
  27  3103.223
  28  3056.932
  29  2730.673
  30  2870.469
  31  2898.811
  32  3112.935
  33  3044.288
  34  2741.832
  35  2800.143
  36  2824.112
  37  2739.704
  38  2718.26
  39  2791.213
  40  2825.836
  41  2860.961
  42  2689.973
  43  2828.312
  44  2761.826
  45  2929.101
  46  3090.069
  47  3083.386
  48  3077.557
  49  2841.119
  50  2780.519
  51  2979.904
  52  3073.064
  53  3151.152
  54  3150.868
  55  3126.137
  56  3149.519
  57  3075.571
  58  3100.929
  59  3167.973
  60  3276.093
  61  3301.245
  62  3116.847
  63  2810.417
  64  2695.617
  65  2484.65
  66  2700.261
  67  2732.412
  68  2775.221
  69  2711.742
  70  2729.749
  71  2667.707
  72  2711.088
  73  2674.856
  74  2691.173
  75  2817.852
  76  2871.992
  77  2966.375
  78  2890.251
  79  2877.167
  80  2958.38
  81  2798.112
  82  2805.369
  83  2751.594
  84  2822.224
  85  2896.013
  86  2933.612
  87  3001.937
  88  3133.82
  89  3206.542
  90  3312.727
  91  3156.433
  92  3139.387
  93  3011.75
  94  2884.347
  95  2781.03
  96  2885.401
  97  2913.217
  98  2860.23
  99  2641.191
 100  2702.991
 101  2724.938
 102  2744.243
 103  2795.929
 104  2931.857
 105  3032.231
 106  3049.647
 107  3067.153
 108  3025.055
 109  3088.36
 110  3098.634
 111  3213.758
 112  3164.214
 113  3182.296
 114  2954.525
 115  2955.213
 116  3075.802
 117  3023.693
 118  2850.72
 119  2878.932
 120  3018.473
 121  3128.166
 122  3044.401
 123  2824.639
 124  2922.227
 125  2928.676
 126  3040.018
 127  2952.673
 128  2889.546
 129  3086.246
 130  3148.535
 131  3158.425
 132  3131.739
 133  3053.002
 134  3143.18
 135  2965.636
 136  2952.277
 137  3087.192
 138  3208.355
 139  3201.416
 140  3179.429
 141  3111.376
 142  2977.25
 143  2692.691
 144  2694.702
 145  2901.523
 146  2957.904
 147  2791.803
 148  2743.902
 149  2759.104
 150  2871.921
 151  2696.881
 152  2588.522
 153  2536.793
 154  2559.755
 155  2660.767
 156  2670.16
 157  2553.101
 158  2694.665
 159  2740.972
 160  2789.248
 161  2721.691
 162  2618.88
 163  2749.734
 164  2790.758
 165  2818.772
 166  2891.113
 167  2908.39
 168  2840.985
 169  2791.182
 170  2796.357
 171  2919.83
 172  2772.505
 173  2867.856
 174  2931.433
 175  2961.97
 176  2784.362
 177  2712.159
 178  2714.915
 179  2779.232
 180  2631.461
 181  2616.364
 182  2653.036
 183  2767.576
 184  2985.561
 185  3075.965
 186  2991.135
 187  2833.419
 188  2655.137
 189  2779.094
 190  2739.343
 191  2708.528
 192  2668.432
 193  2711.65
 194  2775.146
 195  2840.888
 196  2754.215
 197  2867.298
 198  2816.265
 199  2839.534
 200  2783.244
 201  2811.882
 202  2927.127
 203  2879.807
 204  2971.738
 205  3150.248
 206  3032.748
 207  2870.883
 208  2750.362
 209  2774.967
 210  2898.692
 211  2884.847
 212  2910.168
 213  2767.578
 214  2615.825
 215  2780.691
 216  2769.065
 217  2813.959
 218  3007.114
 219  3109.72
 220  3058.08
 221  2867.01
 222  2693.631
 223  2892.656
 224  2878.492
 225  2795.9
 226  2736.221
 227  2782.484
 228  2836.361
 229  2830.06
 230  2769.601
 231  3033.219
 232  3092.608
 233  3126.054
 234  3044.583
 235  2811.745
 236  2705.495
 237  2425.062
 238  2680.623
 239  2981.07
 240  3006.186
 241  2861.551
 242  2841.181
 243  2968.732
 244  2941.47
 245  2872.983
 246  2865.783
 247  2935.551
 248  2838.697
 249  2778.998
 250  2794.799
 251  2984.861
 252  3292.219
 253  3269.344
 254  3331.125
 255  3121.838
 256  3003.99
 257  3063.617
 258  3091.971
 259  3108.034
 260  2980.881
 261  2887.097
 262  2835.96
 263  2810.114
 264  2825.913
 265  2963.373
 266  2910.516
 267  2935.781
 268  2796.245
 269  2770.14
 270  2939.934
 271  2909.265
 272  2915.206
 273  2727.575
 274  2702.347
 275  2802.579
 276  2900.241
 277  3003.351
 278  3010.612
 279  2911.96
 280  2853.537
 281  2865.777
 282  2926.558
 283  3043.197
 284  3016.566
 285  3002.125
 286  2782.292
 287  2700.364
 288  2837.393
 289  2857.17
 290  2799.276
 291  2789.686
 292  2785.927
 293  2773.388
 294  2619.542
 295  2613.266
 296  2849.456
 297  2916.599
 298  2918.173
 299  2790.884
 300  2620.177
 301  2713.308
 302  2667.066
 303  2836.75
 304  3113.082
 305  3241.981
 306  3193.375
 307  2867.248
 308  2735.501
 309  2977.52
 310  3069.616
 311  3081.004
 312  3088.223
 313  2984.901
 314  2957.353
 315  2713.739
 316  2588.536
 317  2689.865
 318  2701.721
 319  2823.892
 320  2931.565
 321  2972.942
 322  2996.662
 323  2637.81
 324  2596.949
 325  2642.824
 326  2726.209
 327  2735.109
 328  2638.085
 329  2572.031
 330  2656.952
 331  2611.57
 332  2602.447
 333  2711.535
 334  2924.146
 335  3112.503
 336  2993.614
 337  2855.805
 338  2781.419
 339  2745.888
 340  2808.977
 341  2807.061
 342  2841.537
 343  2896.351
 344  2885.621
 345  2771.307
 346  2784.939
 347  2788.605
 348  2878.272
 349  2798.094
 350  2817.514
 351  3025.498
 352  2971.342
 353  3048.932
 354  2828.67
 355  2957.528
 356  2909.034
 357  2775.25
 358  2743.934
 359  2593.689
 360  2780.055
 361  2878.85
 362  2973.092
 363  2895.213
 364  2772.206
 365  2691.275
 366  2639.343
 367  2679.696
 368  2760.789
 369  2813.927
 370  2789.162
 371  2797.159
 372  2798.817
 373  2776.852
 374  2926.487
 375  2819.113
 376  2687.545
 377  2518.163
 378  2555.124
 379  2765.096
 380  2702.353
 381  2449.092
 382  2454.076
 383  2531.159
 384  2718.529
 385  2741.88
 386  2795.455
 387  2752.264
 388  2666.813
 389  2673.24
 390  2882.699
 391  2784.502
 392  2815.606
 393  2725.499
 394  2817.53
 395  2807.208
 396  2774.629
 397  2814.118
 398  2811.086
 399  2738.98
 400  2668.873
 401  2565.871
 402  2485.352
 403  2599.909
 404  2681.418
 405  2606.021
 406  2587.82
 407  2662.625
 408  2844.314
 409  2585.407
 410  2614.189
 411  2746.886
 412  2812.034
 413  2810.231
 414  2613.719
 415  2642.309
 416  2841.238
 417  3013.54
 418  3143.991
 419  3000.715
 420  3036.753
 421  3051.989
 422  2904.556
 423  2718.407
 424  2693.811
 425  2718.551
 426  2728.553
 427  2616.661
 428  2532.044
 429  2575.966
 430  2564.938
 431  2666.24
 432  2966.315
 433  2990.784
 434  3000.443
 435  2931.972
 436  2910.794
 437  2829.46
 438  2532.204
 439  2650.947
 440  2560.769
 441  2738.639
 442  2889.468
 443  2904.965
 444  2930.406
 445  2894.302
 446  2866.826
 447  2787.911
 448  2898.13
 449  2956.632
 450  2856.522
 451  2562.34
 452  2573.904
 453  2752.038
 454  2843.222
 455  2859.532
 456  2694.257
 457  2714.971
 458  2813.43
 459  2802.835
 460  2983.253
 461  2984.5
 462  2940.098
 463  2855.217
 464  2603.428
 465  2736.883
 466  2750.926
 467  2911.27
 468  2854.719
 469  2776.253
 470  2775.815
 471  2765.735
 472  2632.077
 473  2741.328
 474  2781.377
 475  2975.313
 476  3026.963
 477  3081.705
 478  3159.96
 479  2949.853
 480  2752.654
 481  2785.334
 482  2724.925
 483  2745.43
 484  2802.775
 485  2801.954
 486  2881.09
 487  2775.492
 488  2701.812
 489  2818.349
 490  2700.579
 491  2820.375
 492  2746.805
 493  2737.61
 494  2878.904
 495  2686.954
 496  2680.051
 497  2525.979
 498  2682.96
 499  2724.795
 500  2640.52
 501  2741.342
 502  3182.596
 503  3296.109
 504  3252.545
 505  3070.364
 506  3000.324
 507  2796.46
 508  2703.3
 509  2794.197
 510  3012.561
 511  2921.892
 512  2926.129
 513  2936.458
 514  3071.72
 515  3201.978
 516  3084.26
 517  3098.095
 518  3000.33
 519  3032.904
 520  3093.199
 521  2937.354
 522  2628.605
 523  2348.978
 524  2415.632
 525  2729.396
 526  2826.942
 527  2847.565
 528  2978.094
 529  3027.145
 530  3015.159
 531  2980.122
 532  3038.259
 533  3207.752
 534  3175.308
 535  3040.292
 536  2885.025
 537  2789.89
 538  2863.437
 539  2870.577
 540  2861.996
 541  2936.623
 542  2993.295
 543  3023.1
 544  3033.489
 545  2738.07
 546  2641.477
 547  2751.049
 548  2880.915
 549  3103.167
 550  2989.51
 551  3084.708
 552  2894.806
 553  2856.952
 554  2885.126
 555  2742.852
 556  2650.967
 557  2712.859
 558  2794.135
 559  2900.47
 560  2694.67
 561  2737.655
 562  2841.762
 563  2954.496
 564  2994.013
 565  2926.948
 566  2887.377
 567  2963.866
 568  3043.206
 569  3167.51
 570  3299.677
 571  3214.322
 572  3257.921
 573  3130.647
 574  2928.997
 575  2760.552
 576  2727.815
 577  2948.144
 578  2901.531
 579  2816.438
 580  2944.056
 581  2762.716
 582  2869.212
 583  2904.664
 584  3000.616
 585  2919.61
 586  2745.093
 587  2670.667
 588  2767.543
 589  2849.853
 590  2967.99
 591  2862.967
 592  2724
 593  2740.675
 594  2574.821
 595  2619.996
 596  2842.662
 597  3072.279
 598  3005.368
 599  2911.017
 600  2922.007
 601  3132.201
 602  3170.055
 603  3089.205
 604  3064.89
 605  3143.205
 606  3249.104
 607  3127.951
 608  3171.341
 609  3299.841
 610  3213.263
 611  3286.735
 612  3279.864
 613  3383.793
 614  3399.783
 615  3502.11
 616  3452.261
 617  3391.867
 618  3548.474
 619  3756.387
 620  3732.572
 621  3735.623
 622  3703.357
 623  3554.008
 624  3381.175
 625  3177.785
 626  3063.182
 627  2939.891
 628  2858.368
 629  2856.562
 630  2689.944
 631  2479.715
 632  2661.643
 633  2881.167
 634  3036.302
 635  2986.38
 636  2967.162
 637  2844.06
 638  2632.139
 639  2555.479
 640  2779.614
 641  2862.123
 642  2919.187
 643  2758.679
 644  2840.966
 645  2909.977
 646  2906.43
 647  2862.736
 648  3069.106
 649  3211.572
 650  3157.093
 651  3042.337
 652  2943.96
 653  3016.976
 654  2913.425
 655  2904.049
 656  2844.779
 657  2919.912
 658  3154.608
 659  3111.093
 660  2909.869
 661  2980.481
 662  2991.304
 663  2902.965
 664  2657.698
 665  2607.942
 666  2836.419
 667  2570.455
 668  2341.905
 669  2424.76
 670  2695.094
 671  2792.095
 672  2613.503
 673  2629.266
 674  2894.212
 675  2809.823
 676  2746.383
 677  2788.429
 678  2837.481
 679  2834.443
 680  2761.511
 681  2891.147
 682  2969.779
 683  2876.097
 684  2891.352
 685  2950.11
 686  2963.588
 687  2958.206
 688  2835.583
 689  2840.775
 690  2804.556
 691  2905.059
 692  2869.41
 693  2860.897
 694  2862.229
 695  2782.137
 696  2507.751
 697  2542.089
 698  2766.718
 699  2878.618
 700  2833.415
 701  2722.227
 702  2842.58
 703  2870.815
 704  2880.44
 705  2888.781
 706  2747.44
 707  2710.591
 708  2668.36
 709  2804.505
 710  2825.256
 711  2823.352
 712  2836.192
 713  2872.941
 714  2804.249
 715  2851.9
 716  2966.552
 717  2866.047
 718  2816.024
 719  2721.984
 720  2772.699
 721  2735.362
 722  2694.278
 723  2843.479
 724  2891.113
 725  2895.538
 726  2943.442
 727  2878.484
 728  2810.049
 729  2716.666
 730  2825.145
 731  3030.281
 732  2991.218
 733  2973.557
 734  3100.289
 735  3140.635
 736  3170.935
 737  3050.767
 738  2898.068
 739  2929.159
 740  2892.836
 741  2755.835
 742  2639.302
 743  2475.907
 744  2739.156
 745  2653.618
 746  2592.801
 747  2543.591
 748  2739.95
 749  3059.115
 750  3004.034
 751  2869.47
 752  2835.383
 753  2673.566
 754  2687.184
 755  2739.732
 756  2819.724
 757  2776.42
 758  2725.804
 759  2932.055
 760  3098.644
 761  2959.309
 762  2749.081
 763  2672.625
 764  2761.166
 765  2823.438
 766  2870.827
 767  3014.784
 768  3249.058
 769  3256.883
 770  3114.95
 771  2932.314
 772  2735.103
 773  2827.43
 774  2697.997
 775  3031.124
 776  3097.059
 777  3112.559
 778  2857.619
 779  2637.411
 780  2587.904
 781  2647.978
 782  2746.203
 783  2864.363
 784  2964.851
 785  2986.27
 786  2816.666
 787  2565.476
 788  2706.241
 789  2921.415
 790  2905.029
 791  3122.138
 792  3231.49
 793  3236.62
 794  2989.057
 795  2701.896
 796  2825.946
 797  2886.312
 798  2961.545
 799  2913.104
 800  2893.173
 801  2915.306
 802  2825.978
 803  2757.641
 804  2822.66
 805  2887.31
 806  2917.525
 807  2866.943
 808  2765.676
 809  2874.334
 810  2870.49
 811  2864.583
 812  2839.109
 813  2814.902
 814  2795.033
 815  2658.853
 816  2531.565
 817  2794.521
 818  2689.146
 819  2776.683
 820  2869.898
 821  3011.583
 822  3082.527
 823  2761.645
 824  2713.387
 825  2781.231
 826  2973.723
 827  3050.621
 828  3079.957
 829  3034.181
 830  3152.621
 831  2981.965
 832  2770.912
 833  2702.872
 834  2720.03
 835  2829.769
 836  2646.785
 837  2430.979
 838  2527.159
 839  2633.732
 840  2903.792
 841  2931.18
 842  2944.726
 843  2871.256
 844  2883.284
 845  2839.783
 846  2929.313
 847  2831.342
 848  2763.614
 849  2851.601
 850  2859.139
 851  2865.993
 852  2740.729
 853  2706.403
 854  2812.287
 855  2973.518
 856  3124.324
 857  3051.416
 858  2995.931
 859  3076.513
 860  2957.44
 861  2736.168
 862  2726.933
 863  2766.388
 864  2989.812
 865  3011.418
 866  2958.3
 867  2965.382
 868  3041.59
 869  3243.754
 870  3215.635
 871  3158.317
 872  3036.088
 873  2982.064
 874  2922.877
 875  2873.049
 876  2798.002
 877  2929.203
 878  3079.122
 879  3111.329
 880  3046.861
 881  2839.062
 882  2855.971
 883  2962.031
 884  2963.288
 885  2915.586
 886  2746.865
 887  2838.588
 888  2800.508
 889  2701.086
 890  2695.447
 891  2676.313
 892  2868.998
 893  2876.409
 894  2774.951
 895  2895.31
 896  2932.627
 897  3088.754
 898  3148.578
 899  3138.097
 900  3186.128
 901  3021.598
 902  2939.474
 903  3125.502
 904  3143.475
 905  3051.641
 906  2931.062
 907  2747.496
 908  2849.482
 909  2856.284
 910  2949.583
 911  3019.947
 912  3077.339
 913  3027.142
 914  2879.761
 915  2785.434
 916  3030.712
 917  2837.493
 918  2626.528
 919  2600.98
 920  2732.617
 921  2714.218
 922  2647.628
 923  2708.752
 924  2998.858
 925  3051.182
 926  3063.081
 927  3034.049
 928  2875.361
 929  2814.921
 930  2806.271
 931  2890.568
 932  2942.643
 933  2680.083
 934  2702.001
 935  2666.823
 936  2703.142
 937  2877.653
 938  2934.135
 939  2914.647
 940  2933.347
 941  2999.54
 942  3094.914
 943  2958.725
 944  2960.961
 945  3119.177
 946  3026.833
 947  2900.067
 948  2826.446
 949  2867.746
 950  2964.068
 951  3041.399
 952  3138.543
 953  3036.31
 954  2937.541
 955  2975.084
 956  3170.222
 957  3255.313
 958  3203.957
 959  2924.928
 960  2756.079
 961  2741.025
 962  2793.18
 963  2934.762
 964  2867.71
 965  2900.506
 966  2915.313
 967  2942.418
 968  3064.491
 969  2982.953
 970  2974.847
 971  2929.451
 972  2737.514
 973  2688.491
 974  2745.546
 975  2892.508
 976  3118.553
 977  3154.147
 978  3084.974
 979  2970.963
 980  3076.426
 981  3210.414
 982  3052.871
 983  2790.977
 984  2863.128
 985  2961.474
 986  3118.606
 987  2953.593
 988  2819.783
 989  2761.574
 990  2752.024
 991  2775.864
 992  2847.508
 993  2835.958
 994  2873.085
 995  2832.404
 996  2779.337
 997  2828.389
 998  2825.146
 999  2942.172
1000  3000.69
1001  2997.794
1002  3033.668
1003  2858.288
1004  2836.479
1005  2902.684
1006  2914.001
1007  3072.521
1008  3135.646
1009  3116.363
1010  3132.75
1011  2950.711
1012  2968.416
1013  3042.638
1014  3058.162
1015  3101.652
1016  2971.197
1017  2887.818
1018  2924.732
1019  2877.297
1020  3003.355
1021  3083.307
1022  3169.262
1023  3094.33
