# Input file       =  1199881642.101681_cleaned.dat
# Candidate        =  PSR_0332+5434
# Telescope        =  AR
# Epoch_topo       =  58131.519225713899
# Epoch_bary       =  N/A
# T_sample         =  0.002
# Data Folded      =  7143424
# Data Avg         =  0.154864951324171
# Data StdDev      =  4.56452196678143 
# Profile Bins     =  256
# Profile Avg      =  4321.61291009921 
# Profile StdDev   =  762.480134397654 
# Reduced chi-sqr  =  1.575
# Prob(Noise)      <  1.25e-08   (~5.6 sigma)
# P_topo (ms)      =  714.565532903603  +/- 3.25e-05
# P'_topo (s/s)    =  -0                +/- 1.76e-11
# P''_topo (s/s^2) =  0                 +/- 8e-15
# P_bary (ms)      =  N/A
# P'_bary (s/s)    =  N/A
# P''_bary (s/s^2) =  N/A
# P_orb (s)        =  N/A
# asin(i)/c (s)    =  N/A
# eccentricity     =  N/A
# w (rad)          =  N/A
# T_peri           =  N/A
######################################################
   0  4165.024
   1  4861.609
   2  4218.035
   3  3779.743
   4  4456.157
   5  5526.309
   6  4889.177
   7  4264.962
   8  4424.068
   9  5023.638
  10  4702.471
  11  3454.886
  12  4539.557
  13  5188.794
  14  6048.891
  15  3409.17
  16  3839.569
  17  3821.042
  18  4675.864
  19  3194.115
  20  3647.675
  21  3651.876
  22  4554.2
  23  4325.272
  24  4698.222
  25  3863.721
  26  4914.842
  27  3029.342
  28  3490.168
  29  4819.168
  30  5784.43
  31  3918.81
  32  3619.718
  33  4201.709
  34  5051.983
  35  4377.341
  36  3350.63
  37  4183.74
  38  4918.902
  39  5242.886
  40  4184.901
  41  4476.533
  42  3853.447
  43  3421.594
  44  2619.446
  45  4400.28
  46  5090.188
  47  4897.98
  48  3330.905
  49  4279.313
  50  4588.179
  51  4448.508
  52  2418.865
  53  3853.493
  54  4143.589
  55  6339.202
  56  5205.275
  57  4861.473
  58  4444.833
  59  5246.623
  60  3392.257
  61  4424.196
  62  4302.855
  63  5294.853
  64  4172.633
  65  4400.102
  66  4457.597
  67  4353.207
  68  3787.176
  69  2937.371
  70  3681.789
  71  4560.997
  72  5016.396
  73  3790.99
  74  3614.374
  75  4158.391
  76  4628.516
  77  3646.772
  78  3822.699
  79  4027.313
  80  5204.414
  81  3801.522
  82  4707.01
  83  4042.847
  84  4850.146
  85  3088.995
  86  3892.482
  87  4596.831
  88  5840.951
  89  4490.883
  90  3868.734
  91  4450.586
  92  5166.604
  93  3623.515
  94  4063.176
  95  4670.331
  96  4888.937
  97  4579.354
  98  4423.896
  99  4595.656
 100  4091.326
 101  3695.067
 102  3307.139
 103  4198.792
 104  4866.628
 105  5339.251
 106  3375.796
 107  3603.975
 108  4082.217
 109  4699.792
 110  3131.877
 111  3796.181
 112  4468.769
 113  5427.529
 114  3210.037
 115  3991.384
 116  4346.653
 117  4550.422
 118  2720.486
 119  4041.674
 120  4955.187
 121  5731.209
 122  3945.078
 123  4018.91
 124  4108.648
 125  4957.291
 126  3512.303
 127  2838.188
 128  3810.359
 129  5431.799
 130  5309.156
 131  4357.831
 132  3772.614
 133  4652.247
 134  3841.019
 135  3322.234
 136  4408.833
 137  5109.819
 138  4895.731
 139  3474.917
 140  3691.491
 141  4236.318
 142  4747.295
 143  2740.437
 144  3786.079
 145  4744.157
 146  5813.071
 147  4446.94
 148  4443.886
 149  4623.27
 150  5430.403
 151  3720.57
 152  4366.951
 153  5859.449
 154  8135.229
 155  6821.052
 156  5909.351
 157  5313.949
 158  5544.907
 159  3338.535
 160  3338.974
 161  4557.608
 162  5933.067
 163  5141.491
 164  4225.437
 165  3640.141
 166  4437.319
 167  4589.741
 168  3204.484
 169  4150.094
 170  4986.013
 171  5198.453
 172  3667.954
 173  4462.187
 174  4928.384
 175  4201.473
 176  2671.745
 177  4404.972
 178  5810.395
 179  5842.65
 180  3747.149
 181  2831.886
 182  4587.706
 183  5291.786
 184  3158.429
 185  3474.128
 186  4763.548
 187  5906.148
 188  4377.295
 189  4296.822
 190  4329.903
 191  4861.352
 192  3776.72
 193  3258.501
 194  4270.282
 195  5457.956
 196  4744.851
 197  3497.667
 198  4168.597
 199  4752.368
 200  4052.729
 201  3677.576
 202  4106.278
 203  5357.223
 204  5017.547
 205  4125.627
 206  4771.44
 207  3908.448
 208  4230.404
 209  2374.152
 210  3797.921
 211  5322.398
 212  5556.441
 213  3647.263
 214  4072.666
 215  5232.199
 216  5480.316
 217  2777.754
 218  3326.641
 219  4312.799
 220  5919.862
 221  4275.453
 222  3435.447
 223  3698.596
 224  4730.173
 225  3350.2
 226  3696.59
 227  3867.601
 228  5443.474
 229  4065.492
 230  3395.335
 231  4444.602
 232  4744.969
 233  4145.983
 234  2585.503
 235  3574.426
 236  4622.061
 237  4900.57
 238  3749.132
 239  3919.079
 240  3635.699
 241  4390.684
 242  2611.964
 243  4129.149
 244  4005.625
 245  5290.013
 246  3902.703
 247  4842.924
 248  4392.292
 249  4243.703
 250  2752.861
 251  3626.465
 252  4793.958
 253  5852.928
 254  4342.281
 255  4200.205
