# Input file       =  1199537139.093935_cleaned.dat
# Candidate        =  PSR_0332+5434
# Telescope        =  AR
# Epoch_topo       =  58127.531922383510
# Epoch_bary       =  N/A
# T_sample         =  0.002
# Data Folded      =  7143424
# Data Avg         =  0.0425485478132963
# Data StdDev      =  1.00014200011045 
# Profile Bins     =  512
# Profile Avg      =  593.477751119972 
# Profile StdDev   =  118.13535733391  
# Reduced chi-sqr  =  1.105
# Prob(Noise)      <  0.0501   (~1.6 sigma)
# P_topo (ms)      =  714.562610531267  +/- 0.000176
# P'_topo (s/s)    =  -0                +/- 9.54e-11
# P''_topo (s/s^2) =  0                 +/- 4.33e-14
# P_bary (ms)      =  N/A
# P'_bary (s/s)    =  N/A
# P''_bary (s/s^2) =  N/A
# P_orb (s)        =  N/A
# asin(i)/c (s)    =  N/A
# eccentricity     =  N/A
# w (rad)          =  N/A
# T_peri           =  N/A
######################################################
   0  1063.471
   1  948.0284
   2  867.4841
   3  796.3762
   4  767.6067
   5  668.3031
   6  630.4789
   7  632.2754
   8  610.0287
   9  656.6493
  10  666.2311
  11  620.063
  12  725.4771
  13  726.1398
  14  742.6812
  15  691.2925
  16  564.2392
  17  649.8695
  18  611.7435
  19  576.6113
  20  562.324
  21  581.2596
  22  585.2346
  23  640.9086
  24  672.2701
  25  513.4084
  26  567.1757
  27  599.3544
  28  528.885
  29  601.8691
  30  661.6343
  31  707.4789
  32  520.3755
  33  394.7199
  34  568.1151
  35  665.8947
  36  621.7614
  37  532.9517
  38  532.5263
  39  606.6823
  40  616.5732
  41  630.3721
  42  683.162
  43  699.5422
  44  650.5051
  45  695.0145
  46  693.7104
  47  527.3426
  48  495.0353
  49  469.0705
  50  396.9736
  51  551.6387
  52  617.6802
  53  682.8845
  54  680.4703
  55  604.054
  56  626.5045
  57  639.0519
  58  518.9666
  59  620.8372
  60  675.6981
  61  594.5202
  62  641.9953
  63  612.9735
  64  666.4832
  65  692.7458
  66  652.0913
  67  588.3918
  68  497.6645
  69  542.7843
  70  664.4044
  71  725.6412
  72  608.0519
  73  603.0116
  74  594.6895
  75  533.7449
  76  615.6294
  77  553.0671
  78  571.8674
  79  605.3856
  80  541.6772
  81  518.3684
  82  605.1256
  83  574.0173
  84  577.2256
  85  548.3292
  86  600.7192
  87  621.7996
  88  532.0945
  89  602.0367
  90  549.2425
  91  623.2812
  92  624.6946
  93  713.7342
  94  683.8901
  95  598.9273
  96  396.5305
  97  407.628
  98  493.1462
  99  496.7078
 100  494.9708
 101  572.1741
 102  554.7736
 103  572.8978
 104  605.7729
 105  673.738
 106  577.2917
 107  430.1094
 108  575.4886
 109  522.1148
 110  642.5004
 111  805.439
 112  705.066
 113  498.9266
 114  507.3268
 115  597.0678
 116  616.2772
 117  652.9328
 118  582.7964
 119  472.3014
 120  496.5642
 121  596.5343
 122  559.3284
 123  576.9368
 124  517.3774
 125  552.7868
 126  480.2715
 127  577.8325
 128  573.1585
 129  526.6497
 130  627.3987
 131  496.4878
 132  520.4449
 133  574.6224
 134  472.6552
 135  488.0112
 136  527.0173
 137  560.072
 138  523.2778
 139  643.9774
 140  588.6047
 141  592.834
 142  566.8207
 143  555.4153
 144  712.6334
 145  715.6278
 146  632.7032
 147  510.1259
 148  580.7084
 149  728.4431
 150  618.8796
 151  598.5591
 152  552.8307
 153  641.2131
 154  563.9042
 155  619.131
 156  709.2298
 157  767.053
 158  602.7235
 159  557.2504
 160  616.2632
 161  584.2968
 162  570.3752
 163  562.3944
 164  690.4545
 165  685.5402
 166  657.519
 167  561.9852
 168  411.7635
 169  552.2543
 170  665.2454
 171  569.4412
 172  607.825
 173  600.889
 174  592.5549
 175  566.556
 176  575.0402
 177  571.4259
 178  481.4443
 179  442.6192
 180  490.9414
 181  541.0159
 182  599.4906
 183  540.0128
 184  587.2595
 185  703.791
 186  673.083
 187  578.7083
 188  576.4574
 189  597.8284
 190  609.1852
 191  824.6208
 192  798.2009
 193  698.3317
 194  760.4214
 195  605.728
 196  527.0319
 197  598.5016
 198  692.8371
 199  662.1925
 200  663.2318
 201  604.1525
 202  655.3226
 203  622.7459
 204  629.355
 205  667.726
 206  663.0122
 207  635.5295
 208  592.0007
 209  509.8748
 210  534.1202
 211  447.9265
 212  529.9517
 213  529.1693
 214  692.8181
 215  691.0326
 216  512.2773
 217  552.2751
 218  509.4488
 219  478.0005
 220  532.7343
 221  660.3876
 222  672.6413
 223  707.9049
 224  505.6103
 225  642.2343
 226  574.7407
 227  507.5446
 228  534.2846
 229  509.5758
 230  573.9503
 231  672.6252
 232  705.5632
 233  676.0142
 234  650.969
 235  756.9049
 236  718.1504
 237  483.8094
 238  409.9825
 239  569.7749
 240  558.3579
 241  538.5853
 242  583.0794
 243  613.4949
 244  490.3139
 245  471.0563
 246  548.159
 247  528.6377
 248  540.1741
 249  543.0416
 250  570.9871
 251  506.3656
 252  585.1298
 253  493.6384
 254  374.8324
 255  460.2226
 256  412.288
 257  507.6348
 258  565.1079
 259  637.546
 260  628.6656
 261  623.9403
 262  688.5421
 263  595.1646
 264  538.9716
 265  513.949
 266  540.9376
 267  612.3253
 268  723.4362
 269  804.3472
 270  644.9239
 271  571.0942
 272  629.0603
 273  742.1349
 274  718.9583
 275  637.8487
 276  610.8662
 277  540.6386
 278  521.1306
 279  549.79
 280  608.8646
 281  621.0788
 282  602.4667
 283  583.2739
 284  781.1434
 285  717.2872
 286  553.821
 287  562.1148
 288  558.1682
 289  684.425
 290  630.0926
 291  616.3411
 292  640.4343
 293  526.5872
 294  637.6653
 295  541.9476
 296  540.1577
 297  676.5131
 298  743.1838
 299  613.1776
 300  548.6915
 301  500.8402
 302  517.379
 303  576.0831
 304  472.7134
 305  518.8188
 306  661.9128
 307  650.64
 308  673.3512
 309  606.665
 310  566.215
 311  517.7709
 312  541.4747
 313  525.0258
 314  422.5821
 315  397.9662
 316  525.6537
 317  511.6649
 318  633.8347
 319  590.076
 320  537.3727
 321  536.629
 322  598.7872
 323  638.5394
 324  568.9377
 325  617.8016
 326  733.7925
 327  727.0392
 328  662.9389
 329  576.8946
 330  493.8662
 331  619.1775
 332  640.5573
 333  601.6277
 334  524.8599
 335  477.4916
 336  474.2431
 337  572.6995
 338  551.1879
 339  531.2762
 340  493.8881
 341  536.494
 342  563.496
 343  584.3106
 344  578.5074
 345  526.8703
 346  653.9175
 347  683.631
 348  589.8169
 349  557.3698
 350  570.2014
 351  590.9572
 352  616.5009
 353  613.7095
 354  691.1414
 355  693.4702
 356  668.049
 357  614.0865
 358  568.7728
 359  664.7764
 360  678.379
 361  502.0062
 362  561.5107
 363  784.9315
 364  673.496
 365  707.4544
 366  676.4144
 367  576.3919
 368  597.6207
 369  600.4953
 370  711.259
 371  705.703
 372  614.7626
 373  642.6427
 374  540.0699
 375  521.7109
 376  668.8467
 377  659.522
 378  586.4982
 379  635.7435
 380  533.0898
 381  444.8715
 382  559.2923
 383  599.548
 384  566.3102
 385  532.6165
 386  589.3342
 387  470.1664
 388  486.9456
 389  599.1751
 390  577.3843
 391  627.6385
 392  626.8125
 393  525.4052
 394  559.1735
 395  534.4784
 396  545.4489
 397  542.2307
 398  500.1588
 399  524.5063
 400  628.799
 401  650.2189
 402  585.0486
 403  492.1337
 404  526.7651
 405  671.1425
 406  437.377
 407  406.4291
 408  726.9141
 409  739.5649
 410  691.8537
 411  652.8878
 412  542.0692
 413  513.7032
 414  514.766
 415  423.8752
 416  538.3528
 417  605.8513
 418  727.4231
 419  610.9144
 420  528.4719
 421  426.1652
 422  354.102
 423  474.9615
 424  453.7318
 425  514.2597
 426  598.978
 427  608.5116
 428  566.68
 429  533.1439
 430  521.3788
 431  557.4827
 432  499.7613
 433  583.1692
 434  556.3647
 435  407.9763
 436  477.8714
 437  572.9331
 438  550.4413
 439  552.8536
 440  553.3133
 441  609.4347
 442  540.2708
 443  531.3394
 444  439.1516
 445  488.3568
 446  538.4783
 447  556.1178
 448  501.0306
 449  587.6998
 450  503.0265
 451  544.1888
 452  502.7495
 453  617.5119
 454  664.5057
 455  584.5593
 456  423.2778
 457  476.4568
 458  608.6906
 459  586.9045
 460  601.9016
 461  611.7388
 462  638.6436
 463  581.2126
 464  506.3329
 465  514.3118
 466  586.1411
 467  587.2614
 468  600.2327
 469  594.4541
 470  548.6342
 471  578.6349
 472  462.7168
 473  581.0968
 474  702.2701
 475  665.5704
 476  614.6688
 477  575.517
 478  474.5579
 479  619.0643
 480  558.1263
 481  474.4409
 482  350.0582
 483  638.4993
 484  723.346
 485  612.6848
 486  556.299
 487  537.7895
 488  625.552
 489  623.13
 490  658.3906
 491  689.4595
 492  741.8539
 493  719.8479
 494  716.8458
 495  620.3667
 496  627.3508
 497  617.8378
 498  597.1705
 499  667.5433
 500  699.8906
 501  740.9728
 502  624.8508
 503  577.9484
 504  490.2299
 505  603.3273
 506  683.0967
 507  728.8323
 508  749.8593
 509  832.3809
 510  982.0667
 511  1051.745
