# Input file       =  1199537139.093935-PSRB0329-2ms-sampling-dd.dat
# Candidate        =  PSR_0332+5434
# Telescope        =  AR
# Epoch_topo       =  58127.531922383510
# Epoch_bary       =  N/A
# T_sample         =  0.002
# Data Folded      =  7143424
# Data Avg         =  3.59846361919804e-09
# Data StdDev      =  97.6632383308471 
# Profile Bins     =  512
# Profile Avg      =  2.77888130351627 
# Profile StdDev   =  11535.8434675549 
# Reduced chi-sqr  =  1.156
# Prob(Noise)      <  0.00816   (~2.4 sigma)
# P_topo (ms)      =  714.562611753353  +/- 0.000409
# P'_topo (s/s)    =  -0                +/- 2.22e-10
# P''_topo (s/s^2) =  0                 +/- 1.01e-13
# P_bary (ms)      =  N/A
# P'_bary (s/s)    =  N/A
# P''_bary (s/s^2) =  N/A
# P_orb (s)        =  N/A
# asin(i)/c (s)    =  N/A
# eccentricity     =  N/A
# w (rad)          =  N/A
# T_peri           =  N/A
######################################################
   0  -4014.006
   1  -4413.078
   2  -1574.882
   3  -4130.272
   4  -4242.117
   5  -4484.158
   6  -5436.165
   7  -4778.387
   8  -4281.719
   9  -3985.862
  10  -3786.515
  11  -2777.545
  12  -3013.449
  13  -4322.138
  14  -6297.265
  15  -7405.291
  16  -7221.594
  17  -5940.222
  18  -4275.839
  19  -3777.829
  20  -4602.831
  21  -6783.727
  22  -6137.712
  23  -6483.124
  24  -5425.583
  25  -5889.944
  26  -4260.973
  27  -4173.298
  28  -4808.883
  29  -5048.571
  30  -5090.775
  31  -2527.967
  32  -1304.263
  33  -2934.704
  34  -3750.709
  35  -6959.717
  36  -2226.984
  37  -1590.113
  38  -1484.253
  39  8372.173
  40  16689.33
  41  28619.4
  42  29712.83
  43  34000.01
  44  32246.2
  45  11528.69
  46  27784.49
  47  33274.55
  48  31494.08
  49  25955.42
  50  24072.38
  51  20638.11
  52  7397.335
  53  5145.705
  54  2438.678
  55  -8773.602
  56  -8171.35
  57  -9152.564
  58  -9311.624
  59  -8702.637
  60  -8421.836
  61  -8524.629
  62  -7771.655
  63  -8476.935
  64  -9574.204
  65  -7383.674
  66  -7040.447
  67  -7438.853
  68  -7620.637
  69  -6833.615
  70  -7697.18
  71  -7221.155
  72  -5437.396
  73  -3268.258
  74  -1206.73
  75  -2160.818
  76  -3152.272
  77  -5090.698
  78  -1136.087
  79  -1244.576
  80  -1739.36
  81  -3141.509
  82  -6175.728
  83  -6285.653
  84  -7001.169
  85  -7059.545
  86  -6752.118
  87  -9282.364
  88  -11017.8
  89  -11093.41
  90  -9335.139
  91  -8695.084
  92  -9267.448
  93  -8810.083
  94  -8652.978
  95  -6357.515
  96  -8412.008
  97  -8731.44
  98  -10645.35
  99  -11978.7
 100  -12962.22
 101  -11877.56
 102  -10053.28
 103  -9484.834
 104  -8819.705
 105  -9422.65
 106  -9005.994
 107  -10058.83
 108  -8674.625
 109  -4152.372
 110  -176.6249
 111  1376.627
 112  15.48117
 113  -1531.089
 114  -5165.756
 115  -7323.411
 116  -5037.879
 117  -902.8231
 118  -20.24772
 119  -2111.204
 120  -3620.341
 121  -6836.402
 122  -7664.228
 123  -5407.482
 124  -2557.002
 125  -4339.432
 126  -4783.729
 127  -3792.995
 128  -7087.11
 129  -5733.521
 130  -5597.3
 131  -3975.46
 132  -6098.032
 133  -8763.396
 134  -6966.916
 135  -6264.285
 136  -5255.818
 137  -2508.04
 138  -815.554
 139  -2313.552
 140  -1567.674
 141  -2369.122
 142  -4332.099
 143  9065.817
 144  16169.02
 145  21685.64
 146  27126.55
 147  16185.98
 148  7067.609
 149  -2965.931
 150  19254.99
 151  23259.89
 152  22990.98
 153  19954.8
 154  10185.48
 155  239.958
 156  -3908.944
 157  -5808.119
 158  -7030.269
 159  -6104.55
 160  -3470.529
 161  -4469.646
 162  -5018.161
 163  -3709.332
 164  -6456.134
 165  -7077.682
 166  -5080.451
 167  -3726.75
 168  -3342.917
 169  -3096.574
 170  -3696.586
 171  -6029.977
 172  -5712.315
 173  -7032.389
 174  -4634.105
 175  -3358.745
 176  -3088.725
 177  -2754.14
 178  -5609.695
 179  -6170.479
 180  -4058.485
 181  -2404.06
 182  -4498.742
 183  -4424.644
 184  -3741.443
 185  -1924.511
 186  20263.59
 187  33673.32
 188  47253.79
 189  52099.48
 190  39116.35
 191  22330.24
 192  7720.012
 193  32701.61
 194  49051.13
 195  49198.48
 196  45715.16
 197  34996.79
 198  14125.39
 199  3189.985
 200  1473.922
 201  3218.602
 202  3274.544
 203  3955.406
 204  5448.71
 205  6178.599
 206  4157.826
 207  2454.488
 208  2551.626
 209  6438.098
 210  6498.822
 211  5061.894
 212  4964.185
 213  2168.545
 214  -1315.635
 215  -854.6729
 216  -2855.381
 217  -2767.398
 218  -1278.003
 219  -1082.839
 220  -829.882
 221  -1432.381
 222  -1850.54
 223  -820.8643
 224  3741.45
 225  7249.226
 226  6419.319
 227  5251.806
 228  3719.026
 229  1170.823
 230  2412.624
 231  3572.947
 232  4013.934
 233  3947.955
 234  2833.221
 235  290.757
 236  -62.10484
 237  3055.623
 238  7484.962
 239  9081.806
 240  9103.743
 241  7267.367
 242  3815.923
 243  3148.301
 244  7193.741
 245  7794.172
 246  7825.082
 247  8758.659
 248  8818.146
 249  7311.461
 250  6758.52
 251  8488.447
 252  5503.443
 253  3817.261
 254  6382.584
 255  6001.793
 256  7737.458
 257  6958.768
 258  4790.001
 259  2476.628
 260  1923.695
 261  626.1639
 262  847.8448
 263  1115.005
 264  -414.6606
 265  1756.876
 266  4230.325
 267  7271.045
 268  5768.626
 269  5160.463
 270  3713.455
 271  1102.051
 272  41.28622
 273  1285.43
 274  2561.767
 275  1698.825
 276  1795.044
 277  -68.6012
 278  -1222.147
 279  -4272.906
 280  -4155.276
 281  -3222.369
 282  -4293.684
 283  -3661.816
 284  -4219.18
 285  -4174.671
 286  -4166.062
 287  -3417.882
 288  -2696.089
 289  -568.59
 290  101.4913
 291  -1116.016
 292  -2199.927
 293  -4561.079
 294  -5226.69
 295  -4212.442
 296  -2758.659
 297  -2517.832
 298  -4463.147
 299  -3088.949
 300  -3926.077
 301  -5614.914
 302  -6072.723
 303  -4254.548
 304  -851.5172
 305  -1822.285
 306  -439.9097
 307  -2147.545
 308  -4837.635
 309  -5166.354
 310  -2348.957
 311  -1371.828
 312  -524.375
 313  -254.9281
 314  -2764.1
 315  -4842.885
 316  -5128.533
 317  -4292.417
 318  -3586.177
 319  -3011.315
 320  -2520.783
 321  -3198.179
 322  -5000.054
 323  -4184.501
 324  -809.5176
 325  430.3279
 326  -1061.042
 327  -3353.801
 328  -2302.598
 329  -2517.41
 330  -3357.856
 331  -1517.757
 332  -286.7712
 333  -1263.025
 334  -2499.768
 335  -3109.932
 336  -4031.876
 337  -4343.466
 338  -2972.632
 339  -3130.321
 340  -4261.72
 341  -5031.287
 342  -3313.951
 343  -3988.458
 344  -3240.579
 345  -2472.941
 346  -3652.193
 347  -1494.116
 348  -111.2123
 349  -499.4491
 350  -398.6782
 351  -660.9794
 352  -983.6664
 353  -186.08
 354  -1781.292
 355  -2579.391
 356  -3438.242
 357  -2082.36
 358  -1520.319
 359  -243.4636
 360  -952.1069
 361  1250.421
 362  872.6161
 363  3981.921
 364  5512.123
 365  6819.986
 366  5038.878
 367  1195.544
 368  580.2714
 369  689.9467
 370  -1491.065
 371  -252.5189
 372  -992.8765
 373  -2552.722
 374  -3125.882
 375  -6134.22
 376  -6783.582
 377  -8858.367
 378  -7688.493
 379  -8010.141
 380  -5070.212
 381  -3046.519
 382  -2339.968
 383  -2480.108
 384  -4380.499
 385  -5956.714
 386  -7257.838
 387  -5924.14
 388  -4796.831
 389  -2742.796
 390  -2414.196
 391  -2505.493
 392  -4572.585
 393  -5552.158
 394  -5932.809
 395  -5072.381
 396  -4539.393
 397  -4016.448
 398  -5045.081
 399  -5995.132
 400  -4735.106
 401  -4742.982
 402  -5862.605
 403  -5277.791
 404  -5235.447
 405  -5737.966
 406  -5353.182
 407  -4663.254
 408  -3527.498
 409  -3561.506
 410  -3866.854
 411  -5585.667
 412  -5628.855
 413  -5651.274
 414  -3410.924
 415  -1370.338
 416  -3716.832
 417  -3493.435
 418  -3401.72
 419  3868.848
 420  5842.549
 421  6590.726
 422  7221.854
 423  241.0462
 424  -2086.477
 425  -725.3421
 426  3410.417
 427  2962.365
 428  3073.177
 429  -384.2479
 430  -2781.04
 431  -6040.08
 432  -6075.151
 433  -5763.576
 434  -6373.639
 435  -5570.559
 436  -4900.511
 437  -3420.277
 438  -2931.617
 439  -4686.966
 440  -6076.155
 441  -5233.965
 442  -4349.557
 443  -3009.012
 444  -2019.454
 445  -1955.473
 446  -4070.65
 447  -4363.209
 448  -2482.379
 449  -3273.963
 450  -3150.877
 451  -3437.432
 452  -3359.399
 453  760.3688
 454  4535.325
 455  5602.958
 456  2411.779
 457  1068.869
 458  -1039.61
 459  868.7789
 460  3235.724
 461  5915.718
 462  10261.68
 463  7257.879
 464  5949.26
 465  -3059.084
 466  -806.8178
 467  2984.494
 468  3150.704
 469  5083.229
 470  2271.937
 471  43.89601
 472  -2651.757
 473  -619.0512
 474  -48.87092
 475  2491.735
 476  3283.372
 477  3825.875
 478  2056.264
 479  -173.1513
 480  2080.955
 481  3719.493
 482  4200.015
 483  6089.598
 484  5612.401
 485  2210.881
 486  2156.975
 487  2104.827
 488  473.633
 489  485.0649
 490  2068.858
 491  2275.146
 492  1229.044
 493  120.3766
 494  -724.4244
 495  -1620.35
 496  773.0958
 497  1140.616
 498  2831.424
 499  610.1534
 500  -783.2949
 501  -2404.703
 502  -239.3138
 503  1570.814
 504  -208.1642
 505  151.9889
 506  -1354.948
 507  -2419.132
 508  -3795.668
 509  -2418.644
 510  -2156.262
 511  -3964.861
