# Input file       =  1199795478.095342_cleaned.dat
# Candidate        =  PSR_0332+5434
# Telescope        =  AR
# Epoch_topo       =  58130.521957122015
# Epoch_bary       =  N/A
# T_sample         =  0.002
# Data Folded      =  7208960
# Data Avg         =  0.0161709544258618
# Data StdDev      =  0.999995859756647
# Profile Bins     =  512
# Profile Avg      =  227.65559959799  
# Profile StdDev   =  118.658684515667 
# Reduced chi-sqr  =  1.289
# Prob(Noise)      <  1.01e-05   (~4.3 sigma)
# P_topo (ms)      =  714.564822564761  +/- 0.000161
# P'_topo (s/s)    =  -0                +/- 8.63e-11
# P''_topo (s/s^2) =  0                 +/- 3.88e-14
# P_bary (ms)      =  N/A
# P'_bary (s/s)    =  N/A
# P''_bary (s/s^2) =  N/A
# P_orb (s)        =  N/A
# asin(i)/c (s)    =  N/A
# eccentricity     =  N/A
# w (rad)          =  N/A
# T_peri           =  N/A
######################################################
   0  104.27
   1  104.1388
   2  146.8671
   3  145.9325
   4  116.5206
   5  168.9131
   6  36.18457
   7  113.6979
   8  300.2198
   9  243.7181
  10  36.0635
  11  123.1341
  12  215.978
  13  220.1276
  14  80.28595
  15  160.8518
  16  210.6078
  17  225.5844
  18  359.5583
  19  237.212
  20  161.8876
  21  120.2277
  22  177.9446
  23  137.0186
  24  180.6163
  25  178.6038
  26  257.6651
  27  250.438
  28  258.4057
  29  256.5825
  30  209.6422
  31  238.0398
  32  147.3748
  33  165.1273
  34  200.0016
  35  246.6569
  36  235.4639
  37  201.5158
  38  146.21
  39  260.342
  40  229.1652
  41  205.7649
  42  234.2704
  43  352.4533
  44  316.2135
  45  269.9521
  46  237.978
  47  183.7736
  48  232.4104
  49  202.5555
  50  250.7193
  51  367.3444
  52  397.6732
  53  266.7125
  54  316.9272
  55  291.2452
  56  302.405
  57  477.2087
  58  608.1932
  59  554.3556
  60  639.0881
  61  879.664
  62  703.1732
  63  467.0061
  64  511.3288
  65  393.1981
  66  303.4558
  67  265.9098
  68  158.8851
  69  213.505
  70  247.8636
  71  358.0085
  72  240.323
  73  257.5917
  74  358.3504
  75  219.8359
  76  89.15043
  77  313.4566
  78  274.7851
  79  272.7036
  80  169.6508
  81  155.5793
  82  301.4171
  83  223.0483
  84  164.4944
  85  143.8251
  86  226.976
  87  299.1063
  88  290.1758
  89  294.671
  90  298.1405
  91  400.2787
  92  385.5506
  93  364.4315
  94  341.4855
  95  399.7937
  96  340.1377
  97  291.7589
  98  333.1489
  99  239.4487
 100  163.4334
 101  203.1018
 102  128.9713
 103  150.3512
 104  289.7057
 105  299.4659
 106  249.2668
 107  328.3152
 108  328.6542
 109  206.9508
 110  267.4887
 111  171.1319
 112  159.7217
 113  118.1499
 114  208.3387
 115  244.0273
 116  248.0281
 117  221.1764
 118  189.5266
 119  271.9013
 120  256.7945
 121  199.5677
 122  262.0644
 123  198.7789
 124  305.1734
 125  274.5747
 126  283.1055
 127  258.9542
 128  391.7485
 129  294.425
 130  115.0686
 131  235.045
 132  269.1236
 133  163.2533
 134  164.3337
 135  233.2133
 136  229.1988
 137  305.5523
 138  104.4516
 139  -67.68021
 140  96.23783
 141  257.1057
 142  209.5926
 143  414.7773
 144  281.2112
 145  193.834
 146  284.1905
 147  363.6424
 148  250.0464
 149  153.8636
 150  251.6499
 151  262.8983
 152  255.8993
 153  302.7757
 154  166.2705
 155  133.8328
 156  293.2517
 157  320.8099
 158  257.5367
 159  262.8115
 160  284.7043
 161  323.0435
 162  157.7241
 163  191.6355
 164  312.8492
 165  304.6339
 166  152.4705
 167  177.5344
 168  233.3557
 169  257.0714
 170  190.7628
 171  261.5969
 172  295.821
 173  394.9201
 174  366.8021
 175  232.1403
 176  196.3772
 177  214.0862
 178  244.5367
 179  213.9171
 180  215.0632
 181  278.4306
 182  219.8523
 183  229.3525
 184  260.2902
 185  380.6642
 186  383.5771
 187  296.3259
 188  270.6972
 189  221.2096
 190  310.1747
 191  371.4225
 192  191.8845
 193  240.1489
 194  373.6911
 195  234.948
 196  7.217017
 197  85.85037
 198  172.4218
 199  168.3263
 200  238.8962
 201  213.3371
 202  258.0045
 203  273.8948
 204  261.1994
 205  228.5725
 206  363.8679
 207  392.7425
 208  326.0673
 209  144.9532
 210  277.8044
 211  238.2326
 212  177.6196
 213  152.5119
 214  175.3518
 215  160.6402
 216  106.8679
 217  124.0492
 218  290.3346
 219  228.8511
 220  188.319
 221  245.0007
 222  271.6252
 223  177.7984
 224  143.7889
 225  218.7833
 226  331.3952
 227  322.0266
 228  279.2076
 229  203.4192
 230  225.0541
 231  290.9003
 232  306.812
 233  308.7884
 234  273.6993
 235  350.3231
 236  339.3686
 237  126.7518
 238  156.6896
 239  135.5996
 240  248.91
 241  256.0379
 242  253.9017
 243  216.9108
 244  176.4229
 245  321.8184
 246  261.3968
 247  227.9728
 248  182.0482
 249  175.5831
 250  178.9539
 251  163.9858
 252  119.8873
 253  84.80125
 254  164.2307
 255  164.158
 256  153.6619
 257  92.33315
 258  132.7738
 259  217.0976
 260  105.518
 261  164.6974
 262  253.389
 263  194.5178
 264  215.0657
 265  310.0019
 266  191.9162
 267  147.5601
 268  24.86195
 269  33.29716
 270  105.079
 271  240.0953
 272  291.2939
 273  342.3605
 274  163.7519
 275  93.07903
 276  118.7905
 277  176.1695
 278  176.8796
 279  317.7041
 280  319.1594
 281  208.6685
 282  28.65512
 283  98.40696
 284  149.5374
 285  197.2008
 286  172.1463
 287  224.732
 288  97.62527
 289  233.3617
 290  154.5692
 291  232.8254
 292  288.0719
 293  315.2556
 294  237.7434
 295  148.564
 296  311.7262
 297  327.2111
 298  196.2529
 299  211.6594
 300  223.4458
 301  106.9475
 302  1.711154
 303  122.0116
 304  226.0396
 305  160.2204
 306  211.7063
 307  309.0815
 308  301.9092
 309  234.2172
 310  312.5951
 311  232.6783
 312  301.4793
 313  228.1544
 314  253.686
 315  342.7797
 316  364.0555
 317  371.6065
 318  268.9724
 319  232.7744
 320  199.4499
 321  231.5244
 322  129.141
 323  130.2031
 324  457.584
 325  368.4687
 326  240.0488
 327  301.108
 328  297.8185
 329  265.0495
 330  239.7776
 331  274.9279
 332  294.8102
 333  247.1621
 334  229.0946
 335  277.753
 336  269.5008
 337  280.7869
 338  184.2911
 339  182.2033
 340  146.9298
 341  184.3741
 342  353.2978
 343  254.8896
 344  180.0061
 345  333.0254
 346  311.6799
 347  241.4762
 348  292.6589
 349  254.4694
 350  271.6382
 351  296.8896
 352  245.1846
 353  178.4012
 354  11.44606
 355  222.7938
 356  311.9135
 357  294.8381
 358  452.2978
 359  161.4171
 360  83.92284
 361  152.5785
 362  145.01
 363  232.0232
 364  294.6652
 365  141.0749
 366  164.538
 367  125.7342
 368  156.7096
 369  209.5368
 370  304.662
 371  222.6722
 372  92.40225
 373  239.4769
 374  160.3506
 375  197.006
 376  305.2368
 377  285.2809
 378  194.5133
 379  236.8439
 380  137.9971
 381  65.29531
 382  122.826
 383  91.0584
 384  162.6542
 385  216.1707
 386  314.0558
 387  40.43193
 388  -38.00269
 389  170.672
 390  235.846
 391  170.1455
 392  153.8046
 393  196.4966
 394  84.35565
 395  237.4566
 396  303.0685
 397  155.55
 398  120.1078
 399  183.7765
 400  272.7322
 401  141.2524
 402  47.97398
 403  113.2082
 404  168.4191
 405  170.0322
 406  205.3156
 407  332.4154
 408  349.527
 409  345.8557
 410  270.4595
 411  359.7567
 412  262.5159
 413  310.61
 414  298.446
 415  265.5729
 416  360.1724
 417  353.4467
 418  393.8193
 419  318.3959
 420  276.9067
 421  193.6635
 422  252.5499
 423  231.1979
 424  246.3638
 425  338.8748
 426  219.9021
 427  233.0949
 428  262.2746
 429  276.3013
 430  297.9278
 431  176.0479
 432  78.95406
 433  46.54949
 434  144.0581
 435  191.2985
 436  193.8391
 437  176.0406
 438  296.2903
 439  241.2504
 440  76.01757
 441  166.4213
 442  247.8177
 443  279.8492
 444  234.9584
 445  268.1473
 446  303.5175
 447  201.6197
 448  161.9327
 449  105.4089
 450  127.9333
 451  80.15342
 452  86.17375
 453  179.8459
 454  255.3488
 455  177.0915
 456  318.9449
 457  307.5789
 458  190.7438
 459  174.9238
 460  254.4403
 461  274.3521
 462  227.752
 463  240.6384
 464  166.9159
 465  269.6402
 466  389.9193
 467  317.4973
 468  158.6941
 469  197.1106
 470  270.7782
 471  190.8616
 472  188.005
 473  233.9387
 474  276.7614
 475  221.7486
 476  44.56258
 477  156.8598
 478  121.1137
 479  119.0081
 480  127.5611
 481  300.1798
 482  229.2388
 483  164.5597
 484  176.787
 485  150.4077
 486  163.1358
 487  132.5731
 488  212.0433
 489  279.4041
 490  184.0638
 491  103.311
 492  132.4225
 493  225.4128
 494  217.6486
 495  138.0996
 496  308.9156
 497  267.4594
 498  210.3039
 499  116.1008
 500  58.25761
 501  135.4651
 502  169.2454
 503  190.0057
 504  250.9493
 505  99.08102
 506  85.10574
 507  54.98872
 508  115.656
 509  103.6744
 510  -6.966522
 511  8.818491
