# Input file       =  1199566614.095435_cleaned.dat
# Candidate        =  PSR_0332+5434
# Telescope        =  AR
# Epoch_topo       =  58127.873068234199
# Epoch_bary       =  N/A
# T_sample         =  0.002
# Data Folded      =  7340032
# Data Avg         =  0.129003990744938
# Data StdDev      =  1.0006861894257  
# Profile Bins     =  512
# Profile Avg      =  1849.41062901188 
# Profile StdDev   =  119.815195920235 
# Reduced chi-sqr  =  0.467
# Prob(Noise)      <  1   (~0.0 sigma)
# P_topo (ms)      =  714.563225752078  +/- 5.61e-05
# P'_topo (s/s)    =  -0                +/- 2.96e-11
# P''_topo (s/s^2) =  0                 +/- 1.31e-14
# P_bary (ms)      =  N/A
# P'_bary (s/s)    =  N/A
# P''_bary (s/s^2) =  N/A
# P_orb (s)        =  N/A
# asin(i)/c (s)    =  N/A
# eccentricity     =  N/A
# w (rad)          =  N/A
# T_peri           =  N/A
######################################################
   0  1836.016
   1  1929.834
   2  1829.983
   3  1800.767
   4  1856.809
   5  1803.214
   6  1902.75
   7  1912.572
   8  1934.62
   9  1906.441
  10  1838.616
  11  1775.864
  12  1813.661
  13  1841.913
  14  1771.683
  15  1825.387
  16  1802.394
  17  1792.04
  18  1822.859
  19  1854.117
  20  1832.366
  21  1798.112
  22  1811.612
  23  1905.241
  24  1816.167
  25  1878.409
  26  1868.171
  27  1823.676
  28  1753.31
  29  1756.309
  30  1770.462
  31  1758.792
  32  1809.982
  33  1861.532
  34  1807.857
  35  1882.746
  36  1897.358
  37  1877.025
  38  1847.355
  39  1885.527
  40  2011.095
  41  1897.386
  42  1820.38
  43  1807.652
  44  1931.425
  45  1880.615
  46  1822.98
  47  1848.454
  48  1823.693
  49  1913.766
  50  1945.201
  51  1941.073
  52  1907.133
  53  1860.742
  54  1886.593
  55  1828.981
  56  1788.095
  57  1756.017
  58  1782.195
  59  1830.687
  60  1866.686
  61  1880.659
  62  1840.374
  63  1881.121
  64  1944.792
  65  1930.664
  66  1834.522
  67  1843.703
  68  1865.632
  69  1896.117
  70  1883.455
  71  1890.835
  72  1955.931
  73  1920.254
  74  1987.994
  75  1893.027
  76  1838.964
  77  1780.303
  78  1888.826
  79  1877.782
  80  1864.295
  81  1816.181
  82  1841.204
  83  1833.101
  84  1764.049
  85  1764.734
  86  1843.534
  87  1868.127
  88  1867.539
  89  1829.363
  90  1864.172
  91  1817.966
  92  1837.57
  93  1934.323
  94  1881.096
  95  1805.769
  96  1903.364
  97  1946.185
  98  1854.508
  99  1808.384
 100  1815.195
 101  1871.458
 102  1888.836
 103  1920.874
 104  1957.2
 105  1896.502
 106  1856.896
 107  1918.226
 108  1912.822
 109  1851.822
 110  1821.301
 111  1844.905
 112  1871.507
 113  1791.743
 114  1774.385
 115  1885.443
 116  1965.288
 117  2028.561
 118  1942.81
 119  1855.682
 120  1877.424
 121  1941.109
 122  1966.298
 123  1983.888
 124  1907.812
 125  1925.39
 126  1887.114
 127  1834.044
 128  1860.139
 129  1793.487
 130  1813.934
 131  1866.132
 132  1875.614
 133  1946.751
 134  1905.829
 135  1886.093
 136  1921.746
 137  1908.467
 138  1840.11
 139  1843.436
 140  1908.922
 141  1916.768
 142  1819.225
 143  1790.186
 144  1851.578
 145  1919.752
 146  1823.205
 147  1837.951
 148  1814.572
 149  1764.196
 150  1835.61
 151  1882.442
 152  1914.409
 153  1863.204
 154  1888.458
 155  1910.706
 156  1876.296
 157  1825.583
 158  1841.187
 159  1890.786
 160  1796.683
 161  1840.015
 162  1900.829
 163  1804.398
 164  1840.746
 165  1812.606
 166  1822.324
 167  1756.494
 168  1831.249
 169  1885.345
 170  1871.846
 171  1860.177
 172  1856.987
 173  1978.584
 174  1833.098
 175  1804.873
 176  1902.475
 177  1848.289
 178  1849.106
 179  1942.381
 180  1978.605
 181  1860.384
 182  1817.352
 183  1921.146
 184  1969.87
 185  1912.197
 186  1800.24
 187  1780.235
 188  1871.996
 189  1864.901
 190  1812.514
 191  1855.52
 192  1885.647
 193  1881.094
 194  1895.525
 195  1887.301
 196  1848.244
 197  1906.584
 198  1916.488
 199  1911.003
 200  1919.911
 201  1923.042
 202  1899.057
 203  1936.02
 204  1904.832
 205  1926.885
 206  1891.462
 207  1949.036
 208  1944.493
 209  1900.994
 210  1804.199
 211  1827.02
 212  1877.798
 213  1791.397
 214  1726.607
 215  1780.982
 216  1854.241
 217  1861.462
 218  1829.881
 219  1810.631
 220  1757.026
 221  1809.988
 222  1888.997
 223  1862.598
 224  1779.919
 225  1749.764
 226  1807.491
 227  1848.627
 228  1754.013
 229  1644.264
 230  1723.523
 231  1867.515
 232  1867.386
 233  1837.717
 234  1857.525
 235  1792.689
 236  1845.241
 237  1918.465
 238  1894.369
 239  1797.02
 240  1846.906
 241  1927.448
 242  1916.099
 243  1887.592
 244  1890.622
 245  1847.651
 246  1798.736
 247  1796.009
 248  1908.347
 249  1926.426
 250  1904.611
 251  1825.485
 252  1831.667
 253  1814.491
 254  1792.877
 255  1814.35
 256  1823.346
 257  1872.37
 258  1859.332
 259  1777.662
 260  1772.442
 261  1774.183
 262  1831.212
 263  1827.397
 264  1776.734
 265  1784.133
 266  1842.112
 267  1857.051
 268  1809.267
 269  1845.587
 270  1854.042
 271  1744.578
 272  1788.929
 273  1897.704
 274  1886.996
 275  1858.682
 276  1843.463
 277  1813.227
 278  1709.697
 279  1824.361
 280  1865.823
 281  1754.459
 282  1722.617
 283  1792.384
 284  1820.443
 285  1737.3
 286  1701.644
 287  1761.302
 288  1853.318
 289  1929.185
 290  1819.725
 291  1810.033
 292  1767.678
 293  1871.531
 294  1900.213
 295  1858.512
 296  1829.258
 297  1877.811
 298  1877.55
 299  1867.37
 300  1937.465
 301  1969.334
 302  1813.501
 303  1785.808
 304  1833.345
 305  1878.063
 306  1780.262
 307  1814.267
 308  1883.291
 309  1933.157
 310  1838.445
 311  1841.053
 312  1877.246
 313  1858.463
 314  1865.145
 315  1859.465
 316  1827.516
 317  1903.458
 318  1925.423
 319  1887.042
 320  1872.274
 321  1793.798
 322  1859.606
 323  1864.18
 324  1871.772
 325  1790.381
 326  1791.72
 327  1831.091
 328  1842.29
 329  1745.575
 330  1783.271
 331  1835.695
 332  1774.727
 333  1764.683
 334  1880.012
 335  1788.509
 336  1843.626
 337  1916.336
 338  1904.037
 339  1805.218
 340  1833.76
 341  1946.932
 342  1863.609
 343  1808.586
 344  1748.176
 345  1729.132
 346  1835.466
 347  1883.565
 348  1835.741
 349  1750.488
 350  1841.74
 351  1831.112
 352  1846.688
 353  1838.039
 354  1827.233
 355  1915.786
 356  1861.578
 357  1769.341
 358  1694.474
 359  1786.455
 360  1870.16
 361  1901.438
 362  1945.318
 363  1920.36
 364  1825.7
 365  1735.433
 366  1784.362
 367  1816.023
 368  1794.293
 369  1768.832
 370  1882.799
 371  1860.349
 372  1754.583
 373  1725.411
 374  1835.095
 375  1943.292
 376  1879.569
 377  1876.823
 378  1881.898
 379  1858.301
 380  1788.134
 381  1792.794
 382  1750.678
 383  1797.728
 384  1909.903
 385  1966.461
 386  1819.867
 387  1876.912
 388  1846.94
 389  1780.245
 390  1838.35
 391  1898.167
 392  1754.629
 393  1772.301
 394  1870.331
 395  1883.798
 396  1749.07
 397  1766.678
 398  1867.662
 399  1822.217
 400  1806.223
 401  1747.666
 402  1829.692
 403  1842.423
 404  1801.449
 405  1846.443
 406  1906.365
 407  1807.684
 408  1862.784
 409  1830.709
 410  1835.313
 411  1751.191
 412  1799.028
 413  1882.948
 414  1976
 415  1927.646
 416  1865.436
 417  1935.392
 418  1885.902
 419  1827.914
 420  1815.259
 421  1710.01
 422  1750.351
 423  1763.562
 424  1893.002
 425  1863.684
 426  1791.278
 427  1891.825
 428  1916.256
 429  1928.623
 430  1969.528
 431  1976.513
 432  1999.735
 433  2058.651
 434  2017.34
 435  1870.338
 436  1826.88
 437  1802.144
 438  1758.62
 439  1730.671
 440  1834.581
 441  1866.253
 442  1877.852
 443  1819.028
 444  1884.362
 445  1932.681
 446  1827.988
 447  1886.687
 448  1871.851
 449  1855.578
 450  1811.421
 451  1849.464
 452  1904.072
 453  1859.784
 454  1868.08
 455  1853.194
 456  1875.875
 457  1869.68
 458  1855.798
 459  1850.36
 460  1782.51
 461  1883.746
 462  1864.234
 463  1844.592
 464  1737.671
 465  1836.063
 466  1936.428
 467  1894.956
 468  1836.906
 469  1840.203
 470  1863.901
 471  1839.229
 472  1746.546
 473  1802.654
 474  1775.148
 475  1805.787
 476  1863.14
 477  1862.297
 478  1770.275
 479  1778.965
 480  1882.239
 481  1849.946
 482  1808.374
 483  1752.859
 484  1842.011
 485  1854.56
 486  1816.728
 487  1828.513
 488  1768.325
 489  1734.628
 490  1819.462
 491  1910.329
 492  1903.201
 493  1907.067
 494  1881.351
 495  1895.136
 496  1875.165
 497  1811.658
 498  1753.691
 499  1764.589
 500  1809.344
 501  1807.045
 502  1809.764
 503  1889.487
 504  1884.389
 505  1855.715
 506  1863.474
 507  1809.085
 508  1867.866
 509  1902.308
 510  1901.457
 511  1827.256
