# Input file       =  1199551715.14724_cleaned.dat
# Candidate        =  PSR_0332+5434
# Telescope        =  AR
# Epoch_topo       =  58127.700626704165
# Epoch_bary       =  N/A
# T_sample         =  0.002
# Data Folded      =  7340032
# Data Avg         =  0.138551098066404
# Data StdDev      =  1.00040595723999 
# Profile Bins     =  512
# Profile Avg      =  1986.23846774552 
# Profile StdDev   =  119.78164286975  
# Reduced chi-sqr  =  0.564
# Prob(Noise)      <  1   (~0.0 sigma)
# P_topo (ms)      =  714.562758892901  +/- 0.000598
# P'_topo (s/s)    =  -0                +/- 3.16e-10
# P''_topo (s/s^2) =  0                 +/- 1.39e-13
# P_bary (ms)      =  N/A
# P'_bary (s/s)    =  N/A
# P''_bary (s/s^2) =  N/A
# P_orb (s)        =  N/A
# asin(i)/c (s)    =  N/A
# eccentricity     =  N/A
# w (rad)          =  N/A
# T_peri           =  N/A
######################################################
   0  1912.871
   1  1968.882
   2  2027.692
   3  2015.073
   4  1968.928
   5  1960.531
   6  1881.318
   7  1848.119
   8  1843.319
   9  1875.464
  10  1833.656
  11  1942.877
  12  2001.502
  13  1985.937
  14  1914.562
  15  1890.982
  16  1989.816
  17  2049.658
  18  2078.015
  19  2068.361
  20  1921.891
  21  1972.098
  22  1987.074
  23  2055.799
  24  1989.841
  25  1996.987
  26  2061.492
  27  1932.839
  28  2031.385
  29  2057.699
  30  2011.705
  31  1902.242
  32  1931.681
  33  2030.24
  34  2034.228
  35  1932.791
  36  1984.358
  37  2077.375
  38  1960.328
  39  1924.536
  40  1922.552
  41  1971.221
  42  1945.272
  43  1904.114
  44  1957.63
  45  1957.561
  46  1960.973
  47  1933.089
  48  1940.224
  49  1966.428
  50  1968.591
  51  1984.931
  52  1984.744
  53  1959.383
  54  1934.882
  55  1998.656
  56  1924.386
  57  1863.086
  58  1987.282
  59  2027.479
  60  2055.754
  61  1996.265
  62  1932.749
  63  1842.156
  64  1831.471
  65  1839.007
  66  1979.159
  67  2048.278
  68  2001.062
  69  1987.134
  70  1934.56
  71  2013.325
  72  1967.427
  73  1967.373
  74  2047.748
  75  2038.234
  76  1986.16
  77  1985.759
  78  1987.757
  79  1991.932
  80  2042.86
  81  2021.129
  82  1993.092
  83  1941.286
  84  2001.549
  85  2084.889
  86  2083.865
  87  2065.922
  88  2008.302
  89  2031.776
  90  2057.336
  91  2042.942
  92  2005.077
  93  2018.058
  94  1987.653
  95  2013.558
  96  1968.518
  97  1934.321
  98  1923.617
  99  2036.11
 100  2020.566
 101  1991.252
 102  2013.004
 103  2034.827
 104  2026.88
 105  1915.121
 106  1831.075
 107  1824.545
 108  1943.989
 109  1884.912
 110  1867.056
 111  1890.975
 112  2016.861
 113  1939.263
 114  1964.621
 115  1935.25
 116  1968.788
 117  1918.412
 118  1923.875
 119  1936.335
 120  1960.959
 121  1890.431
 122  1989.398
 123  2057.618
 124  2046.509
 125  1947.906
 126  2005.418
 127  1910.884
 128  1815.649
 129  1859.219
 130  1946.021
 131  1911.255
 132  1889.177
 133  1949.464
 134  1932.744
 135  1954.416
 136  2021.245
 137  2107.709
 138  2075.778
 139  1967.253
 140  2092.418
 141  2288.556
 142  2322.016
 143  2342.952
 144  2229.963
 145  2066.667
 146  2024.221
 147  2028.926
 148  2097.716
 149  2030.339
 150  1915.753
 151  1974.596
 152  1987.216
 153  1974.829
 154  1979.781
 155  2033.408
 156  2049.152
 157  2044.317
 158  2030.644
 159  1946.698
 160  1907.605
 161  1940.83
 162  1954.71
 163  1982.976
 164  2008.021
 165  2045.545
 166  2041.294
 167  2026.76
 168  2001.645
 169  2004.172
 170  1964.631
 171  2008.21
 172  2059.84
 173  2011.285
 174  1933.073
 175  1951.933
 176  2020.485
 177  2012.705
 178  1889.555
 179  1966.666
 180  2011.975
 181  2030.965
 182  2007.725
 183  2004.033
 184  2041.95
 185  1996.286
 186  1913.798
 187  1933.712
 188  1973.907
 189  1988.787
 190  1979.742
 191  2015.475
 192  2014.011
 193  1984.704
 194  1999.979
 195  1977.422
 196  1852.768
 197  1952.34
 198  2055.397
 199  1948.059
 200  1959.727
 201  2079.671
 202  2107.62
 203  1984.412
 204  1949.45
 205  2075.524
 206  2012.767
 207  1854.184
 208  1905.252
 209  1917.542
 210  2047.404
 211  2040.476
 212  1951.291
 213  1973.24
 214  1978.683
 215  2016.603
 216  2002.282
 217  1916.707
 218  1922.477
 219  1967.315
 220  1995.249
 221  1922.952
 222  1980.782
 223  2091.133
 224  1990.746
 225  1949.047
 226  2018.323
 227  1983.706
 228  2018.21
 229  2072.959
 230  2071.272
 231  1937.34
 232  1950.817
 233  1980.53
 234  1969.335
 235  2029.687
 236  1981.2
 237  2034.51
 238  2118.885
 239  2079.015
 240  2133.253
 241  2024.616
 242  1925.694
 243  2042.399
 244  2114.804
 245  2091.535
 246  2006.23
 247  2120.657
 248  2067.635
 249  2014.088
 250  1998.245
 251  2000.671
 252  2120.097
 253  2028.274
 254  2008.239
 255  2076.24
 256  2064.896
 257  2085.987
 258  2111.869
 259  2068.806
 260  1989.318
 261  1949.157
 262  2001.139
 263  2021.238
 264  2018.939
 265  1997.663
 266  2021.74
 267  2011.168
 268  1975.513
 269  1952.503
 270  1932.245
 271  2001.159
 272  2032.561
 273  1953.818
 274  1892.105
 275  1974.255
 276  2002.641
 277  2012.347
 278  1945.187
 279  1933.507
 280  1988.427
 281  1929.882
 282  1872.885
 283  1885.631
 284  1890.858
 285  1940.256
 286  2013.976
 287  2057.906
 288  2016.183
 289  1954.314
 290  1937.928
 291  1940.945
 292  1979.759
 293  1980.013
 294  2031.461
 295  2116.091
 296  2067.699
 297  2033.202
 298  1936.572
 299  1932.669
 300  1862.946
 301  1965.265
 302  2038.989
 303  2013.471
 304  1880.356
 305  1890.791
 306  1944.988
 307  1941.994
 308  2010.218
 309  2051.4
 310  2020.103
 311  2044.662
 312  1982.582
 313  2012.489
 314  2018.208
 315  2119.978
 316  2087.548
 317  1999.94
 318  1906.89
 319  1996.044
 320  1984.894
 321  1980.125
 322  1952.229
 323  1978.712
 324  1912.959
 325  1953.161
 326  2045.507
 327  1988.793
 328  1913.699
 329  1935.917
 330  1998.329
 331  1989.179
 332  1970.938
 333  1981.437
 334  1973.883
 335  2010.038
 336  1959.612
 337  1977.874
 338  1942.997
 339  1923.177
 340  1984.429
 341  2005.707
 342  2062.689
 343  2043.787
 344  2003.639
 345  1925.555
 346  1900.702
 347  2023.288
 348  2066.672
 349  2099.201
 350  2066.827
 351  2032.103
 352  1961.417
 353  1985.412
 354  1919.626
 355  1997.166
 356  1994.287
 357  1982.814
 358  2034.372
 359  2026.853
 360  1917.06
 361  1919.938
 362  1958.063
 363  1991.482
 364  2046.882
 365  1990.191
 366  1997.201
 367  1953.325
 368  2021.667
 369  2019.036
 370  1990.507
 371  1962.336
 372  1997.616
 373  1977.969
 374  1979.197
 375  2020.277
 376  2047.308
 377  2098.594
 378  2043.604
 379  1957.793
 380  2033.979
 381  2048.844
 382  1988.346
 383  2041.683
 384  2076.277
 385  2055.873
 386  2050.797
 387  2057.7
 388  1950.23
 389  1901.362
 390  1897.93
 391  1959.553
 392  2012.314
 393  1924.973
 394  1980.789
 395  1916.817
 396  1952.718
 397  1946.661
 398  1917.975
 399  1977.792
 400  2052.564
 401  2051.935
 402  2056.784
 403  1953.055
 404  1935.186
 405  1958.541
 406  2021
 407  1975.633
 408  1940.091
 409  2063.184
 410  2023.98
 411  1927.307
 412  1950.827
 413  1987.09
 414  1927.111
 415  1936.917
 416  1996.41
 417  2012.552
 418  1875.662
 419  1928.194
 420  1917.306
 421  1888.983
 422  1967.812
 423  2010.224
 424  2027.553
 425  2064.536
 426  2042.874
 427  1976.232
 428  1993.782
 429  2001.08
 430  2014.319
 431  2073.426
 432  2053.267
 433  2088.213
 434  2079.804
 435  2077.453
 436  1942.29
 437  1984.247
 438  2094.239
 439  2080.131
 440  2063.245
 441  2048.176
 442  1956.041
 443  2011.971
 444  2099.636
 445  2011.645
 446  1990.338
 447  2039.465
 448  1974.478
 449  1956.505
 450  1911.686
 451  1873.09
 452  1875.213
 453  1902.651
 454  1915.59
 455  1901.47
 456  1936.48
 457  1933.196
 458  1954.734
 459  1969.539
 460  1985.307
 461  1934.163
 462  1935.271
 463  1958.188
 464  1992.126
 465  1970.469
 466  1965.922
 467  2049.442
 468  1970.627
 469  1972.941
 470  2004.165
 471  2039.323
 472  1968.979
 473  1989.382
 474  2022.677
 475  2000.901
 476  2000.637
 477  2001.209
 478  1996.888
 479  1936.468
 480  1995.477
 481  2026.276
 482  2004.908
 483  1985.914
 484  1838.625
 485  1867.045
 486  1892.123
 487  1915.764
 488  1914.155
 489  1993.239
 490  2028.478
 491  1951.808
 492  2003.027
 493  2050.689
 494  2037.592
 495  1999.344
 496  1952.573
 497  1950.902
 498  1936.716
 499  1954.273
 500  1894.005
 501  1895.053
 502  1978.94
 503  1948.141
 504  1943.096
 505  1946.646
 506  1915.6
 507  1903.727
 508  1961.267
 509  1956.029
 510  1907.321
 511  1900.761
