# Input file       =  1199795478.095342_cleaned.dat
# Candidate        =  PSR_0332+5434
# Telescope        =  AR
# Epoch_topo       =  58130.521957122015
# Epoch_bary       =  N/A
# T_sample         =  0.002
# Data Folded      =  7208960
# Data Avg         =  0.0161709544258618
# Data StdDev      =  0.999995859756647
# Profile Bins     =  512
# Profile Avg      =  227.65560438701  
# Profile StdDev   =  118.658684515667 
# Reduced chi-sqr  =  1.291
# Prob(Noise)      <  9.31e-06   (~4.3 sigma)
# P_topo (ms)      =  714.564821240759  +/- 0.00016
# P'_topo (s/s)    =  -0                +/- 8.57e-11
# P''_topo (s/s^2) =  0                 +/- 3.85e-14
# P_bary (ms)      =  N/A
# P'_bary (s/s)    =  N/A
# P''_bary (s/s^2) =  N/A
# P_orb (s)        =  N/A
# asin(i)/c (s)    =  N/A
# eccentricity     =  N/A
# w (rad)          =  N/A
# T_peri           =  N/A
######################################################
   0  873.0447
   1  724.5141
   2  469.9721
   3  512.3932
   4  400.6069
   5  305.9058
   6  267.6378
   7  159.8779
   8  211.2099
   9  245.4776
  10  355.1639
  11  247.6283
  12  248.4975
  13  361.2343
  14  233.2461
  15  84.74851
  16  302.0482
  17  280.1911
  18  271.5029
  19  179.4558
  20  147.9197
  21  297.622
  22  229.9438
  23  164.0578
  24  144.0248
  25  222.11
  26  298.9784
  27  288.5917
  28  297.0005
  29  298.0159
  30  391.9024
  31  388.0981
  32  367.887
  33  339.877
  34  397.9413
  35  345.8682
  36  288.9448
  37  335.8289
  38  243.4754
  39  166.7903
  40  199.3136
  41  134.4743
  42  147.1349
  43  281.9961
  44  301.8615
  45  248.6653
  46  323.231
  47  332.7427
  48  209.1748
  49  267.4546
  50  175.6858
  51  162.3717
  52  113.7176
  53  205.9335
  54  243.8164
  55  247.6391
  56  225.3671
  57  185.3651
  58  271.5588
  59  256.2907
  60  203.6956
  61  260.7064
  62  197.5419
  63  302.8036
  64  277.0646
  65  283.8874
  66  255.6589
  67  386.2416
  68  305.8964
  69  116.614
  70  229.2035
  71  270.2729
  72  170.3186
  73  159.5126
  74  234.6723
  75  225.5363
  76  307.5444
  77  116.0779
  78  -68.01203
  79  85.28571
  80  254.1897
  81  209.0869
  82  407.6036
  83  292.5767
  84  191.0583
  85  278.5891
  86  367.4637
  87  253.607
  88  156.1418
  89  247.7182
  90  263.1722
  91  255.5591
  92  299.8922
  93  175.2376
  94  128.4803
  95  287.6282
  96  322.3785
  97  262.0141
  98  259.8066
  99  285.9817
 100  322.4802
 101  163.7227
 102  182.6101
 103  314.58
 104  305.973
 105  157.3352
 106  173.7223
 107  232.7014
 108  260.6825
 109  189.0907
 110  258.2832
 111  292.2158
 112  390.6629
 113  376.0056
 114  234.9472
 115  200.0193
 116  209.4039
 117  241.7932
 118  219.6559
 119  207.1144
 120  281.3882
 121  219.6091
 122  229.1078
 123  258.8934
 124  372.6438
 125  390.3188
 126  296.7552
 127  273.8859
 128  221.5624
 129  300.6128
 130  377.4053
 131  197.4126
 132  232.5324
 133  375.1713
 134  249.4963
 135  9.715973
 136  74.83403
 137  176.9263
 138  162.9917
 139  238.5529
 140  213.5225
 141  252.7446
 142  275.4739
 143  261.8875
 144  226.9687
 145  357.2535
 146  393.7241
 147  335.1907
 148  148.9643
 149  271.4956
 150  242.2075
 151  181.9685
 152  152.4951
 153  171.5318
 154  165.7773
 155  107.8526
 156  115.5019
 157  287.1119
 158  236.4461
 159  183.623
 160  243.8294
 161  272.9863
 162  185.6484
 163  143.6698
 164  207.5114
 165  333.2045
 166  317.8116
 167  288.3152
 168  203.6154
 169  224.0546
 170  287.3866
 171  306.9779
 172  306.6994
 173  277.0774
 174  341.5093
 175  350.5994
 176  130.5752
 177  155.5204
 178  138.0209
 179  242.6525
 180  257.5834
 181  252.9721
 182  219.0909
 183  175.3256
 184  312.5657
 185  270.4037
 186  225.8813
 187  188.8527
 188  172.086
 189  180.3696
 190  164.9917
 191  122.7334
 192  82.97485
 193  159.356
 194  167.1204
 195  153.7984
 196  96.40841
 197  124.467
 198  221.2648
 199  107.6035
 200  158.3945
 201  253.8042
 202  195.3505
 203  207.5917
 204  314.0488
 205  196.3239
 206  152.841
 207  30.33729
 208  27.95122
 209  100.7763
 210  232.2676
 211  291.6978
 212  346.1065
 213  172.3302
 214  93.93349
 215  110.9724
 216  179.2762
 217  172.2204
 218  309.3257
 219  326.5117
 220  217.1216
 221  33.70223
 222  90.59193
 223  146.4385
 224  199.036
 225  170.6868
 226  227.4125
 227  94.67159
 228  232.3691
 229  156.3892
 230  226.5584
 231  287.5083
 232  315.1774
 233  245.1881
 234  144.4182
 235  303.9881
 236  333.1548
 237  201.935
 238  212.2037
 239  222.5185
 240  117.701
 241  -0.7041968
 242  113.0401
 243  225.3264
 244  165.1626
 245  201.814
 246  309.314
 247  301.6949
 248  236.3296
 249  309.0764
 250  235.497
 251  299.8838
 252  232.7898
 253  247.5453
 254  341.6582
 255  360.6504
 256  380.5305
 257  271.9018
 258  232.126
 259  199.3261
 260  230.8414
 261  137.3686
 262  117.4663
 263  449.3931
 264  381.9846
 265  236.8815
 266  298.2041
 267  303.025
 268  262.3271
 269  241.3944
 270  270.3404
 271  299.9788
 272  245.4186
 273  233.3241
 274  271.596
 275  273.4057
 276  278.9503
 277  190.3598
 278  177.1635
 279  154.873
 280  171.1164
 281  352.3451
 282  263.7652
 283  177.6142
 284  327.3278
 285  314.8781
 286  242.1494
 287  290.8954
 288  256.5425
 289  268.2764
 290  297.9011
 291  245.6349
 292  191.6456
 293  10.97092
 294  208.5542
 295  316.3822
 296  286.8821
 297  453.7993
 298  175.4149
 299  83.39829
 300  148.7146
 301  146.195
 302  221.8005
 303  300.4059
 304  144.3088
 305  164.6588
 306  128.101
 307  153.8547
 308  206.0894
 309  303.4365
 310  230.804
 311  89.57265
 312  235.2643
 313  166.4751
 314  188.7003
 315  305.7299
 316  291.6589
 317  194.7427
 318  231.1032
 319  150.464
 320  60.30797
 321  128.6951
 322  84.55783
 323  162.6774
 324  207.006
 325  320.4211
 326  56.70329
 327  -47.79572
 328  164.1337
 329  232.7956
 330  174.5265
 331  151.5974
 332  199.7417
 333  84.86587
 334  228.4206
 335  306.7469
 336  165.1387
 337  116.0227
 338  177.1385
 339  270.3045
 340  156.0252
 341  48.26398
 342  108.3286
 343  166.946
 344  168.5952
 345  204.5778
 346  322.1482
 347  352.6373
 348  346.0258
 349  272.4358
 350  360.274
 351  264.7454
 352  302.3076
 353  307.1179
 354  259.5411
 355  360.8351
 356  352.5999
 357  391.8358
 358  324.186
 359  278.4356
 360  197.8302
 361  249.3203
 362  234.0652
 363  242.4185
 364  335.968
 365  227.0699
 366  229.6385
 367  261.8208
 368  272.3689
 369  299.9063
 370  184.7555
 371  83.13998
 372  45.05383
 373  135.3203
 374  191.4268
 375  195.3079
 376  175.4787
 377  289.1631
 378  255.5131
 379  74.69381
 380  161.8801
 381  244.3207
 382  278.4208
 383  235.4072
 384  265.8964
 385  304.8458
 386  206.019
 387  167.2885
 388  107.3138
 389  124.9443
 390  86.31052
 391  78.87442
 392  178.8367
 393  250.903
 394  177.5955
 395  312.311
 396  314.6877
 397  198.8092
 398  164.9964
 399  255.2018
 400  271.417
 401  234.8674
 402  237.7708
 403  169.5105
 404  257.5886
 405  393.1624
 406  322.5947
 407  165.307
 408  189.2673
 409  268.2624
 410  200.8072
 411  185.1284
 412  234.7001
 413  268.8238
 414  232.9412
 415  47.9506
 416  154.0738
 417  121.212
 418  121.7856
 419  118.4467
 420  293.473
 421  238.0115
 422  166.1177
 423  179.0482
 424  148.1002
 425  164.6857
 426  128.9733
 427  210.6622
 428  277.4952
 429  188.6583
 430  108.9193
 431  126.7281
 432  224.6512
 433  218.7516
 434  136.8365
 435  299.544
 436  274.4691
 437  215.9094
 438  121.362
 439  54.25705
 440  132.0831
 441  165.9419
 442  187.9173
 443  255.4807
 444  104.6672
 445  82.52785
 446  55.03884
 447  115.7436
 448  105.4395
 449  -2.169392
 450  4.523571
 451  101.3157
 452  106.0166
 453  140.6342
 454  151.8558
 455  109.2309
 456  173.5839
 457  43.20229
 458  103.8818
 459  292.6428
 460  257.1666
 461  36.89447
 462  119.3476
 463  209.1341
 464  230.0626
 465  79.477
 466  156.8762
 467  207.0358
 468  223.7614
 469  353.7978
 470  248.5545
 471  165.2098
 472  118.238
 473  176.9792
 474  136.9279
 475  181.297
 476  176.3475
 477  255.5334
 478  248.8555
 479  260.8379
 480  256.5823
 481  210.7987
 482  239.4922
 483  150.8673
 484  162.6557
 485  195.3699
 486  249.0892
 487  232.8262
 488  204.5829
 489  144.2719
 490  257.7837
 491  233.6165
 492  206.624
 493  228.2402
 494  347.1683
 495  323.5231
 496  270.2732
 497  242.6722
 498  180.6724
 499  233.033
 500  201.5248
 501  247.184
 502  359.0766
 503  402.8959
 504  272.0352
 505  310.6929
 506  298.1566
 507  294.6686
 508  466.1472
 509  607.1074
 510  556.6656
 511  626.7433
