# Input file       =  1199967776.101105_cleaned.dat
# Candidate        =  PSR_0332+5434
# Telescope        =  AR
# Epoch_topo       =  58132.516147003531
# Epoch_bary       =  N/A
# T_sample         =  0.002
# Data Folded      =  7405568
# Data Avg         =  0.0194517789624274
# Data StdDev      =  1.00015390933218 
# Profile Bins     =  512
# Profile Avg      =  281.201058796701 
# Profile StdDev   =  120.284881143831 
# Reduced chi-sqr  =  1.593
# Prob(Noise)      <  3e-16   (~8.1 sigma)
# P_topo (ms)      =  714.566229387426  +/- 0.000209
# P'_topo (s/s)    =  -0                +/- 1.09e-10
# P''_topo (s/s^2) =  0                 +/- 4.78e-14
# P_bary (ms)      =  N/A
# P'_bary (s/s)    =  N/A
# P''_bary (s/s^2) =  N/A
# P_orb (s)        =  N/A
# asin(i)/c (s)    =  N/A
# eccentricity     =  N/A
# w (rad)          =  N/A
# T_peri           =  N/A
######################################################
   0  283.1179
   1  251.3451
   2  289.8708
   3  266.1539
   4  305.2035
   5  369.5233
   6  267.8321
   7  233.2928
   8  354.2284
   9  414.0796
  10  203.1347
  11  234.6522
  12  367.9537
  13  404.7042
  14  327.0036
  15  423.4642
  16  317.9049
  17  272.2065
  18  438.8
  19  347.1313
  20  315.1399
  21  273.112
  22  225.531
  23  237.5972
  24  238.4825
  25  282.1167
  26  387.3575
  27  312.0948
  28  322.9095
  29  170.4731
  30  44.50349
  31  111.7952
  32  168.0892
  33  255.3233
  34  350.7651
  35  331.8434
  36  318.6418
  37  418.9254
  38  270.4248
  39  185.9763
  40  231.2651
  41  232.1919
  42  402.2698
  43  358.0243
  44  229.3856
  45  269.5021
  46  277.2899
  47  346.8803
  48  463.469
  49  523.8433
  50  469.2055
  51  379.3614
  52  310.5452
  53  305.9775
  54  277.2291
  55  277.6041
  56  359.8622
  57  271.5947
  58  113.7859
  59  167.5336
  60  265.2914
  61  273.0407
  62  203.692
  63  333.9536
  64  354.5469
  65  232.7219
  66  289.0315
  67  175.7139
  68  119.2941
  69  309.1159
  70  255.1727
  71  298.7129
  72  229.5382
  73  192.8326
  74  214.7689
  75  190.0253
  76  243.1584
  77  150.1502
  78  213.0228
  79  388.3344
  80  375.427
  81  309.1757
  82  253.5278
  83  168.459
  84  300.757
  85  315.974
  86  211.98
  87  188.4323
  88  147.345
  89  265.946
  90  322.697
  91  384.7479
  92  462.7815
  93  283.1404
  94  345.0842
  95  194.377
  96  103.6295
  97  131.1013
  98  367.1129
  99  409.4188
 100  308.3882
 101  346.4996
 102  279.4937
 103  171.8891
 104  308.6168
 105  283.0412
 106  207.5056
 107  252.4693
 108  294.4943
 109  245.7483
 110  292.7143
 111  266.7172
 112  213.7675
 113  212.8555
 114  240.1413
 115  139.5225
 116  28.80344
 117  170.8133
 118  396.9042
 119  323.7714
 120  155.3733
 121  221.9493
 122  184.9882
 123  157.2226
 124  249.2691
 125  369.6783
 126  341.152
 127  109.1507
 128  213.4473
 129  242.3053
 130  144.6451
 131  270.7762
 132  329.9618
 133  366.5763
 134  222.5578
 135  184.2717
 136  328.2564
 137  248.5217
 138  249.0499
 139  102.7099
 140  42.13233
 141  210.4564
 142  216.5647
 143  184.4675
 144  128.4083
 145  79.44399
 146  385.5685
 147  274.2558
 148  290.8867
 149  140.5767
 150  166.9579
 151  144.3438
 152  167.2754
 153  177.4845
 154  240.2626
 155  270.1082
 156  234.8727
 157  354.4751
 158  317.624
 159  199.6381
 160  159.9083
 161  285.6318
 162  339.3403
 163  182.4095
 164  237.9592
 165  226.6392
 166  252.206
 167  202.1953
 168  200.3679
 169  168.3803
 170  172.8826
 171  158.5283
 172  306.0156
 173  259.4704
 174  328.1071
 175  443.4772
 176  272.0162
 177  191.7721
 178  177.3553
 179  243.0332
 180  225.1374
 181  260.2667
 182  232.7312
 183  251.1132
 184  309.3102
 185  198.5111
 186  222.0695
 187  304.4247
 188  284.6832
 189  264.6663
 190  168.3952
 191  264.0382
 192  175.1501
 193  219.8475
 194  256.5498
 195  286.5992
 196  225.6029
 197  231.4823
 198  291.6961
 199  338.2065
 200  405.7205
 201  366.8501
 202  255.0682
 203  297.8351
 204  278.4649
 205  329.4125
 206  211.283
 207  137.67
 208  182.17
 209  295.3764
 210  374.2682
 211  385.3546
 212  288.3021
 213  144.6796
 214  269.424
 215  212.8534
 216  96.80167
 217  77.97583
 218  128.748
 219  231.3104
 220  268.5037
 221  122.8595
 222  112.2334
 223  325.2816
 224  374.3285
 225  354.843
 226  301.8674
 227  310.0292
 228  223.6451
 229  240.6446
 230  406.3487
 231  418.4276
 232  345.0567
 233  334.9766
 234  400.1932
 235  286.3632
 236  363.7085
 237  393.9376
 238  498.4247
 239  508.8309
 240  583.006
 241  805.3838
 242  884.1127
 243  1017.842
 244  1128.71
 245  937.9598
 246  577.4345
 247  332.4224
 248  372.1659
 249  311.2912
 250  295.6469
 251  231.8865
 252  168.3183
 253  228.298
 254  123.2843
 255  273.1495
 256  267.6731
 257  162.9444
 258  237.2079
 259  274.5072
 260  293.9059
 261  322.3307
 262  280.3917
 263  237.966
 264  315.5769
 265  304.8028
 266  374.5912
 267  234.6336
 268  185.6612
 269  325.3074
 270  315.1957
 271  302.4189
 272  230.5088
 273  252.3952
 274  347.1633
 275  104.1118
 276  164.7714
 277  308.1933
 278  327.5045
 279  228.3417
 280  251.2489
 281  153.1407
 282  181.16
 283  203.5567
 284  197.7632
 285  260.0672
 286  325.3437
 287  252.1225
 288  169.0704
 289  224.5288
 290  422.1175
 291  413.8829
 292  337.7639
 293  200.8126
 294  172.6058
 295  213.3354
 296  296.7151
 297  302.139
 298  353.0692
 299  308.9341
 300  206.2234
 301  147.2156
 302  295.5608
 303  458.1704
 304  389.6671
 305  245.0285
 306  331.0105
 307  371.3266
 308  333.8439
 309  252.2355
 310  237.7705
 311  261.8583
 312  252.862
 313  227.3472
 314  227.6348
 315  287.7038
 316  399.4656
 317  410.4194
 318  226.7563
 319  341.048
 320  371.5084
 321  351.7023
 322  307.9404
 323  315.3067
 324  206.2015
 325  199.9133
 326  226.6559
 327  306.433
 328  254.1143
 329  190.2069
 330  274.7021
 331  265.6379
 332  100.8974
 333  186.8786
 334  353.0863
 335  395.8305
 336  461.6099
 337  363.4098
 338  390.3748
 339  379.8556
 340  274.6006
 341  243.7269
 342  353.8684
 343  352.282
 344  416.2408
 345  342.7935
 346  318.3882
 347  391.419
 348  351.033
 349  395.3325
 350  292.4295
 351  308.7704
 352  333.8152
 353  240.5294
 354  245.4031
 355  199.4679
 356  166.6886
 357  178.2505
 358  313.0101
 359  326.8214
 360  164.8813
 361  172.9267
 362  82.30604
 363  71.73069
 364  143.4253
 365  105.3852
 366  270.1452
 367  209.383
 368  201.888
 369  287.6622
 370  445.3263
 371  436.422
 372  359.1728
 373  316.5573
 374  242.9579
 375  270.7917
 376  320.8503
 377  365.0933
 378  288.8851
 379  264.6568
 380  344.8814
 381  275.6375
 382  267.0127
 383  328.8243
 384  183.63
 385  124.1452
 386  189.4583
 387  386.7079
 388  335.0778
 389  299.2059
 390  292.8627
 391  305.114
 392  242.0503
 393  273.7875
 394  203.8306
 395  167.4641
 396  265.3558
 397  327.9782
 398  341.6338
 399  308.0469
 400  368.4312
 401  277.2241
 402  363.8208
 403  379.0336
 404  366.4329
 405  306.3045
 406  201.6056
 407  220.2382
 408  269.396
 409  239.1608
 410  233.9968
 411  287.5941
 412  302.7387
 413  320.9972
 414  239.876
 415  145.7312
 416  223.2764
 417  276.7549
 418  293.4702
 419  232.615
 420  325.6044
 421  319.3213
 422  466.1228
 423  371.6929
 424  280.0864
 425  126.08
 426  331.6329
 427  403.726
 428  263.8862
 429  302.5239
 430  172.7635
 431  255.9399
 432  309.721
 433  140.697
 434  236.5725
 435  188.8523
 436  294.4035
 437  285.3421
 438  208.884
 439  161.123
 440  121.8173
 441  160.8548
 442  265.8285
 443  361.7354
 444  405.9343
 445  368.5717
 446  293.7619
 447  302.2828
 448  292.3542
 449  388.7011
 450  280.8042
 451  135.7631
 452  215.5671
 453  233.9118
 454  445.6006
 455  337.7365
 456  320.3872
 457  369.7566
 458  333.4801
 459  314.4666
 460  187.3382
 461  147.9581
 462  276.1822
 463  388.2403
 464  305.4388
 465  399.3536
 466  387.8952
 467  319.8849
 468  196.1141
 469  108.0167
 470  153.199
 471  183.9666
 472  327.4012
 473  225.192
 474  310.718
 475  297.4588
 476  317.9586
 477  209.7994
 478  222.9996
 479  203.8448
 480  271.09
 481  313.8671
 482  271.8511
 483  263.8918
 484  456.5372
 485  435.1048
 486  379.7508
 487  261.5605
 488  197.11
 489  285.4155
 490  363.4695
 491  383.4827
 492  318.211
 493  268.8583
 494  219.2933
 495  361.9847
 496  257.0977
 497  380.3771
 498  315.9584
 499  211.4475
 500  188.203
 501  307.8188
 502  370.2831
 503  391.1591
 504  340.7683
 505  285.8251
 506  229.6443
 507  257.5288
 508  376.8253
 509  366.4426
 510  369.7007
 511  307.775
