# Input file       =  1199795478.095342_cleaned.dat
# Candidate        =  PSR_0332+5434
# Telescope        =  AR
# Epoch_topo       =  58130.521957122015
# Epoch_bary       =  N/A
# T_sample         =  0.002
# Data Folded      =  7208960
# Data Avg         =  0.158299371824515
# Data StdDev      =  5.6994610088347  
# Profile Bins     =  512
# Profile Avg      =  2228.76663535268 
# Profile StdDev   =  676.29334577569  
# Reduced chi-sqr  =  0.556
# Prob(Noise)      <  1   (~0.0 sigma)
# P_topo (ms)      =  714.564822564761  +/- 4e-05
# P'_topo (s/s)    =  -0                +/- 2.15e-11
# P''_topo (s/s^2) =  0                 +/- 9.67e-15
# P_bary (ms)      =  N/A
# P'_bary (s/s)    =  N/A
# P''_bary (s/s^2) =  N/A
# P_orb (s)        =  N/A
# asin(i)/c (s)    =  N/A
# eccentricity     =  N/A
# w (rad)          =  N/A
# T_peri           =  N/A
######################################################
   0  2059.124
   1  1731.381
   2  1841.332
   3  2139.857
   4  2089.97
   5  1903.879
   6  1463.667
   7  1915.79
   8  2510.037
   9  2050.928
  10  1517.373
  11  2185.863
  12  2587.665
  13  2523.885
  14  1899.009
  15  1942.479
  16  2100.841
  17  2059.534
  18  2090.37
  19  2089.376
  20  2388.434
  21  2273.604
  22  2294.974
  23  1831.073
  24  2095.374
  25  2133.363
  26  1906.917
  27  2099.175
  28  2641.774
  29  2952.895
  30  2184.496
  31  1775.388
  32  1948.259
  33  1952.333
  34  2023.168
  35  2166.442
  36  2420.961
  37  2240.417
  38  1861.963
  39  1960.171
  40  1930.14
  41  2076.831
  42  1960.074
  43  1960.224
  44  2340.458
  45  2678.929
  46  2653.345
  47  2105.25
  48  2269.652
  49  1990.556
  50  2207.344
  51  2248.915
  52  2369.016
  53  2464.547
  54  2556.5
  55  2323.516
  56  2516.232
  57  2975.356
  58  3133.019
  59  2771.476
  60  2646.284
  61  3427.265
  62  3378.153
  63  2866.98
  64  2950.363
  65  2802.502
  66  2451.395
  67  2228.72
  68  1866.978
  69  2083.56
  70  1888.999
  71  2307.563
  72  2194.587
  73  2248.845
  74  2881.063
  75  2342.001
  76  1795.066
  77  2513.757
  78  2733.631
  79  2671.854
  80  2199.443
  81  1840.785
  82  2274.543
  83  2020.798
  84  1624.236
  85  1743.544
  86  2549.151
  87  3119.365
  88  2393.453
  89  1982.984
  90  1875.501
  91  1929.05
  92  1768.715
  93  1925.604
  94  2617.939
  95  2889.809
  96  2672.357
  97  1975.622
  98  2088.504
  99  1833.489
 100  1488.343
 101  1826.183
 102  1998.164
 103  2257.624
 104  2325.146
 105  2195.562
 106  2055.338
 107  2541.543
 108  2612.546
 109  1696.193
 110  2442.909
 111  2650.624
 112  2464.607
 113  1906.499
 114  2045.116
 115  2288.384
 116  2238.809
 117  1801.822
 118  1841.477
 119  2506.376
 120  2708.44
 121  2474.82
 122  2280.69
 123  2001.347
 124  2109.164
 125  1941.472
 126  2114.76
 127  2612.694
 128  3292.794
 129  2682.16
 130  1944.731
 131  2307.742
 132  2163.43
 133  1604.313
 134  1723.482
 135  1883.76
 136  2157.026
 137  2384.111
 138  1763.572
 139  1528.717
 140  2171.16
 141  2614.922
 142  2313.051
 143  2459.068
 144  2331.876
 145  2316.167
 146  2484.931
 147  2593.798
 148  2677.572
 149  2072.928
 150  2119.064
 151  2204.734
 152  2443.984
 153  2463.517
 154  2156.549
 155  2119.456
 156  2480.274
 157  2156.449
 158  1932.786
 159  2233.611
 160  2580.519
 161  3062.846
 162  2329.703
 163  2172.717
 164  2161.814
 165  2087.993
 166  1778.791
 167  1296.805
 168  2183.066
 169  2467.398
 170  2283.342
 171  1942.833
 172  2004.214
 173  2330.674
 174  2030.183
 175  1685.503
 176  1973.913
 177  2409.729
 178  2462.749
 179  1913.069
 180  2014.895
 181  2542.24
 182  1972.766
 183  1948.004
 184  2325.383
 185  2708.732
 186  2380.944
 187  2133.774
 188  1970.249
 189  2009.362
 190  2305.534
 191  2206.54
 192  2146.385
 193  2808.798
 194  3392.185
 195  2488.371
 196  1071.786
 197  1584.063
 198  1690.71
 199  1505.967
 200  1730.331
 201  2044.169
 202  2539.418
 203  2332.321
 204  2026.123
 205  1906.467
 206  2495.631
 207  2303.123
 208  2127.958
 209  2022.807
 210  2563.071
 211  2607.812
 212  2133.231
 213  2090.745
 214  2309.626
 215  2069.421
 216  1941.517
 217  1874.325
 218  2474.878
 219  2423.469
 220  1855.604
 221  2268.737
 222  2391.432
 223  2244.155
 224  1825.563
 225  1926.994
 226  2680.038
 227  2808.309
 228  2777.611
 229  2205.049
 230  1981.028
 231  2345.086
 232  2255.11
 233  2182.617
 234  2301.708
 235  2918.63
 236  2611.193
 237  1937.161
 238  1939.502
 239  1982.249
 240  1963.764
 241  2060.352
 242  2214.996
 243  2762.264
 244  2792.966
 245  2793.067
 246  2371.514
 247  2132.254
 248  1992.323
 249  2000.037
 250  1918.573
 251  2255.695
 252  2462.021
 253  1844.359
 254  1919.702
 255  2102.386
 256  2017.065
 257  1803.43
 258  1659.652
 259  2308.901
 260  2406.442
 261  2155.501
 262  2025.482
 263  1743.172
 264  1830.241
 265  2104.869
 266  1956.732
 267  2154.84
 268  2304.332
 269  2271.755
 270  1718.82
 271  1758.509
 272  1868.77
 273  2046.623
 274  1604.63
 275  1883.155
 276  2486.77
 277  2396.3
 278  2423.803
 279  2522.309
 280  2403.583
 281  1953.187
 282  1361.816
 283  1945.714
 284  2245.68
 285  2145.027
 286  1901.904
 287  2142.409
 288  2046.581
 289  2576.504
 290  2307.333
 291  2239.44
 292  2419.727
 293  2663.811
 294  2352.4
 295  2231.964
 296  2547.51
 297  2633.678
 298  2099.337
 299  2299.187
 300  2640.674
 301  2587.428
 302  2070.163
 303  1438.03
 304  1931.35
 305  2052.8
 306  2081.151
 307  2410.042
 308  2648.414
 309  2804.554
 310  2923.067
 311  2570.194
 312  2789.87
 313  2172.582
 314  2236.86
 315  2173.356
 316  2517.972
 317  2701.576
 318  2686.334
 319  2455.724
 320  2038.645
 321  2004.651
 322  1822.332
 323  1723.075
 324  2590.937
 325  2981.463
 326  2917.53
 327  2723.534
 328  2137.924
 329  2037.482
 330  2393.472
 331  2333.66
 332  2298.832
 333  2671.119
 334  2984.18
 335  2528.412
 336  2166.416
 337  2091.989
 338  2261.958
 339  2431.28
 340  2109.177
 341  2255.262
 342  3068.71
 343  3006.444
 344  2377.941
 345  2550.019
 346  2737.924
 347  2480.749
 348  2436.621
 349  2095.234
 350  2496.38
 351  3000.957
 352  2599.296
 353  1830.414
 354  1769.266
 355  2900.192
 356  2494.936
 357  2138.09
 358  3117.924
 359  2626.463
 360  2208.151
 361  2089.897
 362  2098.48
 363  2506.514
 364  2451.562
 365  1977.387
 366  2222.317
 367  2204.061
 368  1984.661
 369  1939.526
 370  2129.802
 371  2318.749
 372  1978.859
 373  1996.699
 374  2051.495
 375  2615.735
 376  3035.919
 377  2435.565
 378  2096.233
 379  1940.11
 380  1693.989
 381  1367.395
 382  1298.757
 383  2012.314
 384  2657.71
 385  2549.43
 386  2572.905
 387  1770.424
 388  1523.978
 389  1414.51
 390  1902.219
 391  2413.313
 392  2531.485
 393  2576.689
 394  1682.944
 395  2365.758
 396  2630.853
 397  2175.375
 398  1953.02
 399  1918.056
 400  2399.128
 401  2244.813
 402  1596.615
 403  1686.789
 404  1900.321
 405  2029.675
 406  1947.994
 407  2503.146
 408  3092.377
 409  2893.587
 410  2486.692
 411  2414.577
 412  2098.873
 413  2177.274
 414  2013.481
 415  2025.772
 416  2825.574
 417  3191.134
 418  2722.08
 419  2051.612
 420  2058.192
 421  1984.478
 422  1905.953
 423  1853.723
 424  2347.953
 425  2843.918
 426  2353.375
 427  2113.742
 428  2532.067
 429  2529.738
 430  2130.885
 431  1729.889
 432  1901.436
 433  1810.199
 434  2246.655
 435  2132.141
 436  2193.273
 437  2389.087
 438  2494.398
 439  1992.396
 440  1873.011
 441  2513.677
 442  2865.839
 443  2346.531
 444  2167.769
 445  2529.803
 446  2230.182
 447  1888.816
 448  2206.571
 449  2174.659
 450  2526.91
 451  2292.423
 452  2047.006
 453  2282.11
 454  2079.126
 455  1687.08
 456  2004.424
 457  2943.838
 458  3157.331
 459  2908.546
 460  2175.894
 461  2186.278
 462  2142.992
 463  1929.993
 464  1756.451
 465  2405.698
 466  2523.152
 467  2327.964
 468  2026.826
 469  2097.973
 470  2265.095
 471  2131.064
 472  2075.556
 473  2003.176
 474  2410.041
 475  2469.358
 476  1670.958
 477  1761.033
 478  2060.036
 479  2079.759
 480  1746.967
 481  2164.613
 482  2496.382
 483  2546.839
 484  2327.317
 485  1776.922
 486  1870.479
 487  1877.957
 488  2169.614
 489  2326.07
 490  2422.958
 491  2429.777
 492  2473.163
 493  2610.781
 494  1954.262
 495  2052.766
 496  2461.433
 497  2306.407
 498  2092.996
 499  2056.203
 500  1878.616
 501  1979.844
 502  1994.886
 503  2483.552
 504  2600.455
 505  1953.736
 506  1822.375
 507  1799.304
 508  1921.794
 509  1807.369
 510  1748.742
 511  1916.397
