# Input file       =  1199881642.101681_cleaned.dat
# Candidate        =  PSR_0332+5434
# Telescope        =  AR
# Epoch_topo       =  58131.519225713899
# Epoch_bary       =  N/A
# T_sample         =  0.002
# Data Folded      =  7143424
# Data Avg         =  0.0151838315687156
# Data StdDev      =  1.0000271500648  
# Profile Bins     =  512
# Profile Avg      =  211.900476245476 
# Profile StdDev   =  118.12179140909  
# Reduced chi-sqr  =  1.896
# Prob(Noise)      <  9.69e-31   (~11.5 sigma)
# P_topo (ms)      =  714.565532840753  +/- 0.00012
# P'_topo (s/s)    =  -0                +/- 6.52e-11
# P''_topo (s/s^2) =  0                 +/- 2.96e-14
# P_bary (ms)      =  N/A
# P'_bary (s/s)    =  N/A
# P''_bary (s/s^2) =  N/A
# P_orb (s)        =  N/A
# asin(i)/c (s)    =  N/A
# eccentricity     =  N/A
# w (rad)          =  N/A
# T_peri           =  N/A
######################################################
   0  258.8165
   1  129.8036
   2  98.15231
   3  132.8204
   4  115.0974
   5  181.7531
   6  179.017
   7  214.2585
   8  159.0288
   9  58.54811
  10  176.4888
  11  254.8122
  12  94.48645
  13  41.65847
  14  69.76778
  15  209.7843
  16  274.4158
  17  42.86543
  18  101.1815
  19  98.29762
  20  178.2
  21  308.1275
  22  253.4491
  23  136.6764
  24  152.9512
  25  143.4399
  26  98.75809
  27  38.32628
  28  105.3634
  29  174.6794
  30  171.5339
  31  165.7443
  32  113.0549
  33  214.6399
  34  143.3491
  35  241.9522
  36  141.7702
  37  127.0957
  38  143.7149
  39  100.7817
  40  184.2523
  41  253.9924
  42  111.2628
  43  5.87411
  44  99.58292
  45  204.2201
  46  119.1283
  47  74.12651
  48  341.529
  49  317.5959
  50  217.236
  51  271.5901
  52  236.2506
  53  232.0429
  54  128.3103
  55  242.7023
  56  196.3683
  57  217.7663
  58  141.6281
  59  148.4588
  60  153.9177
  61  213.5357
  62  175.1453
  63  227.1802
  64  251.6846
  65  329.3658
  66  294.0541
  67  253.2807
  68  265.7411
  69  195.0639
  70  240.5332
  71  216.9307
  72  212.0374
  73  214.4608
  74  259.7522
  75  250.8047
  76  203.0642
  77  291.9874
  78  237.4743
  79  237.2783
  80  278.6696
  81  370.8433
  82  356.9874
  83  189.8628
  84  117.7065
  85  265.4191
  86  220.1523
  87  210.5405
  88  205.2955
  89  300.5783
  90  397.9461
  91  349.011
  92  238.5894
  93  153.8199
  94  258.9184
  95  294.5906
  96  173.4487
  97  298.447
  98  407.5103
  99  240.7032
 100  154.4347
 101  127.5019
 102  181.2962
 103  285.1845
 104  84.74515
 105  81.85132
 106  80.96523
 107  132.8676
 108  105.629
 109  112.765
 110  105.7688
 111  137.7762
 112  122.3915
 113  122.7205
 114  45.10023
 115  32.36272
 116  112.5186
 117  148.2463
 118  288.0171
 119  149.8539
 120  90.09447
 121  52.53426
 122  276.967
 123  306.8892
 124  120.9414
 125  134.0718
 126  68.87168
 127  77.02221
 128  207.7809
 129  339.2881
 130  384.025
 131  327.8694
 132  203.2973
 133  185.6821
 134  98.1223
 135  130.2542
 136  122.7023
 137  179.6227
 138  284.09
 139  222.9809
 140  323.9062
 141  343.5291
 142  281.4349
 143  236.2017
 144  276.1542
 145  265.2809
 146  135.9731
 147  220.1143
 148  233.9967
 149  226.2251
 150  203.989
 151  256.0471
 152  266.1544
 153  198.2978
 154  119.1894
 155  158.6797
 156  81.7341
 157  73.17639
 158  81.2077
 159  169.9298
 160  240.2906
 161  298.1018
 162  211.8435
 163  287.6484
 164  341.1759
 165  225.1375
 166  184.245
 167  134.9922
 168  121.5131
 169  168.9855
 170  165.549
 171  261.8401
 172  138.9815
 173  137.7458
 174  -25.6314
 175  -21.08646
 176  86.51091
 177  297.6382
 178  161.7456
 179  186.6282
 180  393.3832
 181  385.5809
 182  385.1277
 183  348.7496
 184  293.7433
 185  325.1192
 186  317.3584
 187  310.071
 188  412.6836
 189  288.0888
 190  145.8999
 191  125.6472
 192  259.722
 193  326.3598
 194  294.1805
 195  184.7302
 196  239.8644
 197  309.1889
 198  213.4487
 199  204.2831
 200  255.0488
 201  215.0188
 202  169.1424
 203  65.63351
 204  177.2692
 205  177.8564
 206  245.7698
 207  82.50011
 208  98.64339
 209  178.5014
 210  89.71161
 211  195.2013
 212  120.7939
 213  175.3754
 214  206.3469
 215  163.1792
 216  161.7846
 217  78.34377
 218  133.4539
 219  106.2042
 220  169.9657
 221  263.7473
 222  332.9604
 223  209.5925
 224  186.8164
 225  217.8896
 226  115.7074
 227  108.3437
 228  98.53131
 229  68.34693
 230  229.9602
 231  325.2116
 232  205.9671
 233  253.6446
 234  239.6983
 235  320.8169
 236  171.1823
 237  178.0184
 238  279.5961
 239  215.8395
 240  167.4558
 241  152.3885
 242  265.1167
 243  285.7886
 244  184.0266
 245  260.903
 246  267.169
 247  280.1113
 248  319.7684
 249  293.3799
 250  198.3935
 251  238.1966
 252  409.9979
 253  298.3254
 254  231.1662
 255  283.3716
 256  201.3479
 257  73.72549
 258  264.1953
 259  300.4559
 260  333.5334
 261  410.415
 262  347.1055
 263  228.4086
 264  182.6922
 265  301.4078
 266  277.6421
 267  167.7004
 268  228.8651
 269  370.3672
 270  217.0701
 271  185.1324
 272  183.9164
 273  188.1281
 274  160.9522
 275  232.1285
 276  190.6046
 277  191.9192
 278  184.2879
 279  193.1384
 280  373.8665
 281  336.8742
 282  255.0802
 283  187.106
 284  114.3754
 285  135.541
 286  51.86187
 287  127.0656
 288  364.0479
 289  250.9751
 290  128.2507
 291  198.0692
 292  150.7011
 293  198.4618
 294  170.5484
 295  289.6296
 296  347.1272
 297  246.693
 298  170.6895
 299  -14.67669
 300  52.26051
 301  220.0796
 302  280.8256
 303  133.202
 304  106.1191
 305  274.7718
 306  172.1549
 307  77.65133
 308  123.4895
 309  288.9499
 310  288.1903
 311  186.5371
 312  332.7207
 313  322.7228
 314  269.8512
 315  209.6384
 316  236.7232
 317  161.002
 318  115.7957
 319  144.5904
 320  89.40133
 321  227.4278
 322  164.9245
 323  145.2173
 324  86.55297
 325  51.94095
 326  96.81448
 327  159.845
 328  188.6837
 329  295.7406
 330  255.8027
 331  379.0423
 332  265.9294
 333  312.1312
 334  188.0528
 335  156.9611
 336  287.8168
 337  289.7691
 338  91.95015
 339  209.6089
 340  195.2599
 341  120.1541
 342  97.69621
 343  176.5067
 344  252.4075
 345  270.6726
 346  368.9879
 347  151.1086
 348  116.1843
 349  197.9217
 350  1.571516
 351  44.20322
 352  29.56482
 353  46.60057
 354  180.0912
 355  267.0785
 356  102.0242
 357  180.8995
 358  196.0955
 359  225.3313
 360  189.7582
 361  223.6011
 362  340.8228
 363  219.0841
 364  234.0974
 365  351.8383
 366  300.1356
 367  280.0037
 368  227.8737
 369  321.5825
 370  370.2282
 371  378.7227
 372  364.8713
 373  243.3444
 374  307.603
 375  260.5332
 376  296.9588
 377  608.6489
 378  904.9377
 379  1081.79
 380  1036.883
 381  1027.721
 382  782.2857
 383  406.7987
 384  193.5482
 385  412.0462
 386  311.7546
 387  293.4073
 388  340.1044
 389  187.1979
 390  242.8685
 391  249.5216
 392  268.0697
 393  271.6701
 394  329.7767
 395  370.5463
 396  278.9294
 397  305.2514
 398  280.5346
 399  120.3257
 400  114.3491
 401  139.9618
 402  177.6789
 403  156.2776
 404  285.9665
 405  233.4763
 406  111.9753
 407  65.00595
 408  183.1713
 409  173.3877
 410  220.154
 411  333.5222
 412  362.7491
 413  247.3357
 414  61.08183
 415  125.4015
 416  86.87582
 417  131.026
 418  200.7501
 419  266.8785
 420  190.9706
 421  140.0128
 422  146.5462
 423  174.3187
 424  246.0144
 425  288.6584
 426  375.4662
 427  325.5408
 428  276.751
 429  143.8555
 430  270.7587
 431  178.9264
 432  -69.95277
 433  84.68237
 434  229.9546
 435  300.0655
 436  249.7666
 437  209.8593
 438  188.069
 439  116.0608
 440  50.1062
 441  219.6971
 442  258.717
 443  361.1797
 444  284.425
 445  307.7973
 446  209.6919
 447  104.5071
 448  220.1164
 449  262.5087
 450  221.9893
 451  157.7547
 452  153.0664
 453  222.2488
 454  265.6474
 455  294.5377
 456  204.6302
 457  62.26019
 458  104.3776
 459  218.5598
 460  198.1486
 461  127.7536
 462  121.2471
 463  248.1909
 464  161.9162
 465  43.14917
 466  91.73198
 467  111.7289
 468  177.1183
 469  145.4642
 470  80.36167
 471  137.6337
 472  158.1012
 473  266.9413
 474  288.2467
 475  153.7286
 476  278.7467
 477  355.7187
 478  110.9446
 479  155.2533
 480  153.03
 481  154.5313
 482  302.8392
 483  270.6585
 484  155.9378
 485  65.85918
 486  64.25385
 487  122.866
 488  -1.186147
 489  -7.981865
 490  138.4849
 491  85.61491
 492  175.5315
 493  256.7357
 494  312.9474
 495  191.2771
 496  159.7882
 497  272.8835
 498  209.2481
 499  122.7739
 500  242.9261
 501  323.2155
 502  315.1104
 503  274.0006
 504  148.6499
 505  59.93058
 506  198.7393
 507  228.1342
 508  194.0272
 509  211.8018
 510  241.6856
 511  227.5858
