# Input file       =  1199652744.097252-PSRB0329-2ms-sampling-dd.dat
# Candidate        =  PSR_0332+5434
# Telescope        =  AR
# Epoch_topo       =  58128.869943255231
# Epoch_bary       =  N/A
# T_sample         =  0.002
# Data Folded      =  7340032
# Data Avg         =  1.50637395051735e-09
# Data StdDev      =  291.358321708163 
# Profile Bins     =  512
# Profile Avg      =  0.0409066285215083
# Profile StdDev   =  34885.2165317571 
# Reduced chi-sqr  =  1.154
# Prob(Noise)      <  0.00885   (~2.4 sigma)
# P_topo (ms)      =  714.563969746634  +/- 0.000186
# P'_topo (s/s)    =  -0                +/- 9.8e-11
# P''_topo (s/s^2) =  0                 +/- 4.33e-14
# P_bary (ms)      =  N/A
# P'_bary (s/s)    =  N/A
# P''_bary (s/s^2) =  N/A
# P_orb (s)        =  N/A
# asin(i)/c (s)    =  N/A
# eccentricity     =  N/A
# w (rad)          =  N/A
# T_peri           =  N/A
######################################################
   0  -11352.74
   1  -16064.72
   2  -19804.59
   3  -5080.889
   4  -2542.583
   5  -5521.347
   6  -9563.366
   7  -24231.3
   8  -26205.51
   9  -7197.431
  10  -1031.522
  11  5304.195
  12  3361.731
  13  -6493.516
  14  -12058.97
  15  -25286.13
  16  -4895.637
  17  4680.917
  18  7242.993
  19  3178.431
  20  -7356.269
  21  -16864.09
  22  -15061.01
  23  -13100.94
  24  -11634.94
  25  -20113.79
  26  -26515.57
  27  -30890.14
  28  -28925.71
  29  -30452.11
  30  -29935.62
  31  -29349.35
  32  -26723.17
  33  -21936.2
  34  -18657.8
  35  -18360.12
  36  -17885.8
  37  -21743.12
  38  -23938.14
  39  -25142.04
  40  -21145.75
  41  -20027.3
  42  -17702.21
  43  -15456.29
  44  -16852.47
  45  -21412.27
  46  -26934.14
  47  -27349.95
  48  -31141.77
  49  -31875.21
  50  -30860.93
  51  -31245.36
  52  -31968.69
  53  -32945.85
  54  -31804.44
  55  -31658.55
  56  -30952.53
  57  -30336.97
  58  -30578.93
  59  -32213.39
  60  -32523.21
  61  -32986.33
  62  -31908.51
  63  -32656.64
  64  -32502.05
  65  -31018.15
  66  -32265.31
  67  -31830.25
  68  -31851.95
  69  -31019.31
  70  -28952.37
  71  -7993.801
  72  1712.093
  73  6973.888
  74  3983.785
  75  2964.039
  76  9137.862
  77  31278.47
  78  61082.6
  79  67373.22
  80  61536.03
  81  10084.74
  82  9528.916
  83  48947.67
  84  69875.71
  85  84337.26
  86  88902.72
  87  28572.15
  88  -5432.806
  89  -32169.44
  90  -13997.73
  91  4689.731
  92  20474.89
  93  30899.63
  94  22155.92
  95  2443.694
  96  -28627.8
  97  -8557.187
  98  1928.836
  99  8101.641
 100  11607.91
 101  14460.21
 102  16585.21
 103  4580.143
 104  -3898.77
 105  -25555.49
 106  -34055.59
 107  -34167.79
 108  -33519.97
 109  -34562.11
 110  -33290.91
 111  -32101.46
 112  -32257.59
 113  -32893.83
 114  -31563.41
 115  -29055.18
 116  -27008.69
 117  -27400.8
 118  -26044.23
 119  -25944.54
 120  -27784.7
 121  -28558.15
 122  -29345.12
 123  -23575.19
 124  -9549.201
 125  13322.1
 126  14355.99
 127  21502.01
 128  29024.83
 129  -26625.31
 130  -7250.502
 131  17011.34
 132  70803.86
 133  72029.52
 134  66619.19
 135  54780.7
 136  -4212.068
 137  -7260.005
 138  -5596.443
 139  -17798.83
 140  -22819.16
 141  -17366.79
 142  -9808.504
 143  -3948.204
 144  -3750.355
 145  -14181.82
 146  -23331
 147  -30685.13
 148  -29841.36
 149  -29157.55
 150  -27620.75
 151  -19124.04
 152  -14860.84
 153  -18039.94
 154  -15707.9
 155  -21368.07
 156  -32384.57
 157  -26273.51
 158  -17502.11
 159  -10693.85
 160  -13392.14
 161  -16966.5
 162  -17283.29
 163  -27722.96
 164  -27781.87
 165  -14461.35
 166  -6772.151
 167  -3161.161
 168  -2472.545
 169  -5284.583
 170  -18787.08
 171  -24419.45
 172  -11482.21
 173  12817.36
 174  14309.34
 175  8789.996
 176  7951.42
 177  -22144.74
 178  -27018.11
 179  -27573.39
 180  -27095.12
 181  -29548.32
 182  -28458.24
 183  -28605.75
 184  -26543.98
 185  -10009.31
 186  15641.88
 187  27051.74
 188  22052.12
 189  17045.44
 190  1058.089
 191  -23614.66
 192  14992.66
 193  36165.02
 194  58506.21
 195  55161.39
 196  45177.01
 197  18653.21
 198  4562.938
 199  -261.211
 200  -8686.147
 201  3563.853
 202  12542.04
 203  12127.53
 204  9921.336
 205  6838.836
 206  4515.335
 207  -14195.37
 208  -1263.72
 209  4304.346
 210  5053.009
 211  4096.135
 212  8619.462
 213  1652.705
 214  -14341.78
 215  1785.976
 216  10047.18
 217  19001.35
 218  11650.13
 219  2658.715
 220  -2279.955
 221  -15066.63
 222  -12662.48
 223  -1121.773
 224  -4959.65
 225  -12864.73
 226  -21705.94
 227  -7292.532
 228  1129.007
 229  9323.001
 230  17132.58
 231  7288.001
 232  -2243.43
 233  4597.219
 234  1408.256
 235  -7955.097
 236  -3914.001
 237  13495.11
 238  25831.64
 239  44325.09
 240  39136.91
 241  13892.21
 242  -16326.44
 243  -17637.51
 244  -19061.59
 245  -29513.5
 246  -29801.71
 247  -24916.74
 248  -22760.23
 249  -20844.33
 250  -22270.42
 251  -19842.58
 252  -17451.17
 253  6333.695
 254  20795.09
 255  26091.11
 256  26165.7
 257  15340.69
 258  4941.707
 259  21434.27
 260  62706.09
 261  80535.23
 262  69246.54
 263  31276.74
 264  18415.56
 265  22845.5
 266  51295.84
 267  58372.11
 268  44871.81
 269  22324.59
 270  21990.49
 271  20980.07
 272  26241.64
 273  23066.4
 274  -9066.715
 275  -10986.68
 276  1917.114
 277  26431.54
 278  27157.18
 279  15279.24
 280  4067.147
 281  -25253.73
 282  -28117.74
 283  -25054.55
 284  -11459.88
 285  1079.078
 286  22112.51
 287  30428.72
 288  38497.33
 289  31133.53
 290  -7146.387
 291  1863.109
 292  4960.878
 293  14874.41
 294  25900.53
 295  17374.44
 296  8713.134
 297  15584.5
 298  8229.331
 299  16495.94
 300  14920.86
 301  24594.23
 302  13412.53
 303  20939.49
 304  71843.98
 305  79849.62
 306  116484.6
 307  114204.5
 308  84601.57
 309  64193.27
 310  34771.82
 311  79487.5
 312  96799.99
 313  101395.4
 314  79893.98
 315  53725.61
 316  18341.92
 317  4871.632
 318  16440.9
 319  29404.23
 320  27730.2
 321  21871.61
 322  10779.36
 323  -3083.891
 324  -8594.555
 325  -5279.484
 326  5130.293
 327  31529.82
 328  53978.47
 329  48580.63
 330  41652.63
 331  30041.99
 332  9336.465
 333  25059.84
 334  24462.54
 335  25326.62
 336  15066.4
 337  23238.12
 338  27316.34
 339  19993.24
 340  17672.12
 341  -220.3083
 342  -12482.07
 343  -1467.875
 344  9938.788
 345  14759.32
 346  20877.67
 347  12020.53
 348  3536.35
 349  9849.358
 350  -6127.332
 351  -3519.969
 352  -2552.002
 353  12340.72
 354  23969.14
 355  28663.37
 356  28644.35
 357  19950.8
 358  6859.535
 359  -6937.62
 360  -23213.85
 361  6126.19
 362  14306.42
 363  16056.72
 364  10351.89
 365  2548.556
 366  -9415.08
 367  -26055.35
 368  -11966.25
 369  -9079.121
 370  -7395.629
 371  -12085.55
 372  -18434.92
 373  -20815.41
 374  -22603.73
 375  -24261.13
 376  1276.458
 377  16456.37
 378  20526.52
 379  36491.32
 380  28605.8
 381  -7736.92
 382  -9257.997
 383  15274.77
 384  58593
 385  62255.53
 386  69959.81
 387  65640.16
 388  9230.402
 389  471.6129
 390  -7757.957
 391  -17377.58
 392  -27728.63
 393  2772.805
 394  17247.39
 395  20282.15
 396  19207.99
 397  2190.197
 398  -15207.91
 399  -31988.77
 400  -10082.99
 401  -62.62275
 402  847.5098
 403  -6152.324
 404  -14619.69
 405  -23771.12
 406  -18363.12
 407  -17232.95
 408  -17269.6
 409  -8970.843
 410  -17665.16
 411  -21677.57
 412  -5532.915
 413  20465.75
 414  40882.46
 415  50434.11
 416  54703.62
 417  30739.48
 418  3266.984
 419  23153.95
 420  6107.875
 421  -4111.75
 422  -909.4264
 423  3429.261
 424  2726.961
 425  6286.839
 426  2350.581
 427  -1830.202
 428  -16080.13
 429  -19672.19
 430  -21396.47
 431  -27252.69
 432  -20495.25
 433  -14412.95
 434  -10115.89
 435  -9669.722
 436  -13422.62
 437  -23238.17
 438  -25978.48
 439  -24184.95
 440  -16822.25
 441  -16838.01
 442  -19488.76
 443  -19818.01
 444  -28801.04
 445  -29511.97
 446  -31396.52
 447  -31523.99
 448  -22133.67
 449  -18277.51
 450  -12841.09
 451  -3365.309
 452  -9085.53
 453  -15878.67
 454  -24151.88
 455  -3396.525
 456  8187.667
 457  18114.7
 458  13618.03
 459  3193.548
 460  -15045.48
 461  -23100.18
 462  -22067.95
 463  -16213.21
 464  -15810.14
 465  -19624.31
 466  -20951.29
 467  -31418.11
 468  -27565.96
 469  -23537.93
 470  -16625.26
 471  -18231.9
 472  -19438.02
 473  -21879.1
 474  -26988.44
 475  -31268.79
 476  -30823.9
 477  -30996.97
 478  -31856.44
 479  -25452.92
 480  -17745.34
 481  -8724.108
 482  1651.929
 483  4517.196
 484  925.4176
 485  -7507.195
 486  -27882.86
 487  -14146.52
 488  -5276.675
 489  4020.825
 490  -5033.936
 491  -13196.85
 492  -20598.1
 493  -32845.91
 494  -23374.06
 495  -10738.18
 496  -3410.885
 497  13241.25
 498  6018.01
 499  -3088.176
 500  -9050.353
 501  -9128.969
 502  5139.083
 503  8042.087
 504  10699.61
 505  5149.824
 506  -3279.066
 507  -12796.38
 508  -15989.27
 509  -10330.33
 510  -9452.797
 511  -11219.71
