# Input file       =  1199810099.108133_cleaned.dat
# Candidate        =  PSR_0332+5434
# Telescope        =  AR
# Epoch_topo       =  58130.691181807095
# Epoch_bary       =  N/A
# T_sample         =  0.002
# Data Folded      =  7340032
# Data Avg         =  0.888872778196981
# Data StdDev      =  5.75884060564465 
# Profile Bins     =  512
# Profile Avg      =  12742.9612680763 
# Profile StdDev   =  689.523471723649 
# Reduced chi-sqr  =  0.604
# Prob(Noise)      <  1   (~0.0 sigma)
# P_topo (ms)      =  714.564959984605  +/- 4.22e-05
# P'_topo (s/s)    =  -0                +/- 2.23e-11
# P''_topo (s/s^2) =  0                 +/- 9.83e-15
# P_bary (ms)      =  N/A
# P'_bary (s/s)    =  N/A
# P''_bary (s/s^2) =  N/A
# P_orb (s)        =  N/A
# asin(i)/c (s)    =  N/A
# eccentricity     =  N/A
# w (rad)          =  N/A
# T_peri           =  N/A
######################################################
   0  12618.32
   1  13130.5
   2  12828.3
   3  12762.69
   4  12797.08
   5  12664.94
   6  12725.29
   7  12785.6
   8  12553.73
   9  12114.08
  10  12561.13
  11  12799.47
  12  13246.76
  13  12566.53
  14  12104.65
  15  12722.38
  16  13144.96
  17  12679.44
  18  12521.85
  19  13588.76
  20  13967.75
  21  13399.15
  22  12745.93
  23  12611.75
  24  11948.66
  25  12801.91
  26  13086.3
  27  12747.9
  28  12531.89
  29  12972.55
  30  13188.54
  31  12706.41
  32  12703.05
  33  12909.25
  34  13218.67
  35  13100.61
  36  12627.69
  37  13084.41
  38  13056.86
  39  13179.66
  40  13140.38
  41  12923.61
  42  12033.54
  43  12084.04
  44  12691
  45  12775.67
  46  12431.21
  47  12734.8
  48  12378.76
  49  12175.38
  50  12052.1
  51  11952.38
  52  12283.74
  53  12446.56
  54  12877.71
  55  13592.87
  56  12737.62
  57  12082.69
  58  12691.8
  59  13040.38
  60  12617.97
  61  12640.64
  62  13232.54
  63  12978.69
  64  12727.4
  65  12764.83
  66  12200.36
  67  12040.99
  68  12523.89
  69  12800.52
  70  12525.29
  71  13033.6
  72  13413.88
  73  13394.22
  74  12808.25
  75  12612.28
  76  13205.12
  77  13039.12
  78  12631.49
  79  13000.62
  80  13221.58
  81  12836.67
  82  12838.84
  83  13010.01
  84  12899.85
  85  12237.9
  86  12773.47
  87  13373.83
  88  13302.45
  89  12990.38
  90  12695.55
  91  12581.66
  92  12640.11
  93  12614.02
  94  12874.27
  95  13036.32
  96  12643.41
  97  12608.06
  98  12765.91
  99  12542.08
 100  12647.4
 101  13314.16
 102  12869.11
 103  12719.26
 104  12400.42
 105  13141.72
 106  13145.6
 107  12908.3
 108  12798.47
 109  12676.41
 110  12834.2
 111  13306.8
 112  13533.98
 113  12959.52
 114  12482.81
 115  12471.82
 116  13507.52
 117  12863.15
 118  12241.54
 119  12906.72
 120  13125.14
 121  12598.52
 122  12799.42
 123  13031.4
 124  12538.66
 125  12140.73
 126  12620.5
 127  12271.88
 128  12470.79
 129  12550.31
 130  13237.72
 131  12991.28
 132  12777.43
 133  12641.5
 134  12851.58
 135  12791.99
 136  12926.35
 137  13540.3
 138  12665.85
 139  12200.95
 140  13012.35
 141  12881.89
 142  12567.9
 143  12634.65
 144  13001.89
 145  13090.33
 146  12638.8
 147  12718.96
 148  12866.02
 149  12675.44
 150  12652.62
 151  13036.17
 152  12969.1
 153  12901.68
 154  13064.43
 155  13244.08
 156  12382.52
 157  12212.85
 158  13302.25
 159  13285.13
 160  12539.46
 161  12705.16
 162  13037.66
 163  12996
 164  12814.03
 165  13052.2
 166  12849.58
 167  12815.16
 168  12630.74
 169  12788.09
 170  12718.59
 171  12631.37
 172  12114.69
 173  12347.35
 174  12540.77
 175  12257.54
 176  12447.49
 177  12887.09
 178  12993.01
 179  12578.44
 180  12335.62
 181  12250.57
 182  12447.81
 183  12927.32
 184  13229.79
 185  12492.83
 186  11758.66
 187  12440.3
 188  12749
 189  12984.19
 190  12402.18
 191  12531.51
 192  12580.63
 193  12731.61
 194  12584.56
 195  12525.38
 196  12918.76
 197  13038.55
 198  13340.96
 199  12927.98
 200  12824.59
 201  12757.51
 202  13088.57
 203  13064.44
 204  12514.99
 205  12530.26
 206  12951.45
 207  12433.59
 208  12508.22
 209  12840.35
 210  12958.28
 211  12741.77
 212  12899.52
 213  12941.36
 214  12743.14
 215  12879.41
 216  12996.42
 217  12625.41
 218  12409.7
 219  12272.68
 220  12290.35
 221  12438.5
 222  12275.45
 223  12430.21
 224  12628.63
 225  12742.67
 226  12811.26
 227  12520.78
 228  11736.98
 229  11708.14
 230  12830.49
 231  13080.15
 232  12529.54
 233  12526.76
 234  13309.05
 235  13228.96
 236  12881.37
 237  12901.18
 238  12969.36
 239  13088.24
 240  12775.78
 241  12423.18
 242  12095.58
 243  12039.91
 244  12853.17
 245  12615.82
 246  12590.22
 247  12080.9
 248  12782.15
 249  13284.99
 250  13117.91
 251  12798.09
 252  12723.94
 253  12645.82
 254  12538.04
 255  12918.92
 256  12731.02
 257  12851.43
 258  13334.85
 259  13293.05
 260  12960.39
 261  12585.94
 262  12256.19
 263  12636.14
 264  12785.39
 265  12513.15
 266  12736.74
 267  12818.59
 268  12585.01
 269  12598.09
 270  12600.71
 271  12491.65
 272  12387.85
 273  12642.08
 274  12629.11
 275  12400.6
 276  12430.75
 277  12622.31
 278  12164.03
 279  12142.6
 280  12857.35
 281  12886.6
 282  12506.14
 283  12701.08
 284  13170.58
 285  12969.34
 286  12391.31
 287  12372.45
 288  12508.53
 289  12317.72
 290  12568.69
 291  12625.39
 292  12698.25
 293  12813.48
 294  13162.43
 295  12368.83
 296  12232.76
 297  12371.8
 298  13011.41
 299  13062.9
 300  12413.24
 301  12473.23
 302  13000.79
 303  13142.43
 304  12986.79
 305  13497.63
 306  13169.89
 307  13442.37
 308  13974.82
 309  14355.89
 310  14305.01
 311  13617.7
 312  13671.11
 313  13750.22
 314  13447.17
 315  12840.26
 316  12303.11
 317  12564.02
 318  12370.37
 319  12453.31
 320  12833.51
 321  13246.55
 322  13177.09
 323  13149.86
 324  13031.98
 325  12278.89
 326  12575.54
 327  12899.51
 328  12633.42
 329  12518.27
 330  12274.6
 331  12662.99
 332  12569.11
 333  12951.65
 334  13123.37
 335  13127.38
 336  12423.54
 337  12517.95
 338  12639.34
 339  12346.11
 340  12301.16
 341  12443.73
 342  12218.31
 343  11887.66
 344  11774.7
 345  12985.99
 346  13069.03
 347  12490.28
 348  12735.91
 349  12923.89
 350  12725.2
 351  12654.76
 352  13130.14
 353  12943.7
 354  13244.67
 355  13086.79
 356  12535.1
 357  12227.36
 358  12171.47
 359  12259.71
 360  12480.61
 361  12512.8
 362  12728.78
 363  12678.9
 364  12276.47
 365  12304.96
 366  12381.63
 367  12562.58
 368  12186.86
 369  13034.35
 370  12873.26
 371  12740.37
 372  12544.02
 373  13106.77
 374  13624.81
 375  13400.38
 376  12686.87
 377  12748.69
 378  12714.95
 379  12528.62
 380  12210.76
 381  12311.7
 382  12231.37
 383  12120.51
 384  13361.83
 385  13203.67
 386  12389.85
 387  12161.56
 388  12836.18
 389  12939.38
 390  12588.22
 391  12750.8
 392  13034.56
 393  13482.15
 394  13292.21
 395  13113.39
 396  12584.66
 397  12481.76
 398  13341.85
 399  13413.24
 400  13273.5
 401  13350.4
 402  13373.2
 403  13019.01
 404  12521.5
 405  12299.16
 406  12510.95
 407  12481.47
 408  12623.66
 409  12326.19
 410  12682.71
 411  12767.1
 412  12616.91
 413  12933.79
 414  12551.74
 415  12055.48
 416  12706.21
 417  13089.31
 418  12364.28
 419  12085.66
 420  11962.08
 421  11682.76
 422  11670.07
 423  12438.6
 424  12383.63
 425  12401.65
 426  12955.54
 427  13151.87
 428  12408.86
 429  12303.14
 430  12632.99
 431  12737
 432  13045.39
 433  12372.47
 434  12357.99
 435  12391.19
 436  12558.26
 437  12852.16
 438  12840.38
 439  12861.46
 440  12681.27
 441  13169.14
 442  12974.68
 443  12565.81
 444  12318.4
 445  13152.72
 446  13424.59
 447  13499.45
 448  12629.61
 449  12678.08
 450  12726.38
 451  12712.02
 452  12898.94
 453  13403.95
 454  13208.7
 455  13464.38
 456  13477.08
 457  13269.24
 458  12800.3
 459  13034.98
 460  12567.84
 461  11799.98
 462  11787.72
 463  12360.96
 464  12979.34
 465  13140.3
 466  13351.12
 467  12694.97
 468  12444.96
 469  12318.97
 470  12755.62
 471  12586.03
 472  12757.88
 473  12703.78
 474  12966.14
 475  12959.08
 476  12201.4
 477  12658.59
 478  12193.7
 479  12287.27
 480  12873.8
 481  12778.51
 482  12638.83
 483  12412.55
 484  13078.86
 485  13175.4
 486  12428.14
 487  12380.61
 488  12804.18
 489  12951.86
 490  12590.33
 491  12733.01
 492  13146.79
 493  12748.95
 494  12644.43
 495  13403.61
 496  12808.87
 497  12212.91
 498  12764.14
 499  12862.97
 500  12930.96
 501  12656.65
 502  12796.18
 503  12852.78
 504  12892.09
 505  12571.69
 506  12523.44
 507  12523.49
 508  12470.03
 509  12512.76
 510  12738.01
 511  12827
