# Input file       =  1199709341.112284_cleaned.dat
# Candidate        =  PSR_0332+5434
# Telescope        =  AR
# Epoch_topo       =  58129.525001299582
# Epoch_bary       =  N/A
# T_sample         =  0.002
# Data Folded      =  7208960
# Data Avg         =  0.0168452755392681
# Data StdDev      =  1.00024223867798 
# Profile Bins     =  512
# Profile Avg      =  237.204189997994 
# Profile StdDev   =  118.687919635405 
# Reduced chi-sqr  =  1.501
# Prob(Noise)      <  1.41e-12   (~7.0 sigma)
# P_topo (ms)      =  714.564097503568  +/- 0.000184
# P'_topo (s/s)    =  -0                +/- 9.9e-11
# P''_topo (s/s^2) =  0                 +/- 4.45e-14
# P_bary (ms)      =  N/A
# P'_bary (s/s)    =  N/A
# P''_bary (s/s^2) =  N/A
# P_orb (s)        =  N/A
# asin(i)/c (s)    =  N/A
# eccentricity     =  N/A
# w (rad)          =  N/A
# T_peri           =  N/A
######################################################
   0  1049.818
   1  888.8888
   2  629.269
   3  425.3378
   4  306.797
   5  206.6187
   6  293.5985
   7  288.1539
   8  219.2005
   9  400.4238
  10  329.2166
  11  132.6275
  12  231.3699
  13  160.6997
  14  158.1071
  15  253.9613
  16  206.4699
  17  199.7964
  18  251.2106
  19  344.3073
  20  360.8885
  21  297.6334
  22  189.7129
  23  146.0704
  24  270.6884
  25  221.2443
  26  180.1575
  27  241.6219
  28  323.1206
  29  256.0711
  30  240.3263
  31  293.0181
  32  368.1068
  33  196.2297
  34  65.66846
  35  92.18586
  36  278.0109
  37  202.5643
  38  174.327
  39  249.8957
  40  230.1393
  41  224.0235
  42  298.6065
  43  370.3062
  44  308.494
  45  296.9709
  46  227.068
  47  248.1023
  48  330.4965
  49  244.0484
  50  230.5485
  51  231.7873
  52  239.5715
  53  134.2571
  54  46.96069
  55  156.2404
  56  134.9036
  57  197.0234
  58  205.5874
  59  113.9069
  60  268.6221
  61  278.7522
  62  344.9351
  63  348.4426
  64  153.3519
  65  55.80549
  66  144.0531
  67  248.2181
  68  209.779
  69  268.9597
  70  330.0189
  71  326.0795
  72  210.8288
  73  157.4032
  74  306.0445
  75  310.3828
  76  164.129
  77  142.6245
  78  211.7841
  79  238.4826
  80  344.7965
  81  206.7578
  82  204.3823
  83  379.2526
  84  392.9732
  85  238.2102
  86  218.6332
  87  345.7168
  88  274.5302
  89  344.395
  90  255.1336
  91  370.3233
  92  296.1863
  93  320.2893
  94  377.4116
  95  337.5922
  96  172.6123
  97  196.219
  98  271.9485
  99  260.3711
 100  210.1062
 101  180.733
 102  280.1882
 103  417.1644
 104  370.3765
 105  249.6614
 106  198.4852
 107  147.5436
 108  62.42636
 109  220.8041
 110  347.1922
 111  411.7636
 112  376.4637
 113  293.1791
 114  103.4478
 115  276.9539
 116  293.6977
 117  134.1472
 118  176.4194
 119  205.3603
 120  173.5166
 121  168.8354
 122  219.8725
 123  93.39938
 124  145.9546
 125  256.6195
 126  249.9567
 127  194.5942
 128  192.7478
 129  126.1468
 130  156.0782
 131  212.6779
 132  175.9281
 133  194.9971
 134  286.4539
 135  250.0869
 136  205.4322
 137  157.4256
 138  151.0963
 139  166.349
 140  178.352
 141  194.3529
 142  314.4037
 143  331.9333
 144  269.2076
 145  341.9589
 146  214.2121
 147  209.5294
 148  155.738
 149  135.6721
 150  238.3014
 151  333.1605
 152  296.811
 153  231.0777
 154  117.0253
 155  -0.07382924
 156  178.8233
 157  173.1506
 158  187.1825
 159  96.63517
 160  144.2057
 161  221.7326
 162  138.3932
 163  222.1409
 164  293.3343
 165  298.1989
 166  336.5827
 167  304.3012
 168  346.0216
 169  374.1852
 170  270.8601
 171  290.1613
 172  212.2098
 173  173.9887
 174  160.5347
 175  285.4759
 176  271.7068
 177  216.7103
 178  18.14334
 179  165.992
 180  188.6431
 181  114.1839
 182  188.6473
 183  217.7763
 184  170.9971
 185  220.8564
 186  240.584
 187  347.2998
 188  371.7466
 189  351.2105
 190  235.7956
 191  221.2072
 192  229.8177
 193  243.7555
 194  241.1827
 195  250.5552
 196  223.5132
 197  287.1153
 198  301.3427
 199  256.3171
 200  250.1099
 201  275.7777
 202  202.0549
 203  278.9586
 204  197.4769
 205  153.0569
 206  87.45731
 207  143.3317
 208  228.985
 209  334.9632
 210  211.2842
 211  206.0373
 212  62.44484
 213  229.2098
 214  245.2891
 215  270.024
 216  126.0383
 217  126.2635
 218  305.3322
 219  242.1128
 220  213.828
 221  208.2857
 222  260.5214
 223  217.1816
 224  375.3045
 225  313.1924
 226  261.4298
 227  268.7502
 228  185.1164
 229  128.4785
 230  310.4854
 231  413.4422
 232  324.5732
 233  242.1891
 234  189.5128
 235  163.8642
 236  70.2487
 237  134.41
 238  83.27458
 239  68.44348
 240  109.6803
 241  250.5768
 242  183.4289
 243  201.9329
 244  79.2281
 245  136.0604
 246  156.8561
 247  141.0506
 248  181.6945
 249  144.8635
 250  304.3591
 251  199.0895
 252  143.1021
 253  147.4991
 254  200.2053
 255  42.73055
 256  123.4478
 257  203.6758
 258  255.8895
 259  257.2468
 260  271.3016
 261  320.0804
 262  233.7702
 263  173.4069
 264  103.3202
 265  82.34521
 266  276.5562
 267  277.4435
 268  49.46775
 269  58.83965
 270  32.95211
 271  183.4739
 272  266.2359
 273  364.528
 274  281.7686
 275  207.1797
 276  230.6152
 277  187.8135
 278  240.7991
 279  147.7187
 280  128.5953
 281  22.11153
 282  127.2346
 283  348.4558
 284  369.5
 285  380.8896
 286  244.6833
 287  224.9789
 288  201.4927
 289  179.8705
 290  216.7319
 291  166.9054
 292  301.1166
 293  323.1731
 294  215.9334
 295  267.48
 296  222.3355
 297  140.7473
 298  207.6168
 299  220.6871
 300  108.7784
 301  285.493
 302  269.773
 303  267.0591
 304  264.9876
 305  177.7943
 306  246.0598
 307  267.738
 308  183.6464
 309  273.5724
 310  192.6954
 311  228.9136
 312  198.699
 313  121.7454
 314  133.5153
 315  209.8748
 316  345.689
 317  176.7256
 318  207.3094
 319  210.3953
 320  112.019
 321  159.8518
 322  205.1437
 323  105.1789
 324  88.47661
 325  219.2438
 326  278.4967
 327  202.9953
 328  234.354
 329  205.7511
 330  209.6373
 331  256.5437
 332  256.8768
 333  237.1612
 334  304.9999
 335  380.3237
 336  391.5132
 337  217.0585
 338  240.8137
 339  405.0895
 340  329.2162
 341  394.7771
 342  458.1753
 343  217.2115
 344  115.8255
 345  22.76292
 346  204.0293
 347  258.4787
 348  232.4679
 349  251.9196
 350  290.4492
 351  224.0725
 352  209.142
 353  172.2243
 354  127.9557
 355  44.32061
 356  111.3183
 357  113.1836
 358  226.8573
 359  193.0714
 360  206.519
 361  274.1519
 362  324.4899
 363  279.9681
 364  256.6162
 365  134.8455
 366  65.4895
 367  211.7665
 368  275.573
 369  275.4553
 370  297.2761
 371  268.9266
 372  224.7606
 373  220.0318
 374  239.7382
 375  126.9335
 376  168.0198
 377  248.0368
 378  270.2473
 379  294.8297
 380  262.0602
 381  100.1751
 382  322.0089
 383  411.6253
 384  219.1802
 385  137.0112
 386  209.6528
 387  142.9147
 388  130.8645
 389  173.1113
 390  344.0569
 391  309.0201
 392  208.9957
 393  323.1483
 394  286.722
 395  127.7368
 396  143.3524
 397  319.7293
 398  328.5949
 399  430.3134
 400  376.5388
 401  348.0129
 402  331.2239
 403  181.7057
 404  300.4341
 405  263.4206
 406  227.6386
 407  299.5438
 408  283.0008
 409  309.9247
 410  205.0688
 411  144.0154
 412  222.0959
 413  290.0328
 414  254.0488
 415  349.3176
 416  282.4301
 417  190.3548
 418  111.3607
 419  97.12852
 420  183.2498
 421  125.391
 422  111.1615
 423  169.5496
 424  176.5383
 425  134.3617
 426  255.4975
 427  333.2044
 428  305.0397
 429  167.6131
 430  121.6895
 431  90.13763
 432  177.6434
 433  216.9033
 434  293.6949
 435  280.1098
 436  182.5242
 437  180.8353
 438  224.8463
 439  302.1129
 440  296.3264
 441  225.2272
 442  206.9267
 443  167.0374
 444  251.3645
 445  350.1295
 446  162.4465
 447  181.3853
 448  240.098
 449  379.9015
 450  303.4214
 451  276.8048
 452  357.2932
 453  142.007
 454  187.9579
 455  197.9519
 456  199.4626
 457  171.8069
 458  294.8801
 459  333.6459
 460  188.2547
 461  100.9637
 462  115.1628
 463  353.7466
 464  313.6767
 465  326.4897
 466  244.5228
 467  200.3833
 468  256.1028
 469  204.2455
 470  230.7553
 471  279.08
 472  209.9859
 473  332.7718
 474  273.648
 475  190.2361
 476  256.8939
 477  335.15
 478  396.2424
 479  368.8989
 480  313.857
 481  213.9007
 482  138.996
 483  139.1778
 484  252.5533
 485  267.4659
 486  282.2006
 487  129.9048
 488  143.6451
 489  228.904
 490  336.0973
 491  434.0509
 492  367.1229
 493  288.6153
 494  197.2138
 495  262.2849
 496  304.4703
 497  285.8019
 498  335.9557
 499  138.5032
 500  103.5306
 501  141.8379
 502  273.9738
 503  372.6639
 504  237.4632
 505  181.5508
 506  327.381
 507  305.7129
 508  356.0229
 509  487.5508
 510  715.0759
 511  1039.407
