# Input file       =  1199652744.097252_cleaned.dat
# Candidate        =  PSR_0332+5434
# Telescope        =  AR
# Epoch_topo       =  58128.869943255231
# Epoch_bary       =  N/A
# T_sample         =  0.002
# Data Folded      =  7340032
# Data Avg         =  0.128903984850321
# Data StdDev      =  1.00063892104181 
# Profile Bins     =  512
# Profile Avg      =  1847.96309171587 
# Profile StdDev   =  119.809536333107 
# Reduced chi-sqr  =  0.673
# Prob(Noise)      <  1   (~0.0 sigma)
# P_topo (ms)      =  714.563968575495  +/- 3.43e-05
# P'_topo (s/s)    =  -0                +/- 1.81e-11
# P''_topo (s/s^2) =  0                 +/- 7.98e-15
# P_bary (ms)      =  N/A
# P'_bary (s/s)    =  N/A
# P''_bary (s/s^2) =  N/A
# P_orb (s)        =  N/A
# asin(i)/c (s)    =  N/A
# eccentricity     =  N/A
# w (rad)          =  N/A
# T_peri           =  N/A
######################################################
   0  2035.349
   1  2016.119
   2  1886.498
   3  1958.382
   4  1916.568
   5  1857.178
   6  1902.084
   7  1984.416
   8  1799.056
   9  1815.756
  10  1856.215
  11  1841.335
  12  1772.264
  13  1708.186
  14  1797.387
  15  1912.324
  16  1843.435
  17  1857.299
  18  1783.351
  19  1817.292
  20  1901.721
  21  2086.389
  22  1935.744
  23  1878.844
  24  1859.344
  25  1910.819
  26  1826.172
  27  1711.806
  28  1866.337
  29  1881.998
  30  1824.355
  31  1945.267
  32  1962.793
  33  1908.609
  34  1817.496
  35  1827.206
  36  1861.518
  37  1935.44
  38  1761.925
  39  1785.884
  40  1835.205
  41  1790.916
  42  1796.301
  43  1899.842
  44  1880.618
  45  1837.12
  46  1874.066
  47  1904.91
  48  1776.299
  49  1787.714
  50  1917.651
  51  1887.01
  52  1829.202
  53  1961.694
  54  1981.753
  55  1869.987
  56  1885.646
  57  1981.665
  58  1976.498
  59  1889.869
  60  1841.87
  61  1903.258
  62  1894.939
  63  1929.787
  64  2012.558
  65  1967.863
  66  1916.072
  67  1807.175
  68  1786.793
  69  1717.997
  70  1748.495
  71  1927.027
  72  1997.385
  73  1983.338
  74  1966.698
  75  1924.285
  76  1803.387
  77  1767.43
  78  1927.574
  79  2019.701
  80  1873.349
  81  1861.471
  82  1946.536
  83  1947.824
  84  1793.009
  85  1816.28
  86  2012.136
  87  1944.747
  88  1833.335
  89  1875.365
  90  2017.801
  91  1887.734
  92  1863.346
  93  1961.381
  94  1938.84
  95  1941.704
  96  1914.807
  97  1882.872
  98  1840.575
  99  1846.849
 100  1978.695
 101  1924.493
 102  1899.62
 103  1893.008
 104  1839.068
 105  1768.591
 106  1868.965
 107  1896.84
 108  1868.019
 109  1824.24
 110  1894.52
 111  1850.375
 112  1857.555
 113  1845.988
 114  1955.983
 115  1933.76
 116  1841.819
 117  1912.812
 118  1855.365
 119  1760.132
 120  1797.357
 121  1808.258
 122  1829.898
 123  1801.256
 124  1858.862
 125  1804.147
 126  1786.122
 127  1833.893
 128  1788.486
 129  1782.541
 130  1818.235
 131  1882.504
 132  1943.397
 133  1863.858
 134  1818.724
 135  1804.351
 136  1764.055
 137  1756.676
 138  1795.974
 139  1818.538
 140  1825.195
 141  1791.269
 142  1882.064
 143  1876.295
 144  1839.928
 145  1817.305
 146  1822.601
 147  1779.834
 148  1790.445
 149  1765.744
 150  1897.558
 151  1887.138
 152  1811.755
 153  1833.417
 154  1829.914
 155  1817.311
 156  1799.31
 157  1791.893
 158  1877.993
 159  1826.196
 160  1880.045
 161  1955.857
 162  1850.144
 163  1807.415
 164  1832.358
 165  1823.15
 166  1773.105
 167  1835.638
 168  1924.598
 169  1890.891
 170  1872.391
 171  1886.01
 172  1871.239
 173  1849.217
 174  1881.428
 175  1932.785
 176  1801.835
 177  1837.837
 178  1837.783
 179  1983.155
 180  1804.24
 181  1711.498
 182  1832.954
 183  1871.117
 184  1841.186
 185  1819.243
 186  1949.558
 187  1881.636
 188  1845.005
 189  1868.668
 190  1768.56
 191  1762.52
 192  1749.769
 193  1901.06
 194  1888.749
 195  1927.099
 196  1894.457
 197  1891.044
 198  1914.332
 199  1789.306
 200  1771.359
 201  1799.936
 202  1777.176
 203  1770.361
 204  1778.124
 205  1821.138
 206  1871.834
 207  1857.884
 208  1827.828
 209  1815.467
 210  1730.643
 211  1736.109
 212  1689.576
 213  1767.998
 214  1867.552
 215  1949.174
 216  1845.669
 217  1862.406
 218  1909.02
 219  1789.27
 220  1783.018
 221  1796.968
 222  1840.942
 223  1751.939
 224  1758.019
 225  1826.188
 226  1840.963
 227  1838.518
 228  1861.971
 229  1836.726
 230  1870.52
 231  1881.923
 232  1882.804
 233  1862.451
 234  1838.643
 235  1701.407
 236  1791.538
 237  1795.001
 238  1795.668
 239  1846.962
 240  1862.747
 241  1864.938
 242  1741.7
 243  1772.216
 244  1884.912
 245  1891.993
 246  1895.313
 247  1863.521
 248  1788.917
 249  1745.384
 250  1858.761
 251  1846.985
 252  1741.891
 253  1744.394
 254  1851.747
 255  1789.891
 256  1728.253
 257  1774.97
 258  1848.216
 259  1856.498
 260  1842.825
 261  1915.883
 262  1825.632
 263  1723.531
 264  1787.454
 265  1910.184
 266  1789.976
 267  1774.819
 268  1789.764
 269  1874.964
 270  1807.027
 271  1803.338
 272  1809.917
 273  1857.524
 274  1758.145
 275  1880.746
 276  1874.62
 277  1834.868
 278  1805.836
 279  1847.556
 280  1775.471
 281  1821.171
 282  1925.943
 283  1970.357
 284  1858.797
 285  1737.734
 286  1848.541
 287  1833.268
 288  1882.294
 289  1902.219
 290  1881.087
 291  1954.849
 292  1919.72
 293  1921.038
 294  1840.345
 295  1836.043
 296  1807.709
 297  1918.418
 298  1893.11
 299  1911.627
 300  1889.703
 301  2034.687
 302  2016.083
 303  1929.115
 304  1919.148
 305  1866.927
 306  1799.206
 307  1798.596
 308  1875.524
 309  1831.365
 310  1811.383
 311  1769.581
 312  1866.96
 313  1861.875
 314  1797.32
 315  1920.905
 316  1892.715
 317  1891.13
 318  1923.596
 319  1900.312
 320  1881.867
 321  1796.886
 322  1934.092
 323  1842.553
 324  1753.069
 325  1774.086
 326  1809.078
 327  1824.569
 328  1816.335
 329  1876.034
 330  1833.414
 331  1802.831
 332  1786.628
 333  1840.276
 334  1788.307
 335  1740.312
 336  1858.526
 337  1961.578
 338  1981.78
 339  1892.04
 340  1821.841
 341  1770.171
 342  1732.323
 343  1808.681
 344  1873.63
 345  1827.341
 346  1931.395
 347  2051.041
 348  1919.277
 349  1877.729
 350  1846.205
 351  1804.912
 352  1762.541
 353  1762.427
 354  1869.714
 355  1920.939
 356  1845.982
 357  1900.253
 358  1844.86
 359  1842.151
 360  1836.895
 361  1908.438
 362  1869.39
 363  1786.284
 364  1725.274
 365  1844.789
 366  1812.462
 367  1787.315
 368  1838.354
 369  1855.851
 370  1937.632
 371  2024.645
 372  1998.873
 373  1885.264
 374  1867.706
 375  1907.442
 376  1891.092
 377  1850.829
 378  1818.016
 379  1831.468
 380  1801.406
 381  1810.5
 382  1872.255
 383  1888.542
 384  1849.168
 385  1829.376
 386  1817.986
 387  1852.59
 388  1831.136
 389  1811.509
 390  1900.225
 391  1798.13
 392  1776.052
 393  1774.474
 394  1831.126
 395  1818.381
 396  1789.797
 397  1838.955
 398  1904.801
 399  1812.476
 400  1749.936
 401  1766.189
 402  1720.391
 403  1626.493
 404  1762.763
 405  1638.88
 406  1645.083
 407  1641.321
 408  1743.73
 409  1740.851
 410  1716.201
 411  1746.014
 412  1680.675
 413  1718.729
 414  1729.014
 415  1777.917
 416  1944.281
 417  1915.574
 418  1900.128
 419  1946.905
 420  1805.462
 421  1872.071
 422  1935.155
 423  1908.382
 424  1884.002
 425  1770.791
 426  1799.226
 427  1810.814
 428  1742.357
 429  1753.766
 430  1824.832
 431  1787.353
 432  1842.281
 433  1861.418
 434  1807.057
 435  1812.579
 436  1809.753
 437  1869.902
 438  1849.968
 439  1815.937
 440  1806.409
 441  1799.905
 442  1800.335
 443  1865.254
 444  1852.602
 445  1813.676
 446  1757.009
 447  1805.364
 448  1804.945
 449  1778.37
 450  1729.792
 451  1771.317
 452  1723.682
 453  1654.51
 454  1759.432
 455  1764.46
 456  1795.046
 457  1836.837
 458  1829.058
 459  1856.214
 460  1742.402
 461  1731.87
 462  1821.249
 463  1809.486
 464  1820.243
 465  1804.058
 466  1897.695
 467  1809.679
 468  1894.155
 469  1943.559
 470  1890.552
 471  1912.219
 472  1877.296
 473  1863.313
 474  1820.171
 475  1956.766
 476  1952.61
 477  1791.821
 478  1746.723
 479  1862.688
 480  1934.843
 481  1841.714
 482  1832.538
 483  1950.367
 484  1986.353
 485  1829.172
 486  1807.054
 487  1843.654
 488  2002.96
 489  1919.141
 490  1976.32
 491  1898.857
 492  1866.427
 493  1914.31
 494  1888.027
 495  1836.89
 496  1790.208
 497  1918.869
 498  1846.21
 499  1835.297
 500  1871.67
 501  1813.404
 502  1854.663
 503  1870.621
 504  1951.974
 505  1971.649
 506  1843.899
 507  1873.647
 508  1965.881
 509  1966.685
 510  1961.466
 511  1939.639
