# Input file       =  1199810099.108133_cleaned.dat
# Candidate        =  PSR_0332+5434
# Telescope        =  AR
# Epoch_topo       =  58130.691181807095
# Epoch_bary       =  N/A
# T_sample         =  0.002
# Data Folded      =  7340032
# Data Avg         =  0.888872778196981
# Data StdDev      =  5.75884060564465 
# Profile Bins     =  512
# Profile Avg      =  12742.96126813   
# Profile StdDev   =  689.523471723649 
# Reduced chi-sqr  =  0.605
# Prob(Noise)      <  1   (~0.0 sigma)
# P_topo (ms)      =  714.564959953438  +/- 4.24e-05
# P'_topo (s/s)    =  -0                +/- 2.24e-11
# P''_topo (s/s^2) =  0                 +/- 9.87e-15
# P_bary (ms)      =  N/A
# P'_bary (s/s)    =  N/A
# P''_bary (s/s^2) =  N/A
# P_orb (s)        =  N/A
# asin(i)/c (s)    =  N/A
# eccentricity     =  N/A
# w (rad)          =  N/A
# T_peri           =  N/A
######################################################
   0  13058.56
   1  13383.05
   2  12960.23
   3  12471.78
   4  12256.27
   5  12713.83
   6  12716.72
   7  12603.4
   8  12715.94
   9  12838.82
  10  13153.58
  11  12406.03
  12  12392.45
  13  12524.58
  14  12077.45
  15  12704.42
  16  12800.3
  17  12820.79
  18  12434.86
  19  12680.87
  20  13278.28
  21  12784.83
  22  12280.01
  23  12627.43
  24  12945.55
  25  12715.78
  26  12610.1
  27  13003.14
  28  13023.57
  29  12487.14
  30  13200.58
  31  13194.27
  32  12344.84
  33  12474.31
  34  12853.92
  35  12905.17
  36  12799.74
  37  12698.84
  38  12862.51
  39  12916.05
  40  12734.77
  41  12478.97
  42  12503.19
  43  12525.69
  44  12443.63
  45  12638.64
  46  12785.21
  47  12679.97
  48  13015.28
  49  13011.34
  50  12693.97
  51  12751.39
  52  12775.96
  53  12674.62
  54  12755.16
  55  12696.7
  56  12242.28
  57  12403.04
  58  12596.53
  59  13108.89
  60  12990.71
  61  12190.95
  62  12361.68
  63  13042.95
  64  12970.06
  65  12478.36
  66  13037.71
  67  13982.19
  68  13679.05
  69  12998.14
  70  12702.42
  71  12117.31
  72  12364.86
  73  13117.64
  74  12899.61
  75  12604.52
  76  12702.19
  77  13197.04
  78  12926.1
  79  12585.81
  80  12946.19
  81  12978.75
  82  13315.2
  83  12686.9
  84  12885.29
  85  13094.05
  86  13112.06
  87  13230.79
  88  13088.01
  89  12358.47
  90  11888.67
  91  12445.71
  92  12890.83
  93  12482.59
  94  12593.08
  95  12683.27
  96  12181.13
  97  12107.28
  98  11918.52
  99  12119.83
 100  12525.02
 101  12467.12
 102  13523.31
 103  13120.79
 104  12322.63
 105  12236.38
 106  13061.15
 107  12791.95
 108  12530.19
 109  12997.71
 110  13190.23
 111  12734.44
 112  12888.53
 113  12335.67
 114  12094.27
 115  12194.23
 116  12898.33
 117  12523.63
 118  12792.15
 119  13247.22
 120  13559.17
 121  13042.16
 122  12618.9
 123  12932.39
 124  13211.96
 125  12746.62
 126  12756.34
 127  13219.5
 128  13044.05
 129  12754.54
 130  13004.08
 131  12956.13
 132  12485.7
 133  12357.56
 134  13322.76
 135  13342.95
 136  13136.13
 137  12729.62
 138  12688.8
 139  12608.33
 140  12624.89
 141  12716.5
 142  13067.31
 143  12814.51
 144  12494.7
 145  12732.88
 146  12708.64
 147  12478.79
 148  13104.14
 149  13022.42
 150  12912.89
 151  12424.79
 152  12793.29
 153  13204.02
 154  12969.45
 155  12914.5
 156  12653.59
 157  12749.05
 158  13115.23
 159  13566.65
 160  13183.51
 161  12657.92
 162  12287.55
 163  13196.18
 164  13312.8
 165  12341.9
 166  12564.17
 167  13155.92
 168  12827.32
 169  12575.47
 170  13114.45
 171  12724.56
 172  12201.19
 173  12428.96
 174  12496.52
 175  12329.34
 176  12499.83
 177  13010.1
 178  13062.1
 179  12872.06
 180  12636.8
 181  12851.91
 182  12844.3
 183  12692.62
 184  13382.8
 185  13207.33
 186  12152.74
 187  12619.75
 188  13068.54
 189  12657.91
 190  12626.88
 191  12754.79
 192  13159.98
 193  12892.88
 194  12549.25
 195  12872.5
 196  12727.62
 197  12616.63
 198  12995.62
 199  12917.37
 200  13030.79
 201  12839.34
 202  13354.17
 203  12761.05
 204  12081.75
 205  12810.66
 206  13542.63
 207  12755.76
 208  12569.23
 209  12919.8
 210  13116.05
 211  12813.56
 212  13011.76
 213  12914.73
 214  12771.03
 215  12728.77
 216  12691.31
 217  12808.17
 218  12695.21
 219  12297.74
 220  12170.95
 221  12528.41
 222  12413.64
 223  12225.42
 224  12818.84
 225  13006.25
 226  12666.13
 227  12477.8
 228  12215.53
 229  12412.12
 230  12599.11
 231  13198.07
 232  13013.57
 233  11836.14
 234  12128.11
 235  12538.45
 236  13091.81
 237  12576.03
 238  12430.71
 239  12534.3
 240  12699.17
 241  12739.69
 242  12479.29
 243  12735.55
 244  13001.09
 245  13253.05
 246  13119.53
 247  12867.73
 248  12709.6
 249  12978.58
 250  13134.8
 251  12794.72
 252  12321.33
 253  12866.31
 254  12752.19
 255  12329.01
 256  12773.1
 257  12880.56
 258  12894.23
 259  12757.86
 260  13013.3
 261  12777.44
 262  12766.38
 263  13090.06
 264  12699.99
 265  12566.07
 266  12148.74
 267  12446.28
 268  12281.8
 269  12387.64
 270  12280.68
 271  12627.95
 272  12722.04
 273  12756.46
 274  12698.21
 275  12090.79
 276  11564.89
 277  12244.36
 278  13178.45
 279  12756.72
 280  12438.69
 281  13028.18
 282  13249.76
 283  13101.45
 284  12829.35
 285  12942.54
 286  13092.32
 287  12887.52
 288  12594.76
 289  12200.05
 290  11990.71
 291  12530.9
 292  12762.03
 293  12643.35
 294  12218.11
 295  12456.62
 296  13084.82
 297  13354.68
 298  12820.98
 299  12756.29
 300  12654.7
 301  12545.86
 302  12818.4
 303  12883.91
 304  12677.44
 305  13117.85
 306  13488.64
 307  12989.1
 308  12846.66
 309  12260.07
 310  12496.36
 311  12774.68
 312  12633.25
 313  12483.79
 314  12968.06
 315  12605.34
 316  12605.46
 317  12549.1
 318  12610.87
 319  12406.75
 320  12509.29
 321  12657.93
 322  12599.34
 323  12302.38
 324  12606.14
 325  12363.45
 326  11999.52
 327  12688.53
 328  12872.61
 329  12682.48
 330  12488.04
 331  13038.57
 332  13185.9
 333  12551.83
 334  12347.08
 335  12469.65
 336  12429.63
 337  12348.04
 338  12682.67
 339  12650.87
 340  12703.34
 341  13127.47
 342  12746.01
 343  12187.41
 344  12318.29
 345  12700.92
 346  13185.66
 347  12623.63
 348  12286.4
 349  12887.67
 350  13143.11
 351  13022.41
 352  13184.78
 353  13485.42
 354  13165.73
 355  13774.41
 356  14196.32
 357  14489.92
 358  13837.48
 359  13558.13
 360  13674.24
 361  13756.85
 362  13100.82
 363  12448.56
 364  12328.86
 365  12601.81
 366  12326.01
 367  12670.94
 368  13111.4
 369  13181.21
 370  13237.06
 371  13076.3
 372  12617.04
 373  12261.27
 374  12951.28
 375  12648.38
 376  12637.66
 377  12240.59
 378  12631.51
 379  12555.16
 380  12776.74
 381  13027.34
 382  13225.01
 383  12730.83
 384  12390.99
 385  12633.66
 386  12517.01
 387  12207.62
 388  12543.57
 389  12215.57
 390  12174.13
 391  11451.01
 392  12708.2
 393  13027.86
 394  12775.27
 395  12437.05
 396  13051.63
 397  12788.81
 398  12651.57
 399  12862.22
 400  13128.29
 401  13109.5
 402  13162.51
 403  12766.13
 404  12299.03
 405  12261
 406  12058.97
 407  12421.01
 408  12574.67
 409  12592
 410  12791.89
 411  12382.36
 412  12256.54
 413  12428.72
 414  12439.76
 415  12401.04
 416  12519.59
 417  13167.1
 418  12666.13
 419  12620.24
 420  12842.95
 421  13475.93
 422  13602.52
 423  12929.23
 424  12621.81
 425  12800.07
 426  12627.37
 427  12399.96
 428  12155.45
 429  12328.69
 430  12030.74
 431  12814.66
 432  13516.21
 433  12625.21
 434  12136.72
 435  12569.05
 436  13053.19
 437  12629.29
 438  12676.16
 439  12904.66
 440  13362.26
 441  13418.2
 442  13077.96
 443  12976.96
 444  12297.77
 445  13025.98
 446  13447.4
 447  13323.94
 448  13352.18
 449  13364
 450  13190.95
 451  12781.94
 452  12271.6
 453  12464.65
 454  12420.64
 455  12666.37
 456  12435.04
 457  12406.12
 458  12865.65
 459  12573.13
 460  12834.75
 461  12770.7
 462  12191.17
 463  12334.52
 464  13147.22
 465  12704.45
 466  12129.11
 467  12022.78
 468  11761.44
 469  11552.33
 470  12161.35
 471  12498.28
 472  12280.48
 473  12664.33
 474  13231.82
 475  12755.87
 476  12202
 477  12569.41
 478  12653.52
 479  13038.5
 480  12615.08
 481  12286.68
 482  12458.63
 483  12437.46
 484  12731.04
 485  12812.89
 486  12959.69
 487  12673.74
 488  12922.88
 489  13119.4
 490  12765.44
 491  12348.32
 492  12771.95
 493  13308.11
 494  13595.98
 495  13052.63
 496  12504.55
 497  12829.17
 498  12611.21
 499  12813.21
 500  13185.32
 501  13363.03
 502  13267.68
 503  13550.92
 504  13385.95
 505  12950.68
 506  12915.64
 507  12842.82
 508  12093.26
 509  11718.58
 510  12018.71
 511  12818.9
