# Input file       =  1199881642.101681_cleaned.dat
# Candidate        =  PSR_0332+5434
# Telescope        =  AR
# Epoch_topo       =  58131.519225713899
# Epoch_bary       =  N/A
# T_sample         =  0.002
# Data Folded      =  7143424
# Data Avg         =  0.154864951324171
# Data StdDev      =  4.56452196678143 
# Profile Bins     =  512
# Profile Avg      =  2160.8064550496  
# Profile StdDev   =  539.154873552611 
# Reduced chi-sqr  =  1.343
# Prob(Noise)      <  3.11e-07   (~5.0 sigma)
# P_topo (ms)      =  714.565532903603  +/- 2.79e-05
# P'_topo (s/s)    =  -0                +/- 1.52e-11
# P''_topo (s/s^2) =  0                 +/- 6.87e-15
# P_bary (ms)      =  N/A
# P'_bary (s/s)    =  N/A
# P''_bary (s/s^2) =  N/A
# P_orb (s)        =  N/A
# asin(i)/c (s)    =  N/A
# eccentricity     =  N/A
# w (rad)          =  N/A
# T_peri           =  N/A
######################################################
   0  2155.858
   1  2009.166
   2  2267.222
   3  2594.387
   4  2341.742
   5  1876.292
   6  1688.104
   7  2091.64
   8  2312.909
   9  2143.248
  10  2601.435
  11  2924.875
  12  2751.998
  13  2137.179
  14  1927.086
  15  2337.877
  16  2260.286
  17  2163.783
  18  2259.867
  19  2763.77
  20  2702.404
  21  2000.067
  22  1777.772
  23  1677.114
  24  2353.246
  25  2186.311
  26  2220.746
  27  2968.049
  28  3348.308
  29  2700.583
  30  1845.34
  31  1563.83
  32  1817.528
  33  2022.04
  34  1665.35
  35  2155.693
  36  2355.612
  37  2320.252
  38  1690.775
  39  1503.34
  40  1789.312
  41  1858.364
  42  1708.625
  43  1943.251
  44  2218.235
  45  2335.965
  46  2227.176
  47  2098.096
  48  2473.515
  49  2224.707
  50  2012.32
  51  1851.401
  52  2460.845
  53  2453.997
  54  1658.463
  55  1370.879
  56  1529.197
  57  1960.971
  58  2257.316
  59  2561.852
  60  2859.085
  61  2925.345
  62  2185.136
  63  1733.673
  64  1603.775
  65  2015.943
  66  2162.002
  67  2039.708
  68  2352.049
  69  2699.934
  70  2487.568
  71  1889.773
  72  1609.944
  73  1740.685
  74  2028.623
  75  2155.116
  76  2113.227
  77  2805.676
  78  2898.262
  79  2344.625
  80  1996.698
  81  2188.203
  82  2537.96
  83  1938.573
  84  1744
  85  2109.448
  86  2017.469
  87  1404.125
  88  1027.988
  89  1591.458
  90  2112.199
  91  2288.08
  92  2391.575
  93  2698.613
  94  2741.703
  95  2156.278
  96  1691.463
  97  1639.442
  98  2044.266
  99  2235.046
 100  2168.203
 101  2419.976
 102  2455.351
 103  1993.157
 104  1111.83
 105  1307.035
 106  1601.814
 107  2251.678
 108  1965.996
 109  2177.594
 110  3239.921
 111  3099.281
 112  2804.065
 113  2401.21
 114  2370.721
 115  2490.751
 116  2268
 117  2176.832
 118  2742.794
 119  2503.829
 120  1804.161
 121  1588.096
 122  2125.451
 123  2298.744
 124  2278.312
 125  2024.543
 126  2595.538
 127  2699.314
 128  2230.164
 129  1942.469
 130  2016.653
 131  2383.449
 132  2468.577
 133  1989.02
 134  2032.491
 135  2320.715
 136  2278.462
 137  1508.713
 138  1246.567
 139  1690.804
 140  1694.214
 141  1987.575
 142  2087.134
 143  2473.863
 144  2714.093
 145  2302.302
 146  1909.616
 147  1881.375
 148  1912.71
 149  1701.664
 150  1740.231
 151  2418.16
 152  2659.629
 153  1968.887
 154  1795.872
 155  1850.9
 156  1998.773
 157  1823.927
 158  1973.89
 159  2053.423
 160  2603.56
 161  2600.854
 162  1836.094
 163  1965.428
 164  2210.081
 165  2496.928
 166  2014.534
 167  2028.313
 168  2698.849
 169  2151.297
 170  1597.993
 171  1491.002
 172  1871.918
 173  2020.564
 174  2064.705
 175  2532.125
 176  2985.959
 177  2854.991
 178  2550.925
 179  1939.959
 180  1763.914
 181  2104.82
 182  2337.751
 183  2112.836
 184  2413.372
 185  2753.231
 186  2086.737
 187  1536.779
 188  1944.104
 189  2119.072
 190  2255.534
 191  2414.797
 192  2492.152
 193  2396.785
 194  2291.946
 195  2287.407
 196  2252.573
 197  2171.323
 198  2373.524
 199  2222.132
 200  1863.824
 201  2227.501
 202  2080.168
 203  1614.899
 204  1430.958
 205  1876.181
 206  2125.694
 207  2073.099
 208  2170.326
 209  2696.301
 210  3018.95
 211  2320.301
 212  1686.04
 213  1689.756
 214  1736.828
 215  1867.147
 216  1841.944
 217  2240.273
 218  2760.819
 219  1938.973
 220  1469.735
 221  1662.142
 222  1823.491
 223  1972.69
 224  1886.339
 225  2582.43
 226  2942.569
 227  2484.96
 228  1944.432
 229  1265.606
 230  1741.474
 231  2249.91
 232  2223.351
 233  2123.302
 234  2275.956
 235  2274.466
 236  1507.28
 237  1213.206
 238  1606.675
 239  2434.999
 240  2462.618
 241  2492.569
 242  2905.07
 243  2826.14
 244  2130.234
 245  1814.844
 246  1912.252
 247  2106.658
 248  2029.143
 249  2079.505
 250  2409.922
 251  2547.369
 252  2084.904
 253  1427.399
 254  1299.236
 255  1538.952
 256  1715.284
 257  2095.075
 258  2461.046
 259  2970.753
 260  2771.391
 261  2537.764
 262  2152.225
 263  2205.606
 264  1895.995
 265  1876.618
 266  2166.942
 267  2485.305
 268  2009.192
 269  1831.828
 270  1572.708
 271  1749.527
 272  2115.845
 273  2292.988
 274  2338.947
 275  2770.872
 276  2922.745
 277  1972.986
 278  1671.132
 279  1803.785
 280  1869.907
 281  1821.585
 282  1891.593
 283  2344.725
 284  2624.725
 285  2122.57
 286  1197.574
 287  1542.863
 288  1767.611
 289  2018.468
 290  2182.203
 291  2561.954
 292  3134.585
 293  2678.486
 294  2226.033
 295  2220.907
 296  2187.125
 297  2256.761
 298  2124.054
 299  2499.215
 300  2781.25
 301  2649.153
 302  2073.679
 303  1646.89
 304  2021.864
 305  2345.087
 306  2542.02
 307  3317.429
 308  3988.474
 309  4146.755
 310  3664.95
 311  3156.101
 312  2992.409
 313  2916.942
 314  2545.222
 315  2768.727
 316  2729.521
 317  2815.386
 318  1999.718
 319  1338.818
 320  1440.557
 321  1898.417
 322  2327.677
 323  2229.931
 324  2777.964
 325  3155.103
 326  2700.16
 327  2441.332
 328  2229.174
 329  1996.263
 330  1854.968
 331  1785.172
 332  1960.755
 333  2476.563
 334  2650.572
 335  1939.169
 336  1480.468
 337  1724.016
 338  2065.664
 339  2084.429
 340  2264.608
 341  2721.405
 342  2832.178
 343  2366.275
 344  1720.864
 345  1947.089
 346  2273.858
 347  2188.329
 348  2342.479
 349  2585.905
 350  2378.645
 351  1822.828
 352  1308.361
 353  1363.384
 354  2034.031
 355  2370.941
 356  2771.032
 357  3039.363
 358  3298.083
 359  2544.567
 360  2053.177
 361  1693.972
 362  1131.049
 363  1700.838
 364  2094.781
 365  2492.925
 366  2747.472
 367  2544.314
 368  1824.525
 369  1333.904
 370  1505.736
 371  1968.393
 372  2121.949
 373  2641.599
 374  2848.326
 375  3057.823
 376  2437.876
 377  1939.418
 378  2062.935
 379  2233.888
 380  2216.863
 381  2113.04
 382  2396.969
 383  2464.382
 384  2070.801
 385  1705.92
 386  1595.83
 387  1662.672
 388  1851.659
 389  2418.623
 390  2638.228
 391  2819.728
 392  2580.028
 393  2164.823
 394  1752.205
 395  1745.462
 396  2129.449
 397  2039.148
 398  2293.935
 399  2458.432
 400  2283.836
 401  1768.892
 402  1643.647
 403  2033.93
 404  2180.949
 405  1925.329
 406  2358.262
 407  2998.961
 408  2608.8
 409  2408.748
 410  2029.664
 411  2095.964
 412  2499.339
 413  2272.101
 414  1894.601
 415  2013.847
 416  2353.644
 417  1876.76
 418  1037.516
 419  1336.636
 420  1793.224
 421  2004.697
 422  2356.298
 423  2966.1
 424  3071.029
 425  2485.413
 426  1910.818
 427  1736.445
 428  1901.815
 429  2170.851
 430  2498.416
 431  2733.783
 432  2961.889
 433  2518.427
 434  1629.601
 435  1148.152
 436  1465.373
 437  1861.268
 438  1903.182
 439  2409.617
 440  2947.812
 441  2972.05
 442  2587.002
 443  1688.451
 444  1483.793
 445  1951.653
 446  1792.035
 447  1906.561
 448  2201.71
 449  2528.463
 450  1991.592
 451  1358.608
 452  1651.72
 453  2044.87
 454  1832.328
 455  2035.272
 456  2524.481
 457  2918.993
 458  2550.127
 459  1515.365
 460  1563.84
 461  1831.495
 462  2149.259
 463  2295.343
 464  2287.412
 465  2457.556
 466  2415.18
 467  1730.803
 468  1334.713
 469  1250.791
 470  1696.951
 471  1877.475
 472  2156.462
 473  2465.599
 474  2514.781
 475  2385.788
 476  1875.465
 477  1873.667
 478  1935.248
 479  1983.831
 480  1749.632
 481  1886.067
 482  2332.093
 483  2058.591
 484  1263.53
 485  1348.434
 486  1966.917
 487  2162.231
 488  1841.115
 489  2164.51
 490  2892.058
 491  2397.955
 492  1845.913
 493  2056.79
 494  2377.856
 495  2465.068
 496  2162.152
 497  2230.14
 498  2182.152
 499  2061.55
 500  1504.615
 501  1248.246
 502  1577.422
 503  2049.044
 504  2326.874
 505  2467.085
 506  2822.271
 507  3030.658
 508  2408.49
 509  1933.791
 510  2081.107
 511  2119.097
