# Input file       =  1199623241.089426_cleaned.dat
# Candidate        =  PSR_0332+5434
# Telescope        =  AR
# Epoch_topo       =  58128.528473257247
# Epoch_bary       =  N/A
# T_sample         =  0.002
# Data Folded      =  7143424
# Data Avg         =  0.492125366144781
# Data StdDev      =  7.27855702158779 
# Profile Bins     =  256
# Profile Avg      =  13732.9219162085 
# Profile StdDev   =  1215.84585996735 
# Reduced chi-sqr  =  0.780
# Prob(Noise)      <  0.996   (~0.0 sigma)
# P_topo (ms)      =  714.563361540802  +/- 0.000155
# P'_topo (s/s)    =  -0                +/- 8.43e-11
# P''_topo (s/s^2) =  0                 +/- 3.82e-14
# P_bary (ms)      =  N/A
# P'_bary (s/s)    =  N/A
# P''_bary (s/s^2) =  N/A
# P_orb (s)        =  N/A
# asin(i)/c (s)    =  N/A
# eccentricity     =  N/A
# w (rad)          =  N/A
# T_peri           =  N/A
######################################################
   0  13198.8
   1  13669.35
   2  14794.79
   3  15126.6
   4  14199.9
   5  12736.96
   6  14555.82
   7  13862.62
   8  14062.89
   9  12758.86
  10  13644.39
  11  13052.21
  12  12280.44
  13  13197.86
  14  12922.05
  15  13562.21
  16  14394.57
  17  14518.38
  18  13375.96
  19  13479.02
  20  16054.52
  21  14709.11
  22  13359.59
  23  14256.21
  24  14564.37
  25  13145.83
  26  13816.67
  27  14227.15
  28  14063.07
  29  13846.2
  30  14921.41
  31  14048.51
  32  13023.57
  33  13970.98
  34  12875.96
  35  13060.79
  36  13809.83
  37  14635.07
  38  14513.73
  39  13647.25
  40  13763.39
  41  14650.84
  42  14087.66
  43  12139.41
  44  13539.33
  45  14404.05
  46  14440.64
  47  14816.53
  48  13521.35
  49  14178.71
  50  14083.37
  51  12892.16
  52  12916.74
  53  14040.66
  54  14734.94
  55  13850.93
  56  13188.96
  57  13588.75
  58  12858.09
  59  12109.9
  60  12946.77
  61  13089.63
  62  13455.77
  63  14285.2
  64  15229.32
  65  13932.63
  66  11487.49
  67  12357.5
  68  12844.03
  69  11464.98
  70  12569.44
  71  12578.8
  72  13004.7
  73  13552.97
  74  14656.27
  75  12751.91
  76  14376.91
  77  14990.56
  78  15335.64
  79  14716.73
  80  14447.66
  81  13780.87
  82  13105.46
  83  13319.16
  84  13069.14
  85  13335.66
  86  13196.62
  87  14436.54
  88  12841.04
  89  12651.12
  90  13438.41
  91  14084.19
  92  13364.95
  93  12687.14
  94  13429.37
  95  15157.91
  96  13586.65
  97  13793.75
  98  13325.41
  99  14534.05
 100  13200.02
 101  13515.43
 102  13286.78
 103  13680.54
 104  13534.72
 105  14578.5
 106  13697.91
 107  13528.97
 108  13433.13
 109  14013.52
 110  13699.1
 111  12522.63
 112  11706.03
 113  13748.69
 114  14422.37
 115  13420.93
 116  12787.42
 117  11522.88
 118  12477.33
 119  12838.92
 120  14445.63
 121  15072.83
 122  15707.14
 123  13452.87
 124  14420.43
 125  12595.35
 126  12768.11
 127  13192.96
 128  14337.48
 129  14142.01
 130  13530.21
 131  13537.17
 132  13591.54
 133  12804.83
 134  13375.16
 135  12801.04
 136  13704.46
 137  13422.81
 138  13912.37
 139  14072.6
 140  12190.95
 141  12078.29
 142  12504.24
 143  12468.47
 144  12178.85
 145  13112.59
 146  14447.5
 147  14253.49
 148  14035.77
 149  14522.95
 150  13848.23
 151  14202.53
 152  14693.64
 153  16732.99
 154  17761.89
 155  18966.1
 156  14744.63
 157  14318.03
 158  13415.74
 159  14260.14
 160  12862.86
 161  14098.18
 162  14838.4
 163  14581.98
 164  14069.1
 165  12679.9
 166  11832.26
 167  13400.28
 168  14282.12
 169  15356.1
 170  13787.71
 171  14748.4
 172  14629.15
 173  13578.46
 174  13587.82
 175  13289.44
 176  14022.12
 177  13669.41
 178  13558.1
 179  13479.41
 180  13858.08
 181  13343.29
 182  14330.23
 183  13424.12
 184  13778.81
 185  13068.36
 186  14395.39
 187  14873.75
 188  13351.74
 189  12442.43
 190  13734.56
 191  13584.31
 192  13194.1
 193  12288.57
 194  14007.17
 195  13038.33
 196  14665.13
 197  14213.6
 198  13263.65
 199  13061.01
 200  14405.47
 201  13441.48
 202  13279.29
 203  13268.55
 204  15997.37
 205  14835.26
 206  13376.62
 207  13068.78
 208  13679.04
 209  13482.9
 210  14570.76
 211  15253.91
 212  13957.86
 213  14461.59
 214  14535.95
 215  14146.69
 216  13073.04
 217  13943.28
 218  13506.32
 219  14171.09
 220  14009.83
 221  14172.99
 222  14112.56
 223  13800.04
 224  13986.6
 225  13340.68
 226  12181.06
 227  12973.29
 228  13115.72
 229  13976.1
 230  14456.52
 231  14019.53
 232  12265.35
 233  12136.97
 234  12666.12
 235  13682.03
 236  14402.16
 237  14708.91
 238  14092.72
 239  14301.59
 240  14297.37
 241  13832.48
 242  14041.03
 243  13368.63
 244  13018.44
 245  14312.12
 246  15173.74
 247  13482.8
 248  13116.24
 249  13030.37
 250  13114.8
 251  13574.31
 252  13787.92
 253  13365.37
 254  14423.21
 255  14363.26
