# Input file       =  1199377074.114452_cleaned.dat
# Candidate        =  PSR_0332+5434
# Telescope        =  AR
# Epoch_topo       =  58125.679318454306
# Epoch_bary       =  N/A
# T_sample         =  0.002
# Data Folded      =  7340032
# Data Avg         =  0.185848948957965
# Data StdDev      =  1.00018412749931 
# Profile Bins     =  512
# Profile Avg      =  2664.30683007095 
# Profile StdDev   =  119.755082521339 
# Reduced chi-sqr  =  0.572
# Prob(Noise)      <  1   (~0.0 sigma)
# P_topo (ms)      =  714.561177566821  +/- 0.000607
# P'_topo (s/s)    =  -0                +/- 3.2e-10
# P''_topo (s/s^2) =  0                 +/- 1.41e-13
# P_bary (ms)      =  N/A
# P'_bary (s/s)    =  N/A
# P''_bary (s/s^2) =  N/A
# P_orb (s)        =  N/A
# asin(i)/c (s)    =  N/A
# eccentricity     =  N/A
# w (rad)          =  N/A
# T_peri           =  N/A
######################################################
   0  2650.905
   1  2623.194
   2  2674.973
   3  2657.23
   4  2692.551
   5  2661.215
   6  2735.992
   7  2722.486
   8  2585.535
   9  2585.183
  10  2588.196
  11  2650.925
  12  2571.076
  13  2551.397
  14  2594.302
  15  2583.79
  16  2634.709
  17  2679.708
  18  2663.068
  19  2602.332
  20  2532.718
  21  2568.545
  22  2578.802
  23  2637.37
  24  2614.951
  25  2602.076
  26  2670.924
  27  2683.202
  28  2600.607
  29  2609.409
  30  2578.756
  31  2626.523
  32  2667.474
  33  2566.53
  34  2593.065
  35  2654.197
  36  2650.009
  37  2611.526
  38  2634.663
  39  2658.439
  40  2708.389
  41  2719.294
  42  2733.643
  43  2704.267
  44  2692.056
  45  2777.491
  46  2764.181
  47  2849.334
  48  2759.261
  49  2769.8
  50  2722.034
  51  2708.994
  52  2716.584
  53  2723.631
  54  2753.256
  55  2730.031
  56  2701.763
  57  2565.963
  58  2601.592
  59  2586.586
  60  2617.056
  61  2720.806
  62  2725.439
  63  2718.358
  64  2676.28
  65  2629.465
  66  2653.935
  67  2594.224
  68  2596.429
  69  2658.162
  70  2775.53
  71  2658.574
  72  2734.402
  73  2687.946
  74  2648.66
  75  2641.844
  76  2632.07
  77  2616.235
  78  2564.921
  79  2612.364
  80  2645.413
  81  2705.833
  82  2704.378
  83  2686.114
  84  2602.62
  85  2601.937
  86  2654.582
  87  2684.012
  88  2728.546
  89  2574.774
  90  2608.953
  91  2663.152
  92  2687.445
  93  2682.483
  94  2654.528
  95  2642.578
  96  2687.164
  97  2693.579
  98  2612.79
  99  2671.954
 100  2694.449
 101  2692.753
 102  2762.464
 103  2752.198
 104  2816.756
 105  2688.491
 106  2689.933
 107  2708.516
 108  2652.826
 109  2641.779
 110  2616.298
 111  2705.402
 112  2711.409
 113  2702.626
 114  2621.476
 115  2679.892
 116  2655.258
 117  2668.86
 118  2670.973
 119  2662.204
 120  2642.635
 121  2637.604
 122  2609.204
 123  2543.733
 124  2565.071
 125  2705.692
 126  2746.923
 127  2706.711
 128  2602.468
 129  2646.812
 130  2665.792
 131  2719.209
 132  2657.45
 133  2619.817
 134  2593.992
 135  2636.431
 136  2552.844
 137  2625.981
 138  2636.301
 139  2591.78
 140  2633.204
 141  2612.766
 142  2631.651
 143  2635.562
 144  2669.621
 145  2551.31
 146  2581.543
 147  2567.22
 148  2616.747
 149  2580.487
 150  2646.909
 151  2663.424
 152  2717.343
 153  2728.383
 154  2649.135
 155  2578.322
 156  2597.069
 157  2696.829
 158  2737.212
 159  2685.791
 160  2656.14
 161  2602.262
 162  2586.89
 163  2577.343
 164  2616.382
 165  2664.191
 166  2615.192
 167  2642.943
 168  2674.56
 169  2751.114
 170  2669.393
 171  2648.22
 172  2630.198
 173  2609.5
 174  2636.792
 175  2727.326
 176  2687.683
 177  2646.088
 178  2662.353
 179  2677.289
 180  2652.768
 181  2611.733
 182  2572.439
 183  2718.221
 184  2629.26
 185  2579.43
 186  2646.785
 187  2687.082
 188  2583.15
 189  2600.995
 190  2570.268
 191  2657.981
 192  2648.897
 193  2614.443
 194  2623.21
 195  2608.334
 196  2651.004
 197  2752.255
 198  2576.232
 199  2598.62
 200  2600.279
 201  2617.021
 202  2540.284
 203  2625.44
 204  2655.328
 205  2672.564
 206  2694.906
 207  2715.599
 208  2668.815
 209  2591.927
 210  2662.939
 211  2770.823
 212  2742.112
 213  2730.978
 214  2722.137
 215  2738.727
 216  2681.195
 217  2724.487
 218  2635.461
 219  2754.688
 220  2747.691
 221  2704.663
 222  2714.66
 223  2621.965
 224  2629.458
 225  2762.417
 226  2899.03
 227  2839.629
 228  2822.869
 229  2769.352
 230  2709.92
 231  2691.932
 232  2797.855
 233  2790.071
 234  2772.296
 235  2809.653
 236  2718.696
 237  2723.409
 238  2634.539
 239  2578.473
 240  2719.804
 241  2706.057
 242  2799.933
 243  2750.728
 244  2738.698
 245  2709.441
 246  2718.55
 247  2728.011
 248  2599.668
 249  2559.403
 250  2702.039
 251  2673.835
 252  2660.904
 253  2607.557
 254  2650.069
 255  2739.185
 256  2773.096
 257  2724.358
 258  2812.957
 259  2745.812
 260  2701.06
 261  2677.662
 262  2713.123
 263  2682.353
 264  2678.773
 265  2742.913
 266  2667.741
 267  2751.75
 268  2739.985
 269  2750.898
 270  2696.489
 271  2669.805
 272  2730.497
 273  2807.713
 274  2804.137
 275  2724.115
 276  2626.436
 277  2680.602
 278  2768.1
 279  2737.106
 280  2737.402
 281  2716.331
 282  2687.696
 283  2667.26
 284  2687.334
 285  2761.588
 286  2664.816
 287  2617.006
 288  2734.681
 289  2747.674
 290  2648.145
 291  2590.604
 292  2592.707
 293  2601.845
 294  2707.62
 295  2736.905
 296  2676.984
 297  2678.956
 298  2617.755
 299  2631.199
 300  2595.362
 301  2603.848
 302  2593.661
 303  2634.563
 304  2604.939
 305  2622.553
 306  2730.623
 307  2789.139
 308  2810.72
 309  2650.583
 310  2716.519
 311  2731.894
 312  2682.662
 313  2671.866
 314  2733.415
 315  2774.639
 316  2719.769
 317  2646.677
 318  2654.874
 319  2714.037
 320  2627.244
 321  2593.851
 322  2643.102
 323  2609.986
 324  2595.007
 325  2624.936
 326  2748.986
 327  2660.776
 328  2688.007
 329  2703.266
 330  2775.931
 331  2715.644
 332  2669.562
 333  2714.948
 334  2720.878
 335  2708.691
 336  2710.461
 337  2773.454
 338  2760.914
 339  2683.951
 340  2702.298
 341  2666.922
 342  2690.973
 343  2655.217
 344  2679.206
 345  2547.326
 346  2624.833
 347  2624.227
 348  2704.272
 349  2693.724
 350  2748.79
 351  2567.554
 352  2506.191
 353  2576.135
 354  2641.78
 355  2647.946
 356  2611.209
 357  2557.636
 358  2566.126
 359  2654.642
 360  2690.803
 361  2642.985
 362  2648.773
 363  2668.124
 364  2703.674
 365  2628.973
 366  2649.347
 367  2702.176
 368  2659.211
 369  2617.94
 370  2563.654
 371  2646.827
 372  2533.654
 373  2624.875
 374  2680.444
 375  2678.617
 376  2757.335
 377  2694.542
 378  2712.097
 379  2622.89
 380  2639.067
 381  2761.279
 382  2662.822
 383  2662.916
 384  2666.125
 385  2676.062
 386  2606.643
 387  2627.18
 388  2657.151
 389  2661.196
 390  2737.195
 391  2635.621
 392  2520.801
 393  2573.265
 394  2689.4
 395  2568.84
 396  2609.821
 397  2650.731
 398  2653.587
 399  2592.508
 400  2487.447
 401  2535.041
 402  2595.934
 403  2689.308
 404  2685.442
 405  2691.439
 406  2563.554
 407  2618.003
 408  2645.983
 409  2741.724
 410  2785.706
 411  2711.69
 412  2643.361
 413  2565.173
 414  2584.345
 415  2579.446
 416  2707.002
 417  2732.591
 418  2760.936
 419  2722.246
 420  2583.2
 421  2537.793
 422  2639.32
 423  2702.512
 424  2709.348
 425  2649.867
 426  2591.94
 427  2508.823
 428  2571.515
 429  2626.869
 430  2617.062
 431  2591.67
 432  2679.845
 433  2664.863
 434  2567.253
 435  2596.848
 436  2702.942
 437  2801.453
 438  2770.336
 439  2708.691
 440  2681.39
 441  2660.967
 442  2679.289
 443  2695.266
 444  2718.263
 445  2747.672
 446  2736.064
 447  2626.051
 448  2631.832
 449  2612.941
 450  2593.402
 451  2617.019
 452  2752.406
 453  2768.942
 454  2724.694
 455  2727.157
 456  2701.601
 457  2648.49
 458  2636.175
 459  2660.137
 460  2616.912
 461  2648.217
 462  2578.781
 463  2599.133
 464  2566.35
 465  2608.457
 466  2638.439
 467  2695.229
 468  2692.477
 469  2692.969
 470  2571.132
 471  2580.551
 472  2524.274
 473  2539.286
 474  2534.472
 475  2511.501
 476  2559.242
 477  2606.007
 478  2574.025
 479  2633.082
 480  2675.217
 481  2597.789
 482  2689.655
 483  2785.906
 484  2675.813
 485  2645.836
 486  2702.582
 487  2726.969
 488  2676.312
 489  2775.355
 490  2673.035
 491  2580.131
 492  2629.06
 493  2680.304
 494  2629.366
 495  2591.419
 496  2691.018
 497  2801.002
 498  2844.65
 499  2658.793
 500  2632.573
 501  2647.606
 502  2655.055
 503  2654.099
 504  2708.111
 505  2815.241
 506  2632.888
 507  2634.125
 508  2676.564
 509  2670.414
 510  2681.327
 511  2671.06
