# Input file       =  1199377074.114452-PSRB0329-2ms-sampling-dd.dat
# Candidate        =  PSR_0332+5434
# Telescope        =  AR
# Epoch_topo       =  58125.679318454306
# Epoch_bary       =  N/A
# T_sample         =  0.002
# Data Folded      =  7340032
# Data Avg         =  8.02959596505194e-09
# Data StdDev      =  302.980371261464 
# Profile Bins     =  512
# Profile Avg      =  0.304221751825822
# Profile StdDev   =  36276.759813695  
# Reduced chi-sqr  =  1.347
# Prob(Noise)      <  2.45e-07   (~5.0 sigma)
# P_topo (ms)      =  714.561177566821  +/- 0.000242
# P'_topo (s/s)    =  -0                +/- 1.28e-10
# P''_topo (s/s^2) =  0                 +/- 5.63e-14
# P_bary (ms)      =  N/A
# P'_bary (s/s)    =  N/A
# P''_bary (s/s^2) =  N/A
# P_orb (s)        =  N/A
# asin(i)/c (s)    =  N/A
# eccentricity     =  N/A
# w (rad)          =  N/A
# T_peri           =  N/A
######################################################
   0  -20530.77
   1  -26794.55
   2  -27022.11
   3  -29109.46
   4  -34890.96
   5  -33708.84
   6  -28102.88
   7  -26380.98
   8  -21673.81
   9  -15608.69
  10  -7965.519
  11  -14288.44
  12  -15879.18
  13  -21125.29
  14  -27649.24
  15  -21423.09
  16  9913.077
  17  27202.4
  18  27448.99
  19  26929.02
  20  -3052.94
  21  -28070.19
  22  -24106.5
  23  702.9695
  24  16302.45
  25  12648.69
  26  2074.702
  27  -19185.89
  28  -40663.5
  29  -42364.46
  30  -39816.82
  31  -39604.11
  32  -43351.49
  33  -38365.96
  34  -33233.26
  35  -34973.41
  36  -34721.73
  37  -37290.77
  38  -34461.46
  39  -14340.54
  40  14079.4
  41  17487.23
  42  20500.83
  43  13087.58
  44  -24244.22
  45  -21329.23
  46  -702.0898
  47  48488.5
  48  54610.88
  49  49366.75
  50  36014.8
  51  -21728.5
  52  -13245.39
  53  -16660.96
  54  -1367.096
  55  4823.771
  56  -1848.228
  57  -15669.68
  58  -11199.26
  59  9857.375
  60  25577.77
  61  34159.29
  62  35697.6
  63  17576.91
  64  -5067.547
  65  -13276.41
  66  -5292.231
  67  30873.57
  68  51009.22
  69  72935.26
  70  58919.4
  71  18281
  72  -1402.324
  73  -3457.646
  74  20797.83
  75  52325.25
  76  46076.79
  77  33902.74
  78  -848.2292
  79  -12317.96
  80  -20461.89
  81  -29769.62
  82  -29964.28
  83  -25085.14
  84  -19519.19
  85  -9473.531
  86  -5011.777
  87  -12068.22
  88  -18752.73
  89  -26820.58
  90  -33447.98
  91  -20724.69
  92  -18309.01
  93  11898.33
  94  21636.46
  95  25937.12
  96  26424.53
  97  8072.852
  98  -2916.589
  99  -9720.172
 100  -873.6936
 101  -9284.179
 102  -10279.07
 103  -1603.154
 104  -4707.701
 105  1794.571
 106  4180.303
 107  10830.96
 108  19570.94
 109  17977.6
 110  25667.96
 111  33994.06
 112  32913.34
 113  8903.525
 114  14644.22
 115  37479.2
 116  30730.57
 117  10104.89
 118  31545.55
 119  21545.55
 120  32804.71
 121  42830.74
 122  15248.93
 123  -6846.961
 124  -25645.18
 125  -8620.732
 126  -14928.13
 127  -13251.61
 128  -14419.6
 129  -20076.56
 130  -26859.04
 131  -30143.83
 132  -8821.824
 133  -4053.922
 134  -3542.279
 135  -213.509
 136  -7451.667
 137  -17631.64
 138  -11083.18
 139  -12202.8
 140  -15583.94
 141  -21416.94
 142  -26670.13
 143  -34530.22
 144  -33825.24
 145  -29765.57
 146  -30321.58
 147  -31365.79
 148  -30249.36
 149  -33617.66
 150  -30839.76
 151  -22876.9
 152  -16799.31
 153  -16255.18
 154  -19141.21
 155  -22280.14
 156  -31776.64
 157  -33852
 158  -24381.29
 159  -16950.75
 160  -17299.44
 161  -30912.48
 162  -35703.68
 163  -42809.61
 164  -44326.29
 165  -37481.12
 166  -35350.78
 167  -29080.03
 168  -18904.14
 169  -10880.47
 170  -17597.3
 171  -28526.05
 172  -34521.21
 173  -35345.04
 174  -27226.08
 175  -6234.5
 176  -8300.189
 177  -12156.67
 178  -21536.96
 179  -34726.11
 180  -33674.77
 181  -22925.44
 182  -23504.53
 183  -21831.94
 184  -22387.9
 185  -28213.46
 186  -31697.52
 187  -35843.07
 188  -38714.57
 189  -42061.25
 190  -42859.19
 191  -42216.05
 192  -42685.69
 193  -40090.57
 194  -36885.6
 195  -31862.02
 196  -27397.69
 197  -24555.46
 198  -23122.69
 199  -22570.62
 200  -38140.2
 201  -38145.46
 202  -18556.98
 203  2348.967
 204  10715.12
 205  10730.72
 206  -9654.049
 207  -19216.36
 208  -27755.84
 209  -24135.59
 210  -27752.58
 211  -21069.26
 212  -8606.996
 213  43408.8
 214  74186.48
 215  84928.68
 216  64438.58
 217  40912.91
 218  44687.67
 219  41754.2
 220  87190.48
 221  119781
 222  110207.5
 223  86044.99
 224  58024.21
 225  45532.05
 226  18448.68
 227  13520.99
 228  25427.03
 229  13581.36
 230  8172.087
 231  5040.048
 232  -18856.65
 233  -30156.75
 234  -32474.38
 235  -25787.72
 236  -22628.63
 237  -14293.02
 238  -10895.43
 239  -17189.38
 240  -12194.52
 241  -21395.17
 242  -36914.1
 243  -14136.63
 244  -830.2914
 245  14549.16
 246  26118.96
 247  8973.188
 248  -9416.551
 249  -35637.46
 250  -29328.63
 251  -28358.05
 252  -27286.6
 253  -25173.74
 254  -32309.77
 255  -34041.42
 256  -27550.31
 257  -23069.21
 258  -27822.81
 259  -28528.81
 260  -33211.84
 261  -30772.35
 262  -20616.93
 263  -12358.61
 264  -9870.967
 265  -12876.22
 266  -19636.59
 267  -21943.54
 268  -20441.97
 269  -14654.19
 270  -11603.09
 271  -7628.704
 272  -11593.12
 273  -16314.17
 274  -23417.84
 275  -27349.6
 276  -19863.56
 277  -4329.258
 278  16471.83
 279  13230.56
 280  9609.781
 281  -3123.125
 282  -17631.91
 283  -8478.963
 284  14820.16
 285  21781.95
 286  22218.27
 287  16310.76
 288  -12264.02
 289  -23971.27
 290  -29369.66
 291  -28235.41
 292  15276.51
 293  32865.68
 294  51282.7
 295  50909.65
 296  564.3223
 297  -14313.07
 298  -13313.51
 299  44827.85
 300  77985.7
 301  75385.34
 302  68488.7
 303  28481.78
 304  -3593.551
 305  1104.452
 306  2871.207
 307  695.4674
 308  -1785.917
 309  8987.248
 310  43484.41
 311  38239.2
 312  34611.03
 313  34360.16
 314  19805.42
 315  18311.59
 316  20452.08
 317  -5744.702
 318  195.4363
 319  7874.916
 320  12844.57
 321  17869.9
 322  22739.56
 323  26856.61
 324  44338.86
 325  35376.86
 326  34559
 327  25697.06
 328  29739.71
 329  37716.18
 330  57451.27
 331  71666.61
 332  51213.42
 333  40839.6
 334  10170.38
 335  -21669.86
 336  -32466.88
 337  -22605.29
 338  -11066.15
 339  -4752.305
 340  9137.912
 341  3984.121
 342  5346.709
 343  6108.896
 344  -490.5547
 345  -15619.66
 346  -33164.61
 347  -29408.26
 348  -12685.2
 349  -624.5289
 350  9849.786
 351  14117.41
 352  -6831.959
 353  -12135.05
 354  -25351.38
 355  -21941.26
 356  -20034.54
 357  -20130.64
 358  -20506.27
 359  -19910.42
 360  -14295.08
 361  -12471.05
 362  -13389.07
 363  -12464.9
 364  2806.915
 365  9015.051
 366  21056.39
 367  28941.55
 368  15694.36
 369  -4769.295
 370  -2882.112
 371  45210.64
 372  58141.86
 373  48031.33
 374  28739.73
 375  2172.51
 376  -31693.24
 377  -13158.2
 378  3924.325
 379  12007.76
 380  3981.167
 381  15249.43
 382  6825.875
 383  11264.32
 384  35647.73
 385  31316.96
 386  27322.24
 387  28973.94
 388  11635.83
 389  15643.15
 390  43117.3
 391  61602.61
 392  61269.32
 393  59399.48
 394  43868.1
 395  16613.94
 396  17993.4
 397  61010.01
 398  96037.53
 399  122170.1
 400  124468.4
 401  73143
 402  48177.31
 403  21208.78
 404  67521.98
 405  83093.84
 406  89412.88
 407  69183.23
 408  44626.33
 409  26521.18
 410  25688.56
 411  15874.65
 412  8546.488
 413  -1259.13
 414  9354.471
 415  19953.53
 416  28366.27
 417  20967.25
 418  -9830.327
 419  -7511.791
 420  -3489.648
 421  13596.02
 422  17997.51
 423  20428.45
 424  11595.61
 425  -10511.17
 426  -9726.662
 427  -7554.429
 428  -12927.95
 429  -14347.91
 430  -8152.289
 431  -8712.938
 432  -3552.695
 433  385.6484
 434  766.0659
 435  5146.134
 436  -5652.891
 437  -4325.361
 438  7776.904
 439  29431.3
 440  50006.44
 441  68116.16
 442  69657.06
 443  28408.33
 444  7107.902
 445  -32394.44
 446  -3345.958
 447  -3772.536
 448  6681.745
 449  -270.483
 450  -16104.19
 451  -24913.6
 452  -41064.52
 453  -40413.25
 454  -39514.33
 455  -39442.87
 456  -37818.87
 457  -39001.95
 458  -39831.83
 459  -39754.73
 460  -39375.82
 461  -38788
 462  -38412.92
 463  -39355.16
 464  -36090.64
 465  -35101.32
 466  -34026.62
 467  -34948.09
 468  -40291.76
 469  -40769.98
 470  -41908.68
 471  -21979.55
 472  -16940.56
 473  -15187.91
 474  -17980.63
 475  -21275.6
 476  -27917.24
 477  -24408.43
 478  7901.16
 479  17610.76
 480  13928.94
 481  2103.826
 482  -1943.876
 483  -13941.21
 484  -15922.52
 485  1565.042
 486  10505.54
 487  12510.34
 488  3901.855
 489  8856.373
 490  -3874.182
 491  -12881.18
 492  -4279.168
 493  16288.66
 494  26778.59
 495  26583.48
 496  19763.93
 497  9382.874
 498  -9866.841
 499  -6070.238
 500  15805.98
 501  11915.29
 502  14843.81
 503  3592.596
 504  7178.916
 505  -2984.185
 506  -9097.635
 507  2745.424
 508  -1854.86
 509  -4648.174
 510  -6708.312
 511  -17081.19
