# Input file       =  1199637838.101933-PSRB0329-2ms-sampling-dd.dat
# Candidate        =  PSR_0332+5434
# Telescope        =  AR
# Epoch_topo       =  58128.697420161261
# Epoch_bary       =  N/A
# T_sample         =  0.002
# Data Folded      =  7340032
# Data Avg         =  -6.07629156700252e-09
# Data StdDev      =  169.523150454016 
# Profile Bins     =  512
# Profile Avg      =  0.187037019324762
# Profile StdDev   =  20297.5215400147 
# Reduced chi-sqr  =  1.226
# Prob(Noise)      <  0.000347   (~3.4 sigma)
# P_topo (ms)      =  714.56350521783   +/- 0.000328
# P'_topo (s/s)    =  -0                +/- 1.73e-10
# P''_topo (s/s^2) =  0                 +/- 7.65e-14
# P_bary (ms)      =  N/A
# P'_bary (s/s)    =  N/A
# P''_bary (s/s^2) =  N/A
# P_orb (s)        =  N/A
# asin(i)/c (s)    =  N/A
# eccentricity     =  N/A
# w (rad)          =  N/A
# T_peri           =  N/A
######################################################
   0  1176.768
   1  397.2207
   2  705.3439
   3  -1437.911
   4  -13460.91
   5  -12740.12
   6  -7575.305
   7  5880.613
   8  9611.798
   9  6471.642
  10  -1317.453
  11  -15366.15
  12  -15496.08
  13  -16093.3
  14  -14539.46
  15  -11616.78
  16  -3493.391
  17  5013.064
  18  5456.304
  19  7642.535
  20  7495.642
  21  -4251.005
  22  -2790.281
  23  -408.5257
  24  5937.718
  25  7200.217
  26  7579.699
  27  4167.423
  28  389.6744
  29  2289.396
  30  1967.064
  31  -892.5961
  32  -957.6788
  33  -1073.758
  34  -4017.712
  35  -11689.75
  36  -2174.729
  37  4633.61
  38  16587.44
  39  25108.74
  40  17083.57
  41  -41.5727
  42  -14338.15
  43  -13990.54
  44  -13989.61
  45  -15750.75
  46  -13796.81
  47  -13788.3
  48  -10995.79
  49  -7194.104
  50  -4059.628
  51  1514.776
  52  -4953.536
  53  -2467.766
  54  250.1296
  55  16111.84
  56  20835.68
  57  11992.52
  58  827.177
  59  -7738.825
  60  -13407.85
  61  -12139.53
  62  -6680.71
  63  -1926.002
  64  1920.424
  65  1121.832
  66  3324.272
  67  -1521.241
  68  -4908.352
  69  -1902.943
  70  -966.4174
  71  -10771.76
  72  -6432.016
  73  -3354.226
  74  1830.846
  75  305.6717
  76  61.05679
  77  -696.0811
  78  -9122.662
  79  -8589.331
  80  -9619.035
  81  -14629.79
  82  -15109.79
  83  -14532.73
  84  -15250.24
  85  -14345.82
  86  -15304.67
  87  -15946.27
  88  -15236.56
  89  -14716.17
  90  -14525.09
  91  -14158.92
  92  -14501.36
  93  -14790.73
  94  -13881.18
  95  -14948.99
  96  -15325.09
  97  -14825.15
  98  -16241.66
  99  -13654.97
 100  -9726.566
 101  -7733.131
 102  -10576.66
 103  -7448.22
 104  -9074.45
 105  -11960.79
 106  -13670.62
 107  -12268.31
 108  -11589.78
 109  -12378.46
 110  -12029.9
 111  -12097.45
 112  -14742.67
 113  -10962.25
 114  4619.112
 115  17814.23
 116  31500.46
 117  26518.55
 118  14208.64
 119  2045.222
 120  -13793.58
 121  -5791.9
 122  2200.17
 123  4126.299
 124  -2204.638
 125  -5569.959
 126  -9555.974
 127  -14825.79
 128  -13630.63
 129  -16065.65
 130  -9843.121
 131  -1881.047
 132  16833.77
 133  14733.94
 134  9936.611
 135  4077.137
 136  -12484.46
 137  -14800.85
 138  5891.305
 139  17861.42
 140  18025.83
 141  9479.157
 142  2460.467
 143  -6386.278
 144  -18523.95
 145  -9345.799
 146  -2544.057
 147  3685.27
 148  5549.239
 149  59.42884
 150  -5942.579
 151  -14916.11
 152  -10277.69
 153  -10934.11
 154  -11471.17
 155  -11786.74
 156  -16292.13
 157  -14924.67
 158  -12233.33
 159  8240.402
 160  18612.09
 161  21026.87
 162  17457.87
 163  7425.292
 164  -8645.734
 165  -12969.63
 166  -9904.917
 167  -5595.267
 168  -10881.87
 169  -11850.83
 170  -13646.64
 171  -16315.28
 172  -17437.09
 173  -16628.7
 174  -14518.59
 175  -16531.99
 176  -11082.88
 177  -3478.578
 178  6975.812
 179  8834.911
 180  16583.9
 181  19990.04
 182  19166.73
 183  38563.64
 184  35453.55
 185  23555.44
 186  20965.08
 187  10225.31
 188  5550.019
 189  5126.825
 190  15482.04
 191  3819.537
 192  -2424.407
 193  -8736.143
 194  -14918.24
 195  -17535.99
 196  -17400.48
 197  -18111.15
 198  -18064.12
 199  -18218.62
 200  -17613.52
 201  -16874.4
 202  -16477.99
 203  -16950.9
 204  -16234.06
 205  -17569.79
 206  -17242.03
 207  -16768.68
 208  -16946.91
 209  -16949.34
 210  -17471.19
 211  -17459.72
 212  -17281.51
 213  -16685.29
 214  -16519.65
 215  -16590.22
 216  -18067.28
 217  -17792.62
 218  -16937.83
 219  -17586.13
 220  -17934.1
 221  -16246.22
 222  -14559.77
 223  -6693.211
 224  -7921.157
 225  -9722.021
 226  -7412.105
 227  -13131.61
 228  -13279.73
 229  -10732.06
 230  -6593.233
 231  -10961.22
 232  666.8493
 233  1308.321
 234  3308.231
 235  4362.043
 236  18954.6
 237  19880.31
 238  17030.52
 239  24774.22
 240  13202.55
 241  3368.802
 242  2582.302
 243  -2867.152
 244  -2440.724
 245  -668.3419
 246  90.50264
 247  -385.0743
 248  -4401.945
 249  -10273.58
 250  11264.19
 251  24408.88
 252  32722.51
 253  30069.9
 254  25264.37
 255  9755.813
 256  -577.935
 257  17185.09
 258  28186.32
 259  34326.84
 260  26103.5
 261  11922.22
 262  -5291.319
 263  -8227.279
 264  -7665.654
 265  -6080.629
 266  -10574.75
 267  -15696.13
 268  -17547.21
 269  -15605.82
 270  -16682.09
 271  -4087.785
 272  4579.392
 273  10417.12
 274  1125.993
 275  -2279.887
 276  -8084.183
 277  -13961.29
 278  -7722.843
 279  -5347.491
 280  -10102.26
 281  -10295.39
 282  -8691.338
 283  -11556.43
 284  -10069.95
 285  -5004.954
 286  -5606.5
 287  -2116.575
 288  -2888.668
 289  -7621.669
 290  -6158.976
 291  -5397.281
 292  -2077.604
 293  4407.408
 294  2941.562
 295  665.0548
 296  246.0421
 297  18881.55
 298  35170.46
 299  53202.4
 300  51660.81
 301  39807.62
 302  32054.44
 303  33820.7
 304  43196
 305  56583.84
 306  36068.26
 307  18292.97
 308  3994.118
 309  659.3719
 310  -8037.346
 311  -7980.267
 312  -7447.563
 313  -6496.008
 314  -7787.477
 315  -5989.672
 316  -2809.702
 317  12206.65
 318  13978.13
 319  16044.55
 320  15621.11
 321  -1202.269
 322  634.3674
 323  -2098.75
 324  20467.02
 325  22745.54
 326  26044.61
 327  24698.4
 328  2499.308
 329  -7831.51
 330  -4913.545
 331  20573.81
 332  37629.15
 333  57315.47
 334  64521.13
 335  43051.77
 336  17159.83
 337  15560.02
 338  12735.43
 339  3440.885
 340  -6524.178
 341  -3986.127
 342  170.8165
 343  1600.653
 344  3547.953
 345  -474.1878
 346  -3207.105
 347  -3644.217
 348  -2611.347
 349  -965.3308
 350  -2546.215
 351  -2022.682
 352  2603.951
 353  22097.26
 354  39589.31
 355  38004.21
 356  44674.28
 357  19895.76
 358  8361.334
 359  19163.02
 360  29486.01
 361  34239.42
 362  23733.58
 363  16636.42
 364  7088.834
 365  -7977.016
 366  21780.8
 367  30191.33
 368  35713.77
 369  41170.73
 370  17744.54
 371  1597.125
 372  -9408.448
 373  -4930.459
 374  -4166.087
 375  -1549.682
 376  -12284.84
 377  -4337.636
 378  5475.994
 379  30798.48
 380  43368.09
 381  46513.88
 382  24491.44
 383  -1782.266
 384  -16393.34
 385  -12046.11
 386  -14654.14
 387  -10759.55
 388  -11151.22
 389  -12581.86
 390  -11950.14
 391  -7477.329
 392  -949.2562
 393  5362.123
 394  2012.34
 395  1523.795
 396  -4064.139
 397  -11596.99
 398  -4873.169
 399  8184.011
 400  11189.93
 401  12189.72
 402  11646.38
 403  23491.1
 404  24212.62
 405  33191.96
 406  39737.53
 407  47647.38
 408  41778.32
 409  49565.95
 410  45209
 411  36087.33
 412  24144.88
 413  19922.33
 414  19972.63
 415  12950.42
 416  6115.217
 417  4737.567
 418  2744.766
 419  1050.963
 420  -7292.606
 421  -10125.05
 422  -12499.14
 423  -18483.91
 424  -16388.09
 425  -14180.26
 426  -14960.56
 427  -15482.54
 428  -14313.14
 429  -15128.35
 430  -17900.77
 431  -16974.8
 432  -18236.27
 433  -17119.24
 434  -15823.51
 435  -13627.25
 436  -11886.33
 437  -11780.68
 438  -12731.43
 439  -14934.31
 440  -16656.99
 441  -16912.65
 442  -8418.466
 443  -914.1415
 444  6131.875
 445  -2387.86
 446  -3877.627
 447  -8945.814
 448  -17443.83
 449  -10054.37
 450  -11965.71
 451  -1015.176
 452  10294.92
 453  23039.6
 454  15777.69
 455  6590.781
 456  -3360.198
 457  -15622.87
 458  -9068.688
 459  1894.028
 460  6247.949
 461  13452.16
 462  11949.18
 463  12629.38
 464  18820.93
 465  4173.511
 466  263.9648
 467  267.7845
 468  20166.58
 469  20759.43
 470  22681.15
 471  27020.63
 472  7023.662
 473  -166.0326
 474  -2359.058
 475  -13402.77
 476  -14372.92
 477  -15070.42
 478  -14773.49
 479  -15265.72
 480  -15356.13
 481  -14894.47
 482  -12780.36
 483  -14167.72
 484  -14815.32
 485  -11370.67
 486  -7130.94
 487  -7188.403
 488  -8652.47
 489  -9449.543
 490  -12274.52
 491  -14891.89
 492  -13245.04
 493  -13876.84
 494  -14056.97
 495  -14995.78
 496  -14529.78
 497  -15381.4
 498  -17417.37
 499  -17605.11
 500  -17132.65
 501  -16608.72
 502  -17136.38
 503  -17199.37
 504  -17043.81
 505  -16949.08
 506  -16951.49
 507  -16187.1
 508  -16711.99
 509  -16556.55
 510  -14146.88
 511  -7467.811
