# Input file       =  1199738862.105873-PSRB0329-2ms-sampling-dd.dat
# Candidate        =  PSR_0332+5434
# Telescope        =  AR
# Epoch_topo       =  58129.866679466126
# Epoch_bary       =  N/A
# T_sample         =  0.002
# Data Folded      =  7340032
# Data Avg         =  8.67654517677232e-09
# Data StdDev      =  287.951634705073 
# Profile Bins     =  512
# Profile Avg      =  -0.0750088137416175
# Profile StdDev   =  34477.3235528918 
# Reduced chi-sqr  =  1.211
# Prob(Noise)      <  0.000725   (~3.2 sigma)
# P_topo (ms)      =  714.56470067004   +/- 0.000291
# P'_topo (s/s)    =  -0                +/- 1.54e-10
# P''_topo (s/s^2) =  0                 +/- 6.79e-14
# P_bary (ms)      =  N/A
# P'_bary (s/s)    =  N/A
# P''_bary (s/s^2) =  N/A
# P_orb (s)        =  N/A
# asin(i)/c (s)    =  N/A
# eccentricity     =  N/A
# w (rad)          =  N/A
# T_peri           =  N/A
######################################################
   0  -17857.72
   1  -17744.93
   2  -18087.43
   3  -16442.98
   4  -17396.22
   5  -15176.42
   6  -9449.943
   7  -10346.3
   8  -5541.424
   9  767.468
  10  10068.31
  11  9852.827
  12  45208.33
  13  47170.86
  14  55481.36
  15  77173.33
  16  40529.46
  17  22545.57
  18  21561.04
  19  96522.3
  20  111389.9
  21  122178.5
  22  90950.97
  23  36404.5
  24  -10061.71
  25  -14481.3
  26  -17872.06
  27  -18882.6
  28  -16987.89
  29  -18160.75
  30  -17075.19
  31  -13931.2
  32  -13998.77
  33  -12647.23
  34  -15735.71
  35  -16567.9
  36  -16261.93
  37  -17179.92
  38  -19251.24
  39  -17864.04
  40  -18579.58
  41  -18982.56
  42  -18435.61
  43  -18995.75
  44  -18431.25
  45  -18252.08
  46  -17865.64
  47  -13763.62
  48  -12098
  49  -12897.01
  50  -11562.01
  51  -10638.2
  52  -9393.673
  53  -5984.522
  54  -5546.167
  55  -2424.9
  56  8012.263
  57  18493.02
  58  20412.58
  59  13914.88
  60  9865.011
  61  14336.8
  62  23287.35
  63  37601.43
  64  39580.7
  65  9988.514
  66  20087.71
  67  36385.88
  68  56952.97
  69  60884.66
  70  58564.42
  71  10903.86
  72  -7441.382
  73  -14265.2
  74  -11811.84
  75  -16607.12
  76  -17123.89
  77  -16050.15
  78  -17627
  79  -16256.1
  80  -14990.55
  81  -14572.12
  82  -7634.402
  83  -10640.64
  84  -13151.05
  85  -15271.71
  86  -12257.01
  87  -12186.54
  88  -7793.879
  89  -264.5
  90  891.5944
  91  2022.945
  92  -27.31484
  93  -8879.268
  94  -11803.68
  95  -19345.32
  96  -14378.94
  97  -10035.63
  98  -807.2438
  99  8609.149
 100  8111.118
 101  1614.937
 102  -15030.87
 103  -15046.85
 104  -10191.86
 105  -5007.609
 106  -2397.121
 107  2740.105
 108  11586.93
 109  -7453.042
 110  -3557.331
 111  20622.02
 112  58726.21
 113  78568.42
 114  95169.45
 115  39957.73
 116  1048.46
 117  5816.05
 118  33091.89
 119  41917.49
 120  46733.84
 121  18625.24
 122  4132.327
 123  -9213.44
 124  2565.646
 125  7242.042
 126  -1504.887
 127  -11157.01
 128  -20336.9
 129  22809.23
 130  37612.59
 131  44145.39
 132  48158.89
 133  8391.438
 134  -10670.57
 135  -21923.77
 136  -18086.97
 137  -19669.77
 138  -20424.87
 139  -19381.97
 140  -19708.4
 141  -19449.76
 142  -19136.46
 143  -19437.22
 144  -19705.5
 145  -18587.26
 146  -18591.43
 147  -17410.56
 148  -17978.31
 149  -16928.12
 150  -13973
 151  -12110.23
 152  -9916.776
 153  -8012.556
 154  -6623.286
 155  -8184.222
 156  -7446.887
 157  -5579.111
 158  -7111.612
 159  -7180.416
 160  -2500.074
 161  -171.3657
 162  -3447.022
 163  -4976.854
 164  -3922.764
 165  -5220.011
 166  -8774.314
 167  -1649.583
 168  6351.069
 169  7064.714
 170  11696.42
 171  13268.55
 172  -912.4879
 173  -5922.621
 174  -9269.346
 175  -6760.927
 176  -7477.256
 177  -13751.71
 178  -12785
 179  -4914.868
 180  6429.958
 181  11521.55
 182  18398.25
 183  13880.73
 184  7963.058
 185  -14217.35
 186  -459.805
 187  21656.75
 188  82731.98
 189  103866.7
 190  107887.5
 191  85884.16
 192  38554.27
 193  10816.62
 194  -16088.68
 195  86730.84
 196  98389.36
 197  102667.9
 198  98274.61
 199  64704.8
 200  44186.79
 201  16357.31
 202  17826
 203  12077.03
 204  -6621.347
 205  -6147.494
 206  -10595.6
 207  -14261.44
 208  -16217.29
 209  -18483.53
 210  -18817.75
 211  -15943.89
 212  -9937.67
 213  -10494.83
 214  -12064.76
 215  -17939.26
 216  -18077.68
 217  -19037
 218  -20579.99
 219  -16420.24
 220  -15354.55
 221  -13712.15
 222  -7514.636
 223  -13114.22
 224  -16962.52
 225  -19479.03
 226  -17992.19
 227  -17931.65
 228  -18331.97
 229  -18288.73
 230  -19193.21
 231  -20098.22
 232  -19849.01
 233  -19803.96
 234  -19593.58
 235  -19095.93
 236  -18636.95
 237  -19472.35
 238  -19639.59
 239  -19926.46
 240  -20360.36
 241  -20445.12
 242  -19901.89
 243  -20308.94
 244  -20073.55
 245  -19568.33
 246  -19458.22
 247  -18803.59
 248  -19055.15
 249  -17881.87
 250  -15690.04
 251  -17953.15
 252  -17576.69
 253  -14015.96
 254  -11505.38
 255  -12663.27
 256  11996.28
 257  29467.76
 258  40026.47
 259  55731.59
 260  56345.03
 261  29982.15
 262  -11551.97
 263  56545.34
 264  98539.82
 265  126817.3
 266  130920.8
 267  87153.72
 268  43687.62
 269  -8644
 270  -972.5286
 271  -4190.592
 272  -16203.11
 273  -16776.99
 274  -13735.37
 275  -8770.198
 276  -3214.083
 277  2227.471
 278  10615.97
 279  7084.116
 280  7088.274
 281  8017.104
 282  -7743.218
 283  -15151.29
 284  -21381.19
 285  -19772.69
 286  -19727.25
 287  -19084.43
 288  -19179.61
 289  -20283.38
 290  -19584
 291  -17887.18
 292  -17543.88
 293  -16910.03
 294  -17019.75
 295  -18685.65
 296  -13566.38
 297  -7333.129
 298  2512.064
 299  7923.928
 300  15363.73
 301  24422.8
 302  -21857.63
 303  -2526.3
 304  18400.07
 305  57758.87
 306  68196.07
 307  62778.06
 308  32262.27
 309  -12005.25
 310  -18940.36
 311  -14009.11
 312  -20301.58
 313  -19292.74
 314  -17868.61
 315  -19036.94
 316  -15522.1
 317  -14747.35
 318  -16354.11
 319  -16500.13
 320  -17008.94
 321  -17874.87
 322  -15451.86
 323  -14273.96
 324  -15061.12
 325  -13859.41
 326  -17653.81
 327  -18684.76
 328  -18140.03
 329  -19301.63
 330  -17334.9
 331  -16304.88
 332  -17557.27
 333  -8518.55
 334  -5482.362
 335  -2427.03
 336  -4799.661
 337  -8054.647
 338  -10611.09
 339  -14472.34
 340  -8724.321
 341  -7741.321
 342  646.5017
 343  1562.293
 344  925.4204
 345  8147.794
 346  6653.63
 347  4136.75
 348  -7100.655
 349  15360.29
 350  49362.71
 351  72573.46
 352  73216.83
 353  61901.36
 354  21254.56
 355  26614.91
 356  39316.04
 357  38822.04
 358  34983.51
 359  10922.14
 360  14324.13
 361  9328.067
 362  4837.438
 363  6850.245
 364  25199.53
 365  36710.88
 366  46039.81
 367  51885.71
 368  30777.6
 369  22451.14
 370  7663.556
 371  2802.721
 372  -10981.34
 373  -14017.43
 374  -11406.78
 375  -6388.766
 376  -649.4976
 377  3154.767
 378  -279.8853
 379  -11055.9
 380  -15109.46
 381  -14401.81
 382  -15476.26
 383  -17135.34
 384  -17730.03
 385  -18908.53
 386  -17811.41
 387  -17361.37
 388  -18326.82
 389  -18614.07
 390  -18886.97
 391  -19371.08
 392  -18338.66
 393  -18199.84
 394  -17759.52
 395  -17321.31
 396  -18231.99
 397  -17087.87
 398  -17090.3
 399  -15577.92
 400  -14741.99
 401  -14843.28
 402  -17054.38
 403  -19699.2
 404  -11280.66
 405  -6932.547
 406  -1215.306
 407  5469.358
 408  -908.4661
 409  -7901.832
 410  -9701.225
 411  -10277.45
 412  -11830.42
 413  -12112.56
 414  -8166.192
 415  -2591.242
 416  5189.954
 417  11085.34
 418  6387.876
 419  1498.049
 420  -9880.757
 421  -9124.977
 422  -7371.798
 423  -1557.685
 424  -695.0918
 425  -10661.62
 426  -17342.92
 427  -18056.49
 428  -17203.82
 429  -17046
 430  -17084.7
 431  -16549.95
 432  -16584.67
 433  -17009.9
 434  -17387.16
 435  -17732.51
 436  -19060.79
 437  -19340.2
 438  -18824.72
 439  -19281.35
 440  -19603.9
 441  -19153.97
 442  -18145.46
 443  -15725.2
 444  -9229.134
 445  -6723.439
 446  -3213.551
 447  1888.028
 448  -19270.84
 449  -11376.9
 450  -460.795
 451  24729.5
 452  29367.12
 453  29025.38
 454  14141.62
 455  -10650.71
 456  -18394.84
 457  -16549.02
 458  -19322.57
 459  -19231.58
 460  -17452.73
 461  -9415.435
 462  -5240.3
 463  -378.8826
 464  -167.0565
 465  -3251.138
 466  -8494.668
 467  -11162.7
 468  -9937.435
 469  -9870.265
 470  -11496.21
 471  -13035.04
 472  -16131.85
 473  -18434.65
 474  -19373.79
 475  -19949.02
 476  -19267.51
 477  -19554.17
 478  -19782.54
 479  -17300.58
 480  -16433.01
 481  -16440.16
 482  -13943.97
 483  -12977.42
 484  -13385.03
 485  -19625.5
 486  -11029.21
 487  -3359.691
 488  6713.19
 489  18284.66
 490  10867.47
 491  -3493.219
 492  -19061.56
 493  -18685.71
 494  -17613.21
 495  -18771.88
 496  -17178.08
 497  -17352.08
 498  -18660.58
 499  -15875.94
 500  -16574.59
 501  -17822.23
 502  -13107.7
 503  -11563.16
 504  -11485.81
 505  -7104.308
 506  -8615.424
 507  -12328.82
 508  -19624.29
 509  -17439.5
 510  -17869.12
 511  -18778.61
