# Input file       =  1199623241.089426_cleaned.dat
# Candidate        =  PSR_0332+5434
# Telescope        =  AR
# Epoch_topo       =  58128.528473257247
# Epoch_bary       =  N/A
# T_sample         =  0.002
# Data Folded      =  7143424
# Data Avg         =  0.492125366144781
# Data StdDev      =  7.27855702158779 
# Profile Bins     =  1024
# Profile Avg      =  3433.23047931763 
# Profile StdDev   =  607.922929983677 
# Reduced chi-sqr  =  0.731
# Prob(Noise)      <  1   (~0.0 sigma)
# P_topo (ms)      =  714.563361522652  +/- 1.4e-05
# P'_topo (s/s)    =  -0                +/- 7.6e-12
# P''_topo (s/s^2) =  0                 +/- 3.45e-15
# P_bary (ms)      =  N/A
# P'_bary (s/s)    =  N/A
# P''_bary (s/s^2) =  N/A
# P_orb (s)        =  N/A
# asin(i)/c (s)    =  N/A
# eccentricity     =  N/A
# w (rad)          =  N/A
# T_peri           =  N/A
######################################################
   0  3367.431
   1  3134.483
   2  3157.298
   3  3654.042
   4  3506.435
   5  3176.336
   6  3389.528
   7  3527.579
   8  3506.865
   9  3643.679
  10  3821.811
  11  3933.087
  12  3454.583
  13  3880.943
  14  3980.657
  15  3674.788
  16  3454.272
  17  3552.477
  18  3692.887
  19  3342.456
  20  3167.555
  21  3269.089
  22  3114.927
  23  3215.033
  24  3477.766
  25  3670.997
  26  3795.711
  27  3871.702
  28  3987.716
  29  3492.494
  30  2917.973
  31  3238.526
  32  3678.856
  33  3682.233
  34  3263.026
  35  3421.588
  36  3239.772
  37  3060.138
  38  3065.69
  39  3581.777
  40  3489.706
  41  3309.893
  42  3260.819
  43  3340.408
  44  3230.186
  45  3194.032
  46  3366.103
  47  3243.885
  48  3017.259
  49  3067.383
  50  3127.524
  51  2920.225
  52  3158.075
  53  3428.704
  54  3523.543
  55  3255.333
  56  3253.959
  57  3337.771
  58  3174.705
  59  3226.582
  60  3492.631
  61  3576.505
  62  3185.667
  63  3242.721
  64  3513.802
  65  3750.887
  66  3598.225
  67  3848.647
  68  3857.652
  69  3595.815
  70  3361.667
  71  3581.74
  72  3378.432
  73  3144.239
  74  3268.152
  75  3528.623
  76  3396.452
  77  3134.596
  78  3398.941
  79  3589.968
  80  3663.976
  81  4023.658
  82  4345.304
  83  4293.469
  84  3868.197
  85  3656.653
  86  3522.517
  87  3056.374
  88  3036.571
  89  3469.677
  90  3580.031
  91  3574.212
  92  3518.313
  93  3704.832
  94  3501.563
  95  3555.703
  96  3757.467
  97  3700.428
  98  3605.007
  99  3448.775
 100  3515.496
 101  3150.266
 102  3156.596
 103  3293.642
 104  3474.434
 105  3307.329
 106  3486.871
 107  3760.024
 108  3692.041
 109  3452.068
 110  3396.308
 111  3598.352
 112  3279.746
 113  3454.209
 114  3605.672
 115  3665.282
 116  3270.981
 117  3333.699
 118  3623.595
 119  3693.882
 120  3653.752
 121  3874.248
 122  3726.119
 123  3635.457
 124  3554.659
 125  3634.084
 126  3464.188
 127  3194.71
 128  3406.158
 129  3334.323
 130  3099.456
 131  3226.586
 132  3568.176
 133  3628.644
 134  3413.944
 135  3418.54
 136  3392.9
 137  3069.494
 138  3071.092
 139  3359.718
 140  3293.275
 141  3153.485
 142  3118.107
 143  3546.047
 144  3365.985
 145  3244.467
 146  3509.507
 147  3697.333
 148  3676.323
 149  3613.158
 150  3684.914
 151  3666.122
 152  3420.894
 153  3605.86
 154  3799.959
 155  3711.264
 156  3516.848
 157  3442.015
 158  3342.608
 159  3178.329
 160  3293.475
 161  3550.91
 162  3522.781
 163  3518.373
 164  3848.179
 165  3800.75
 166  3521.563
 167  3506.46
 168  3838.709
 169  3617.071
 170  3244.974
 171  3151.211
 172  3078.338
 173  2789.014
 174  2969.711
 175  3477.904
 176  3590.002
 177  3292.739
 178  3240.135
 179  3457.456
 180  3384.653
 181  3480.674
 182  3749.191
 183  3866.801
 184  3593.166
 185  3609.807
 186  3628.467
 187  3462.779
 188  3410.692
 189  3790.618
 190  4018.895
 191  3592.608
 192  3428.49
 193  3520.774
 194  3289.305
 195  3152.233
 196  3310.925
 197  3756.97
 198  3667.818
 199  3813.894
 200  3944.363
 201  3587.597
 202  3084.399
 203  3079.593
 204  3338.229
 205  3158.071
 206  3173.039
 207  3414.992
 208  3367.179
 209  3110.482
 210  3023.053
 211  3394.081
 212  3341.399
 213  3459.269
 214  3596.53
 215  3762.277
 216  3616.327
 217  3642.773
 218  3780.76
 219  3619.997
 220  3338.196
 221  3529.863
 222  3523.086
 223  3302.31
 224  3117.909
 225  3344.636
 226  3467.659
 227  3273.753
 228  3461.919
 229  3526.355
 230  3350.927
 231  3261.009
 232  3378.063
 233  3329.084
 234  2970.75
 235  3106.455
 236  3123.223
 237  2978.947
 238  2884.305
 239  3200.303
 240  3498.697
 241  3144.174
 242  3066.52
 243  3165.615
 244  3129.64
 245  3111.819
 246  3450.774
 247  3649.913
 248  3354.216
 249  3113.724
 250  3447.373
 251  3392.662
 252  3219.812
 253  3421.6
 254  3971.396
 255  3873.048
 256  3812.024
 257  3841.349
 258  3923.712
 259  3489.373
 260  3458.742
 261  3678.233
 262  3491.938
 263  3151.822
 264  3067.141
 265  2952.097
 266  2634.178
 267  2568.27
 268  2971.588
 269  3206.779
 270  3208.42
 271  3403.053
 272  3603.684
 273  3153.96
 274  2951.091
 275  2889.598
 276  2997.029
 277  2629.945
 278  2818.041
 279  3118.273
 280  3134.798
 281  3019.806
 282  3144.021
 283  3305.148
 284  3116.061
 285  3063.182
 286  3166.968
 287  3134.339
 288  3059.626
 289  3298.611
 290  3393.164
 291  3412.805
 292  3278.882
 293  3545.648
 294  3399.002
 295  3258.092
 296  3564.302
 297  4005.562
 298  3786.426
 299  3319.442
 300  3243.589
 301  3203.964
 302  3040.031
 303  3295.368
 304  3682.195
 305  3723.65
 306  3445.961
 307  3818.199
 308  3999.219
 309  3648.594
 310  3551.034
 311  3740.251
 312  3880.497
 313  3754.969
 314  3753.768
 315  4022.335
 316  3687.859
 317  3579.81
 318  3641.99
 319  3558.072
 320  3230.585
 321  3464.93
 322  3991.252
 323  3897.628
 324  3454.805
 325  3371.836
 326  3491.517
 327  3251.167
 328  3225.302
 329  3407.411
 330  3240.082
 331  3214.322
 332  3454.114
 333  3675.51
 334  3096.998
 335  2934.65
 336  3353.626
 337  3561.924
 338  3151.156
 339  3199.595
 340  3566.056
 341  3479.427
 342  3109.072
 343  3020.311
 344  3171.646
 345  3220.833
 346  3512.628
 347  3701.196
 348  3561.815
 349  3418.827
 350  3677.097
 351  3597.879
 352  3172.663
 353  3005.575
 354  3239.928
 355  3219.687
 356  3061.318
 357  3088.928
 358  3346.784
 359  3205.953
 360  3268.781
 361  3425.203
 362  3442.589
 363  3344.368
 364  3583.217
 365  3770.8
 366  3458.986
 367  3274.011
 368  3513.409
 369  3581.042
 370  3070.405
 371  3086.389
 372  3378.78
 373  3310.522
 374  2947.295
 375  3122.909
 376  3374.262
 377  3264.832
 378  3386.962
 379  3712.905
 380  3782.864
 381  3661.774
 382  3782.954
 383  4011.819
 384  3431.745
 385  3084.776
 386  3375.981
 387  3377.778
 388  3249.245
 389  3414.2
 390  3631.298
 391  3511.97
 392  3199.741
 393  3272.846
 394  3520.732
 395  3295.615
 396  3638.517
 397  3720.415
 398  3809.029
 399  3376.763
 400  3422.67
 401  3457.829
 402  3144.127
 403  3123.593
 404  3538.499
 405  3532.793
 406  3252.874
 407  3280.158
 408  3505.759
 409  3313.535
 410  3081.186
 411  3453.771
 412  3500.754
 413  3281.617
 414  3364.131
 415  3550.724
 416  3351.949
 417  3153.979
 418  3360.105
 419  3774.175
 420  3619.428
 421  3563.639
 422  3718.962
 423  3484.951
 424  3444.097
 425  3370.382
 426  3546.244
 427  3204.89
 428  3305.254
 429  3553.749
 430  3461.3
 431  3276.378
 432  3244.397
 433  3587.611
 434  3381.129
 435  3227.097
 436  3394.294
 437  3578.472
 438  3577.031
 439  3645.512
 440  3675.502
 441  3545.634
 442  3085.293
 443  3137.656
 444  3136.282
 445  3103.121
 446  3161.612
 447  3157.825
 448  3074.703
 449  2737.588
 450  2803.372
 451  3007.59
 452  3017.396
 453  3227.021
 454  3946.183
 455  4061.113
 456  3797.481
 457  3349.663
 458  3583.743
 459  3239.252
 460  3092.489
 461  3306.04
 462  3640.107
 463  3538.973
 464  3359.546
 465  3343.806
 466  2999.828
 467  2686.117
 468  2658.702
 469  3037.722
 470  2922.348
 471  3164.525
 472  3303.647
 473  3169.241
 474  2962.666
 475  2925.33
 476  3239.114
 477  3185.376
 478  3218.714
 479  3571.205
 480  3660.192
 481  3635.345
 482  3490.502
 483  3671.454
 484  3558.936
 485  3669.982
 486  3933.435
 487  4102.747
 488  3893.105
 489  3863.438
 490  3957.716
 491  3665.794
 492  3146.228
 493  3286.157
 494  3499.611
 495  3587.514
 496  3569.494
 497  3798.525
 498  3674.979
 499  3118.394
 500  2940.543
 501  3242.972
 502  3269.212
 503  3204.357
 504  3225.994
 505  3306.945
 506  3106.254
 507  3144.519
 508  3459.475
 509  3413.895
 510  3063.102
 511  3318.181
 512  3566.317
 513  3588.107
 514  3640.721
 515  3763.812
 516  3718.792
 517  3313.272
 518  3382.278
 519  3643.326
 520  3247.798
 521  3240.983
 522  3457.124
 523  3466.078
 524  3071.144
 525  3159.852
 526  3737.769
 527  3709.952
 528  3462.373
 529  3457.111
 530  3287.847
 531  3053.555
 532  3007.178
 533  3485.917
 534  3305.825
 535  2990.265
 536  3055.88
 537  3562.568
 538  3512.726
 539  3461.674
 540  3272.411
 541  3158.888
 542  3007.977
 543  3338.725
 544  3754.449
 545  3377.654
 546  3237.493
 547  3398.946
 548  3668.314
 549  3231.438
 550  3089.07
 551  3478.003
 552  3578.421
 553  3365.097
 554  3457.478
 555  3489.933
 556  3397.313
 557  3360.011
 558  3707.965
 559  3511.389
 560  2920.08
 561  2876.661
 562  3180.338
 563  3057.449
 564  2853.604
 565  2951.875
 566  3220.882
 567  3001.011
 568  3063.666
 569  3315.47
 570  3138.834
 571  3122.346
 572  3359.553
 573  3389.596
 574  2818.087
 575  2668.897
 576  3044.042
 577  3102.059
 578  3076.806
 579  3279.041
 580  3386.067
 581  3194.971
 582  3163.315
 583  3415.064
 584  3476.269
 585  3495.92
 586  3716.502
 587  3998.291
 588  3518.13
 589  3426.61
 590  3475.877
 591  3620.088
 592  3261.205
 593  3317.195
 594  3793.225
 595  3730.555
 596  3602.584
 597  3646.063
 598  3661.352
 599  3416.731
 600  3294.895
 601  3649.998
 602  3612.209
 603  3334.77
 604  3469.951
 605  3745.63
 606  3571.605
 607  3546.374
 608  3628.593
 609  3792.974
 610  3537.673
 611  3933.891
 612  4232.267
 613  4330.605
 614  4052.016
 615  4228.308
 616  4240.215
 617  4235.422
 618  4685.725
 619  5080.983
 620  5012.535
 621  4725.048
 622  4511.587
 623  4026.678
 624  3501.579
 625  3564.523
 626  3885.018
 627  3651.516
 628  3452.484
 629  3675.701
 630  3680.213
 631  3327.34
 632  3076.514
 633  3380.435
 634  3577.108
 635  3603.665
 636  3830.165
 637  3794.945
 638  3250.886
 639  3148.756
 640  3175.605
 641  3396.685
 642  3128.401
 643  3176.683
 644  3450.712
 645  3494.652
 646  3698.424
 647  3749.888
 648  3753.145
 649  3590.228
 650  3630.116
 651  3972.991
 652  3668.169
 653  3462.178
 654  3601.883
 655  3753.906
 656  3658.958
 657  3427.854
 658  3405.815
 659  3194.232
 660  2742.714
 661  3222.569
 662  3476.221
 663  3277.601
 664  2874.838
 665  2913.173
 666  2988.057
 667  2926.448
 668  3144.899
 669  3544.339
 670  3575.44
 671  3411.699
 672  3671.483
 673  3626.659
 674  3588.411
 675  3504.677
 676  3819.895
 677  4042.162
 678  3813.376
 679  3761.76
 680  3630.492
 681  3335.534
 682  3267.129
 683  3424.477
 684  3741.682
 685  3572.606
 686  3764.198
 687  3873.757
 688  3598.009
 689  3391.176
 690  3668.133
 691  3943.626
 692  3447.713
 693  3157.617
 694  3330.793
 695  3348.984
 696  3271.487
 697  3475.018
 698  3473.408
 699  3284.969
 700  2994.222
 701  3402.714
 702  3618.982
 703  3433.365
 704  3609.965
 705  3626.645
 706  3484.339
 707  3168.622
 708  3374.862
 709  3550.493
 710  3424.749
 711  3526.799
 712  3699.998
 713  3359.617
 714  3052.646
 715  3368.976
 716  3542.001
 717  3318.975
 718  3173.63
 719  3483.701
 720  3637.727
 721  3328.275
 722  3413.802
 723  3410.536
 724  3299.093
 725  3156.46
 726  3361.049
 727  3688.572
 728  3469.076
 729  3582.236
 730  3679.893
 731  3370.656
 732  3152.731
 733  3273.23
 734  3633.418
 735  3419.93
 736  3259.877
 737  3650.188
 738  3519.54
 739  3318.259
 740  3129.439
 741  3389.605
 742  3288.957
 743  3262.442
 744  3580.175
 745  3768.154
 746  3586.934
 747  3715.67
 748  3946.448
 749  3685.394
 750  3503.043
 751  3703.254
 752  3760.094
 753  3195.87
 754  3020.526
 755  3085.421
 756  3156.928
 757  2819.08
 758  3173.444
 759  3464.41
 760  3277.607
 761  3207.773
 762  3596.076
 763  3741.337
 764  3379.369
 765  3269.765
 766  3420.502
 767  3311.307
 768  3227.039
 769  3481.296
 770  3360.718
 771  2928.133
 772  2876.135
 773  3061.26
 774  3282.952
 775  3254.099
 776  3643.084
 777  3773.577
 778  3401.102
 779  3119.852
 780  3079.26
 781  3266.087
 782  3392.359
 783  3539.546
 784  3759.158
 785  3641.876
 786  3549.493
 787  3880.147
 788  3689.084
 789  3441.101
 790  3375.324
 791  3530.528
 792  3510.656
 793  3100.763
 794  3262.273
 795  3216.36
 796  2983.016
 797  3182.818
 798  3485.776
 799  3508.595
 800  3437.838
 801  3686.032
 802  3833.255
 803  3340.336
 804  3274.701
 805  3503.229
 806  3442.209
 807  3251.112
 808  3282.881
 809  3527.957
 810  3235.852
 811  3220.099
 812  3213.662
 813  3366.312
 814  3268.407
 815  3745.12
 816  4117.941
 817  4146.896
 818  3797.381
 819  3999.818
 820  3972.749
 821  3699.582
 822  3462.362
 823  3431.693
 824  3592.436
 825  3203.25
 826  3236.605
 827  3260.202
 828  3425.926
 829  3307.716
 830  3144.296
 831  3044.547
 832  3068.063
 833  3473.034
 834  3828.552
 835  3534.435
 836  3173.634
 837  3388.793
 838  3452.998
 839  3377.083
 840  3324.908
 841  3782.703
 842  3957.727
 843  3732.929
 844  3924.216
 845  3984.956
 846  3679.698
 847  3615.657
 848  3566.543
 849  3552.671
 850  3317.798
 851  3474.407
 852  3844.077
 853  3602.651
 854  3471.429
 855  3541.862
 856  3581.024
 857  3534.445
 858  3692.676
 859  3915.667
 860  3814.462
 861  3312.405
 862  3400.228
 863  3292.922
 864  3195.334
 865  3199.83
 866  3252.708
 867  3492.222
 868  3369.96
 869  3541.003
 870  3604.425
 871  3322.473
 872  3276.964
 873  3444.157
 874  3536.334
 875  3318.296
 876  3422.045
 877  3808.239
 878  3518.526
 879  3548.284
 880  3613.489
 881  3732.736
 882  3282.393
 883  3305.224
 884  3576.456
 885  3695.615
 886  3422.44
 887  3520.16
 888  3535.269
 889  3570.813
 890  3465.693
 891  3517.559
 892  3372.55
 893  3250.85
 894  3529.392
 895  3811.912
 896  3397.149
 897  3335.884
 898  3484.941
 899  3703.421
 900  3417.449
 901  3197.83
 902  3346.085
 903  3002.866
 904  2824.961
 905  3178.579
 906  3224.301
 907  3024.426
 908  3003.566
 909  3478.365
 910  3417.891
 911  3103.63
 912  3218.259
 913  3475.479
 914  3297.958
 915  3173.892
 916  3484.028
 917  3636.227
 918  3486.611
 919  3538.294
 920  3798.018
 921  3632.067
 922  3461.309
 923  3696.551
 924  3765.362
 925  3498.278
 926  3211.921
 927  3321.003
 928  3222.855
 929  3028.904
 930  2904.188
 931  2758.248
 932  2731.454
 933  2956.922
 934  3387.94
 935  3425.296
 936  3201.47
 937  3123.504
 938  3132.598
 939  2959.094
 940  3156.102
 941  3621.236
 942  3684.571
 943  3543.469
 944  3680.887
 945  3677.331
 946  3520.57
 947  3584.183
 948  3850.44
 949  3879.656
 950  3458.103
 951  3391.27
 952  3559.864
 953  3581.63
 954  3529.245
 955  3586.501
 956  3736.33
 957  3515.239
 958  3377.08
 959  3691.21
 960  3734.131
 961  3385.105
 962  3490.012
 963  3698.241
 964  3503.814
 965  3327.606
 966  3384.669
 967  3364.343
 968  3281.222
 969  3483.359
 970  3825.756
 971  3472.78
 972  3261.92
 973  3392.359
 974  3510.346
 975  3072.15
 976  2915.757
 977  3341.216
 978  3512.087
 979  3425.773
 980  3556.825
 981  3668.317
 982  3592.917
 983  3640.781
 984  3877.574
 985  3961.846
 986  3651.9
 987  3603.945
 988  3419.938
 989  3182.146
 990  3325.615
 991  3560.222
 992  3631.397
 993  3140.759
 994  3009.038
 995  3149.632
 996  3013.414
 997  3173.633
 998  3419.685
 999  3535.945
1000  3251.016
1001  3164.913
1002  3343.003
1003  3191.177
1004  3101.883
1005  3446.644
1006  3726.124
1007  3477.826
1008  3423.541
1009  3504.599
1010  3521.058
1011  3111.444
1012  3200.907
1013  3409.546
1014  3475.811
1015  3638.792
1016  3774.006
1017  3653.966
1018  3447.867
1019  3422.594
1020  3887.276
1021  3559.476
1022  3479.319
1023  3467.027
