# Input file       =  1199709341.112284_cleaned.dat
# Candidate        =  PSR_0332+5434
# Telescope        =  AR
# Epoch_topo       =  58129.525001299582
# Epoch_bary       =  N/A
# T_sample         =  0.002
# Data Folded      =  7208960
# Data Avg         =  0.0168452755392681
# Data StdDev      =  1.00024223867798 
# Profile Bins     =  512
# Profile Avg      =  237.204212213357 
# Profile StdDev   =  118.687919635405 
# Reduced chi-sqr  =  1.510
# Prob(Noise)      <  6.45e-13   (~7.1 sigma)
# P_topo (ms)      =  714.564098553181  +/- 0.000187
# P'_topo (s/s)    =  -0                +/- 1.01e-10
# P''_topo (s/s^2) =  0                 +/- 4.52e-14
# P_bary (ms)      =  N/A
# P'_bary (s/s)    =  N/A
# P''_bary (s/s^2) =  N/A
# P_orb (s)        =  N/A
# asin(i)/c (s)    =  N/A
# eccentricity     =  N/A
# w (rad)          =  N/A
# T_peri           =  N/A
######################################################
   0  371.9472
   1  426.5395
   2  278.1202
   3  216.8352
   4  176.3377
   5  85.67487
   6  124.9639
   7  313.398
   8  388.5208
   9  394.4116
  10  345.9003
  11  165.0162
  12  169.2062
  13  344.3972
  14  169.2281
  15  165.9067
  16  198.236
  17  198.6115
  18  150.4852
  19  209.2243
  20  154.2924
  21  80.50682
  22  252.6605
  23  240.1422
  24  224.8024
  25  188.8868
  26  160.7607
  27  134.1839
  28  203.2614
  29  200.2612
  30  160.7375
  31  263.4467
  32  264.6167
  33  226.9345
  34  170.3372
  35  142.2208
  36  170.4181
  37  157.5529
  38  207.0288
  39  211.0599
  40  390.2473
  41  253.6273
  42  340.1174
  43  265.1034
  44  191.0797
  45  198.8961
  46  132.5511
  47  193.8758
  48  300.4958
  49  317.2252
  50  250.3264
  51  185.9964
  52  25.53843
  53  95.32153
  54  193.9899
  55  174.9162
  56  142.9794
  57  99.52759
  58  223.8523
  59  169.9529
  60  175.9147
  61  265.5706
  62  297.5416
  63  311.6963
  64  334.6298
  65  311.6487
  66  381.3622
  67  302.3241
  68  273.7628
  69  265.426
  70  173.9062
  71  168.1389
  72  225.1906
  73  292.1101
  74  243.9849
  75  92.09861
  76  69.28806
  77  223.1168
  78  137.0595
  79  146.295
  80  237.5782
  81  164.2415
  82  194.3449
  83  226.4915
  84  311.6332
  85  364.3231
  86  387.4572
  87  258.3445
  88  227.4744
  89  218.2285
  90  259.8534
  91  231.1809
  92  259.3378
  93  219.077
  94  262.8589
  95  296.5773
  96  274.299
  97  243.1985
  98  279.6538
  99  240.2791
 100  223.6123
 101  262.881
 102  153.3617
 103  114.607
 104  113.451
 105  170.7481
 106  328.6804
 107  265.8502
 108  206.01
 109  104.6027
 110  140.8609
 111  261.6057
 112  259.5508
 113  218.0926
 114  63.39837
 115  255.5762
 116  277.7301
 117  220.7623
 118  187.795
 119  282.6817
 120  190.2235
 121  326.8354
 122  364.2655
 123  260.7836
 124  276.0465
 125  222.062
 126  128.9531
 127  232.9757
 128  391.6995
 129  360.6663
 130  278.6122
 131  193.6098
 132  190.4843
 133  96.74738
 134  107.9483
 135  118.4584
 136  62.66567
 137  87.23121
 138  212.4098
 139  226.5622
 140  172.8996
 141  140.3531
 142  81.05013
 143  178.5352
 144  129.6066
 145  189.928
 146  120.219
 147  256.7476
 148  239.7716
 149  175.5449
 150  122.1847
 151  209.8278
 152  107.8869
 153  52.23723
 154  196.4675
 155  236.4834
 156  250.0245
 157  264.4735
 158  302.9143
 159  292.3461
 160  183.1994
 161  147.2549
 162  58.99009
 163  192.8201
 164  330.0038
 165  118.834
 166  55.18635
 167  13.70536
 168  135.4121
 169  221.6559
 170  355.6834
 171  290.9652
 172  250.6013
 173  207.3707
 174  223.9661
 175  207.7245
 176  203.0954
 177  138.3389
 178  49.76479
 179  54.5921
 180  264.6127
 181  376.9892
 182  393.8449
 183  290.2367
 184  246.4146
 185  203.3864
 186  185.1226
 187  193.8193
 188  189.0988
 189  223.1208
 190  363.3413
 191  221.496
 192  264.0738
 193  244.4523
 194  185.7335
 195  131.6406
 196  267.2983
 197  116.8079
 198  204.634
 199  320.7082
 200  234.4714
 201  299.9561
 202  192.3338
 203  199.9475
 204  302.4232
 205  183.8495
 206  248.9045
 207  216.7786
 208  207.8421
 209  239.7354
 210  142.1528
 211  134.9189
 212  133.8549
 213  342.4709
 214  232.5712
 215  204.4636
 216  196.7319
 217  158.5539
 218  104.8855
 219  220.9804
 220  147.7626
 221  71.01818
 222  146.1002
 223  302.2
 224  220.5753
 225  234.5751
 226  197.5516
 227  216.6134
 228  208.8517
 229  299.5163
 230  217.9572
 231  289.9107
 232  326.4831
 233  414.6065
 234  290.2315
 235  183.1221
 236  383.8941
 237  369.3293
 238  323.8409
 239  476.6168
 240  308.8149
 241  172.7175
 242  29.987
 243  112.7369
 244  265.5632
 245  238.3672
 246  244.5671
 247  269.8445
 248  273.7313
 249  199.7727
 250  175.3375
 251  175.918
 252  51.37577
 253  103.3106
 254  79.80173
 255  191.1993
 256  225.5792
 257  177.044
 258  263.9972
 259  306.2799
 260  312.9664
 261  255.5191
 262  204.1311
 263  59.04959
 264  146.3416
 265  260.0091
 266  281.3004
 267  286.944
 268  299.6787
 269  216.1588
 270  223.4189
 271  244.4069
 272  170.1062
 273  133.6032
 274  211.671
 275  272.4329
 276  275.3565
 277  298.4454
 278  160.9944
 279  172.1359
 280  442.5927
 281  287.6434
 282  168.7141
 283  191.6386
 284  171.304
 285  128.0042
 286  133.8795
 287  279.0991
 288  356.9442
 289  225.7724
 290  262.5457
 291  334.4896
 292  172.9179
 293  102.3258
 294  265.4745
 295  331.0742
 296  391.6231
 297  406.1635
 298  345.8351
 299  372.0567
 300  231.1884
 301  233.0731
 302  292.4551
 303  213.0262
 304  279.0104
 305  300.7216
 306  320.6301
 307  248.2818
 308  169.9262
 309  148.0398
 310  293.1311
 311  247.3465
 312  312.354
 313  338.4646
 314  236.9589
 315  141.6488
 316  90.23791
 317  141.8024
 318  164.7637
 319  94.34679
 320  151.8384
 321  182.6683
 322  144.1583
 323  178.9805
 324  321.5372
 325  344.6153
 326  205.7597
 327  152.2773
 328  58.25301
 329  170.3408
 330  175.0177
 331  292.5505
 332  289.5753
 333  209.2781
 334  176.2928
 335  198.5928
 336  275.0908
 337  328.421
 338  240.6208
 339  226.8706
 340  162.7075
 341  198.7025
 342  349.8677
 343  231.199
 344  150.0568
 345  207.8527
 346  333.0638
 347  374.2986
 348  245.8009
 349  360.8477
 350  221.2677
 351  153.9641
 352  192.0407
 353  216.1727
 354  161.2859
 355  242.3929
 356  348.7179
 357  225.4997
 358  150.4339
 359  51.51861
 360  276.1864
 361  358.9121
 362  307.0682
 363  314.7068
 364  184.7982
 365  246.0251
 366  225.0943
 367  201.575
 368  285.0466
 369  225.104
 370  278.063
 371  308.6011
 372  216.313
 373  219.4205
 374  311.6811
 375  374.4156
 376  390.0608
 377  324.8559
 378  281.3634
 379  146.9629
 380  131.7
 381  211.6066
 382  258.9114
 383  296.1612
 384  192.5065
 385  119.6374
 386  196.5553
 387  268.1343
 388  411.7228
 389  393.741
 390  337.6298
 391  234.6238
 392  214.8747
 393  325.3198
 394  257.3494
 395  353.7051
 396  206.6363
 397  106.372
 398  99.41838
 399  218.2944
 400  352.8031
 401  330.2628
 402  160.6584
 403  273.3753
 404  330.7303
 405  304.5933
 406  416.8246
 407  601.6362
 408  908.4013
 409  1122.957
 410  933.3845
 411  781.0499
 412  460.3929
 413  397.7287
 414  196.6366
 415  276.5146
 416  291.2208
 417  243.3718
 418  296.5448
 419  423.984
 420  161.0303
 421  186.6864
 422  215.968
 423  125.5166
 424  238.5896
 425  227.5826
 426  204.9393
 427  211.8331
 428  324.3461
 429  357.5521
 430  330.2399
 431  232.2112
 432  130.3132
 433  216.4588
 434  270.0277
 435  182.0001
 436  214.6902
 437  282.1042
 438  305.7213
 439  232.1015
 440  271.9786
 441  359.4395
 442  281.4853
 443  112.3014
 444  34.11901
 445  220.3089
 446  253.436
 447  172.2438
 448  216.8508
 449  236.8945
 450  226.9454
 451  242.9001
 452  384.3485
 453  326.4537
 454  310.2329
 455  256.7709
 456  200.3083
 457  323.7252
 458  279.5938
 459  242.2763
 460  215.1375
 461  253.0071
 462  183.2663
 463  66.9385
 464  107.7507
 465  150.9352
 466  155.9434
 467  232.933
 468  119.5604
 469  199.4977
 470  295.1692
 471  300.6418
 472  374.7397
 473  242.1518
 474  76.04478
 475  91.91289
 476  221.9691
 477  225.9084
 478  232.2351
 479  304.994
 480  352.5503
 481  246.9906
 482  186.2634
 483  202.7738
 484  356.7134
 485  220.4587
 486  128.6897
 487  190.3536
 488  213.4773
 489  298.1278
 490  305.1277
 491  162.4106
 492  304.7049
 493  432.0421
 494  281.1946
 495  223.7688
 496  282.3299
 497  326.5436
 498  301.0255
 499  307.8339
 500  308.4494
 501  345.0234
 502  294.1141
 503  354.8292
 504  377.5136
 505  221.1817
 506  166.727
 507  253.9161
 508  271.1606
 509  235.1111
 510  172.5897
 511  233.1535
