# Input file       =  1199825015.109469-PSRB0329-2ms-sampling-dd.dat
# Candidate        =  PSR_0332+5434
# Telescope        =  AR
# Epoch_topo       =  58130.863820711449
# Epoch_bary       =  N/A
# T_sample         =  0.002
# Data Folded      =  7340032
# Data Avg         =  -1.07021657301029e-09
# Data StdDev      =  268.672738878778 
# Profile Bins     =  512
# Profile Avg      =  -0.023102172399463
# Profile StdDev   =  32169.0028176182 
# Reduced chi-sqr  =  1.150
# Prob(Noise)      <  0.0104   (~2.3 sigma)
# P_topo (ms)      =  714.565419434918  +/- 0.000213
# P'_topo (s/s)    =  -0                +/- 1.12e-10
# P''_topo (s/s^2) =  0                 +/- 4.96e-14
# P_bary (ms)      =  N/A
# P'_bary (s/s)    =  N/A
# P''_bary (s/s^2) =  N/A
# P_orb (s)        =  N/A
# asin(i)/c (s)    =  N/A
# eccentricity     =  N/A
# w (rad)          =  N/A
# T_peri           =  N/A
######################################################
   0  -16825.62
   1  -15766.68
   2  -16158.9
   3  -16465.36
   4  -15601.36
   5  -16013.3
   6  -16326.91
   7  -15585
   8  -15125.67
   9  -15845.46
  10  -13676.58
  11  -9852.496
  12  -5165.096
  13  -5799.212
  14  -7434.483
  15  -10746.18
  16  -14392.05
  17  -15365.89
  18  -9747.67
  19  -9944.726
  20  -10240.72
  21  -10216.46
  22  -13128.71
  23  -14675.74
  24  -16141.52
  25  -16410.62
  26  -16272.58
  27  -15898.51
  28  -16216.22
  29  -15573.37
  30  -15005.17
  31  -14201.61
  32  -11481.87
  33  -8750.269
  34  -13338.49
  35  -13550.1
  36  -12037.04
  37  -1997.995
  38  2942.391
  39  3886.228
  40  3532.91
  41  -11943.71
  42  -14611.42
  43  -15596.34
  44  -16326.55
  45  -16466.04
  46  -16244.34
  47  -16135.2
  48  -13587.11
  49  -12348.17
  50  -11230.88
  51  -7585.736
  52  -8154.639
  53  -10309.19
  54  -16150.12
  55  -8590.226
  56  -533.4734
  57  9814.023
  58  10086.37
  59  6101.539
  60  -9462.023
  61  -13990.72
  62  -15171.06
  63  -15074.74
  64  -14982.79
  65  -14392.55
  66  -14077.34
  67  -14288.68
  68  -14984.33
  69  -15044.31
  70  -15553.37
  71  -15233.06
  72  -15417.3
  73  -15489.05
  74  -14929.26
  75  -13396.56
  76  -12651.43
  77  -13046.89
  78  -14629.43
  79  -13803.71
  80  -10573.29
  81  -4068.279
  82  -900.4941
  83  4653.14
  84  13043.52
  85  -14874.82
  86  -3791.656
  87  11160.42
  88  48621.98
  89  65263.68
  90  66727.3
  91  38288.85
  92  -4118.803
  93  -13635.08
  94  -8494.748
  95  -12601.87
  96  -11435.48
  97  -10628.09
  98  -14472.23
  99  -12033.95
 100  -12125.78
 101  -12001.1
 102  -10257.25
 103  -10061.34
 104  -8906.427
 105  -11404.65
 106  -10336.5
 107  -3905.302
 108  -7178.683
 109  -9895.815
 110  -13307.57
 111  4668.91
 112  13627.85
 113  21092.55
 114  20662.5
 115  4472.312
 116  -7177.122
 117  -10499.89
 118  -6248.211
 119  -4345.626
 120  -4770.262
 121  2597.64
 122  -3433.158
 123  -12929.88
 124  2134.5
 125  19683.81
 126  34933.54
 127  45624.18
 128  29483.87
 129  12519.92
 130  -18337.63
 131  -15967.42
 132  -15628.32
 133  -17179.21
 134  -15494.8
 135  -7458.7
 136  8630.797
 137  25493.74
 138  29794.71
 139  40722.38
 140  44053.66
 141  -11871.86
 142  7580.522
 143  31316.57
 144  76770.63
 145  84674.2
 146  74298.8
 147  52773.78
 148  -8743.403
 149  -8614.104
 150  -6836.303
 151  -15023.72
 152  -12479.79
 153  -11037.35
 154  -8501.94
 155  -6484.406
 156  -7844.857
 157  -11203.16
 158  -15076.19
 159  -15326.86
 160  -16316.58
 161  -16036.34
 162  -13233.08
 163  -10399.56
 164  -6186.927
 165  505.066
 166  1943.161
 167  304.1477
 168  -3055.176
 169  1713.204
 170  6216.103
 171  10893.28
 172  26786.31
 173  20481.68
 174  15105.15
 175  7277.168
 176  -6876.421
 177  -10051.96
 178  -12641.56
 179  -12192.72
 180  -13379.24
 181  -12774.41
 182  -13121.64
 183  -13745.87
 184  -13856.9
 185  -14007.93
 186  -14759.59
 187  -14264.33
 188  -13337.27
 189  -11849.8
 190  -11406.94
 191  -11710.75
 192  -15005.83
 193  -13178.33
 194  -10838.12
 195  -10485.61
 196  -12065.13
 197  -13867.15
 198  -15232.81
 199  -16611.49
 200  -15988.08
 201  -15432.81
 202  -15581.91
 203  -16188.6
 204  -16550.38
 205  -16513.09
 206  -17105.24
 207  -16806.97
 208  -15850.19
 209  -15532.16
 210  -12872.77
 211  -8155.404
 212  -5555.014
 213  2286.834
 214  8216.665
 215  -8209.288
 216  -10380.65
 217  -3924.079
 218  28032.36
 219  42516.56
 220  44910.88
 221  41539.3
 222  -5501.42
 223  -14047.87
 224  -16875.67
 225  -15785.77
 226  -17604.41
 227  -12726.43
 228  -4203.52
 229  9452.738
 230  17984.7
 231  24083.86
 232  18622.69
 233  -6451.621
 234  -7747.935
 235  32204.44
 236  52682.66
 237  59624.76
 238  62139.34
 239  13532.79
 240  -2027.189
 241  -8371.554
 242  4425.097
 243  15433.9
 244  34772.63
 245  37712.96
 246  17459.34
 247  9550.997
 248  67139.18
 249  103430.1
 250  128021.1
 251  153216.5
 252  95369.86
 253  54078.39
 254  36134.73
 255  22466.25
 256  13590.19
 257  -16441.73
 258  -15030.81
 259  -16602.86
 260  -17467.99
 261  -16064.84
 262  -16626.04
 263  -16426.91
 264  -14319.16
 265  -13958.11
 266  -12251.1
 267  -12418.57
 268  -13823.43
 269  -14883.73
 270  -14698.85
 271  -16283.9
 272  -16679.28
 273  -16224.56
 274  -15862.72
 275  -14170.37
 276  -13376.46
 277  -13922.06
 278  -16014.15
 279  -16445.29
 280  -15873.23
 281  -15437.17
 282  -15612.17
 283  -16159.04
 284  -15247.95
 285  -14020.94
 286  -13419.89
 287  -14023.19
 288  -15181.37
 289  -15862.97
 290  -16499.78
 291  -16715.89
 292  -16456.81
 293  -15901.07
 294  -15993.27
 295  -16423.53
 296  -16148.68
 297  -15810.68
 298  -14591.51
 299  -12460.33
 300  -14645.95
 301  -13294.08
 302  -10054.94
 303  -4622.048
 304  -7877.924
 305  -12173.84
 306  -14036.4
 307  -16211.02
 308  -15880.32
 309  -12980.51
 310  -10299.22
 311  -6153.07
 312  1952.383
 313  -4739.884
 314  -9623.619
 315  -15618.86
 316  -14560.34
 317  -15752.79
 318  -16345.29
 319  -15982.85
 320  -15605.95
 321  -16222.06
 322  -17184.05
 323  -15055.68
 324  -14920.39
 325  -8835.84
 326  -2092.007
 327  -2738.671
 328  -2329.758
 329  -5837.272
 330  -12978
 331  -12401.59
 332  -11921.37
 333  -9416.138
 334  14030.49
 335  29735.82
 336  42856.18
 337  55412.95
 338  47238.25
 339  25448.94
 340  -11518.62
 341  29870.63
 342  78329.48
 343  94264.06
 344  93859.46
 345  79300.16
 346  17880.2
 347  -4281.54
 348  -10366.07
 349  -7802.906
 350  -10644.08
 351  -11746.3
 352  -12608.01
 353  -14048.14
 354  -15878.71
 355  -16807.72
 356  -16742.01
 357  -16484.2
 358  -16424.27
 359  -16530.39
 360  -16983.99
 361  -17178.77
 362  -16980
 363  -16631.28
 364  -16795.12
 365  -16626.41
 366  -16138.1
 367  -16380.12
 368  -16558.63
 369  -16480.41
 370  -17007.32
 371  -17314.71
 372  -16226.41
 373  -13902.85
 374  -13335.67
 375  -13042.15
 376  -12502.39
 377  -13901.58
 378  -15128.81
 379  -15409.36
 380  -14852.12
 381  -14781.82
 382  -15406.73
 383  -15827.8
 384  -16256.12
 385  -16335.73
 386  -16663.82
 387  -16649.16
 388  -17115.11
 389  -17342.29
 390  -17018.28
 391  -16757.52
 392  -17249.33
 393  -16906.49
 394  -16141.6
 395  -15534.97
 396  -14129.34
 397  -12834.23
 398  -10089.55
 399  -14115.79
 400  -14964.03
 401  -15658.33
 402  -16615.59
 403  -16460.6
 404  -15363.58
 405  -13299.86
 406  -9756.631
 407  -5292.269
 408  -2472.493
 409  -6752.322
 410  -4515.099
 411  -1206.594
 412  -2992.587
 413  923.4286
 414  11172.91
 415  24513.78
 416  31596.34
 417  22517.45
 418  14731.4
 419  -9260.927
 420  -10355.7
 421  -11535.12
 422  -10627.72
 423  -6580.355
 424  -3402.177
 425  -191.3448
 426  -16049.45
 427  -7164.763
 428  5243.721
 429  25533.92
 430  38627.38
 431  41934.47
 432  24601.49
 433  287.4913
 434  9124.444
 435  1038.165
 436  -15192.78
 437  3380.379
 438  36146.45
 439  63533.6
 440  79743.93
 441  75877.07
 442  54158.82
 443  -17206.43
 444  6315.97
 445  20137.92
 446  44232.09
 447  48483.28
 448  36933.2
 449  26366.91
 450  -8059.032
 451  3672.868
 452  17043.82
 453  6514.191
 454  -919.6619
 455  10174.93
 456  20635.26
 457  27949.53
 458  53361.8
 459  42075.14
 460  33511.24
 461  23330.05
 462  31370.68
 463  32930.64
 464  30330.3
 465  39336.01
 466  30156.22
 467  -14020.64
 468  12241.62
 469  39083.99
 470  76662.07
 471  87622.45
 472  60739.45
 473  34468.25
 474  -8684.038
 475  -2588.05
 476  818.4566
 477  1255.724
 478  -7058.265
 479  -12043.77
 480  -17580.62
 481  -13953.95
 482  -14631.48
 483  -16317.44
 484  -15357.76
 485  -16087.96
 486  -16550.55
 487  -15275.14
 488  -16216.08
 489  -16980.6
 490  -15008.86
 491  -16514.95
 492  -14452.4
 493  -2250.108
 494  6623.436
 495  12446.72
 496  17341.46
 497  15485.77
 498  -645.1339
 499  -19783.24
 500  30893.93
 501  42598.14
 502  51863.5
 503  54237.3
 504  21410.82
 505  815.8217
 506  -19632.6
 507  -14802.47
 508  -15593.65
 509  -17797.18
 510  -15149.7
 511  -16018.02
