# Input file       =  1199709341.112284_cleaned.dat
# Candidate        =  PSR_0332+5434
# Telescope        =  AR
# Epoch_topo       =  58129.525001299582
# Epoch_bary       =  N/A
# T_sample         =  0.002
# Data Folded      =  7208960
# Data Avg         =  0.187029088730923
# Data StdDev      =  5.4451625495763  
# Profile Bins     =  512
# Profile Avg      =  2633.46588710067 
# Profile StdDev   =  646.118500194524 
# Reduced chi-sqr  =  0.646
# Prob(Noise)      <  1   (~0.0 sigma)
# P_topo (ms)      =  714.564098609565  +/- 6.79e-05
# P'_topo (s/s)    =  -0                +/- 3.65e-11
# P''_topo (s/s^2) =  0                 +/- 1.64e-14
# P_bary (ms)      =  N/A
# P'_bary (s/s)    =  N/A
# P''_bary (s/s^2) =  N/A
# P_orb (s)        =  N/A
# asin(i)/c (s)    =  N/A
# eccentricity     =  N/A
# w (rad)          =  N/A
# T_peri           =  N/A
######################################################
   0  2670.19
   1  2849.142
   2  2285.969
   3  1851.526
   4  1735.941
   5  2269.207
   6  2919.275
   7  3014.179
   8  2966.325
   9  2866.825
  10  2478.715
  11  2780.679
  12  2504.164
  13  2657.981
  14  2580.41
  15  2635.626
  16  3189.352
  17  3183.206
  18  2594.396
  19  2605.855
  20  2451.17
  21  2385.855
  22  2625.749
  23  2529.374
  24  2498.313
  25  2268.409
  26  2635.264
  27  2574.943
  28  2903.171
  29  3001.183
  30  2995.514
  31  3056.904
  32  2796.441
  33  2529.486
  34  2386.362
  35  2266.581
  36  2037.985
  37  2012.883
  38  2314.55
  39  2672.117
  40  2772.988
  41  2739.042
  42  2651.859
  43  2740.69
  44  2401.877
  45  2363.697
  46  2601.093
  47  2938.697
  48  3399.207
  49  3127.034
  50  2666.86
  51  2580.678
  52  2414.704
  53  2472.919
  54  2365.327
  55  2251.602
  56  2782.766
  57  2732.499
  58  2859.889
  59  2988.766
  60  2778.795
  61  2739.279
  62  2360.316
  63  2619.239
  64  2845.629
  65  2434.673
  66  1914.231
  67  1992.801
  68  2131.242
  69  2035.699
  70  2258.808
  71  2821.81
  72  2872.769
  73  2710.32
  74  2751.091
  75  2658.066
  76  2518.339
  77  2003.533
  78  1987.836
  79  2292.883
  80  2888.371
  81  3199.064
  82  3279.357
  83  3037.313
  84  2465.842
  85  2231.104
  86  2181.758
  87  2410.996
  88  2366.633
  89  2407.644
  90  3086.744
  91  3074.293
  92  2943.159
  93  3200.566
  94  2727.945
  95  2515.44
  96  2844.465
  97  2766.03
  98  2673.861
  99  2666.555
 100  2507.484
 101  2537.898
 102  2452.703
 103  2326.228
 104  2458.332
 105  2809.643
 106  2790.38
 107  2647.773
 108  2452.87
 109  2600.511
 110  2122.832
 111  1922.788
 112  2342.071
 113  3060.083
 114  3247.748
 115  2815.062
 116  2787.486
 117  2369.281
 118  2025.588
 119  2237.782
 120  2216.728
 121  1969.091
 122  2322.235
 123  2651.238
 124  2688.126
 125  2692.304
 126  2773.399
 127  2744.116
 128  2581.77
 129  2947.729
 130  2550.882
 131  2556.099
 132  2769.506
 133  3101.652
 134  3014.2
 135  2232.215
 136  2244.2
 137  2814.775
 138  2580.958
 139  2928.649
 140  2761.841
 141  2314.324
 142  2280.422
 143  1934.899
 144  2539.509
 145  2641.832
 146  2814.693
 147  3073.617
 148  2770.489
 149  2503.064
 150  2286.707
 151  2058.104
 152  1888.402
 153  1855.732
 154  2170.827
 155  2392.244
 156  2559.791
 157  2530.48
 158  2853.046
 159  2967.776
 160  2724.935
 161  2486.82
 162  2419.498
 163  2278.435
 164  2291.52
 165  2697.47
 166  3119.911
 167  2982.964
 168  2641.901
 169  2281.777
 170  2237.11
 171  2312.148
 172  2647.668
 173  2406.067
 174  2437.581
 175  2576.214
 176  2523.64
 177  2601.464
 178  2713.98
 179  2799.475
 180  3284.903
 181  2979.824
 182  2443.924
 183  2454.936
 184  2372.514
 185  2262.299
 186  2276.266
 187  2504.12
 188  3040.344
 189  3078.135
 190  2839.86
 191  3119.829
 192  2588.712
 193  1820.541
 194  2124.595
 195  2621.717
 196  2912.086
 197  3327.607
 198  3113.157
 199  3048.937
 200  2803.566
 201  2409.214
 202  2478.48
 203  2407.966
 204  2403.661
 205  2683.395
 206  2789.148
 207  3009.64
 208  2690.883
 209  2519.953
 210  2673.643
 211  2865.94
 212  3173.649
 213  3159.819
 214  2763.48
 215  2429.937
 216  2073.029
 217  2181.253
 218  2181.036
 219  2205.219
 220  2427.789
 221  2557.576
 222  2552.359
 223  2808.827
 224  3118.827
 225  2746.867
 226  2641.309
 227  2349.937
 228  2287.394
 229  2540.515
 230  2866.757
 231  3208.479
 232  3046.167
 233  2864.919
 234  2461.208
 235  2432.944
 236  2465.048
 237  2699.689
 238  2859.632
 239  2861.808
 240  2807.109
 241  2623.744
 242  2914.362
 243  2801.58
 244  2788.82
 245  2959.547
 246  2929.458
 247  2910.572
 248  2577.964
 249  2688.04
 250  2436.578
 251  2246.225
 252  2428.22
 253  2557.648
 254  2699.419
 255  2859.336
 256  3124.106
 257  2800.485
 258  2185.202
 259  1783.168
 260  2028.552
 261  2886.823
 262  3107.219
 263  3361.136
 264  2908.256
 265  2731.128
 266  2664.681
 267  2222.925
 268  2154.753
 269  2386.438
 270  2714.057
 271  2981.492
 272  2849.305
 273  2941.97
 274  3228.709
 275  3325.188
 276  2987.164
 277  2781.504
 278  2844.663
 279  2586.235
 280  2263.096
 281  2437.423
 282  2608.876
 283  2546.196
 284  2270.318
 285  2136.454
 286  2414.318
 287  2639.061
 288  3110.725
 289  3209.663
 290  2543.086
 291  2039.165
 292  1834.33
 293  2659.001
 294  2778.034
 295  3165.288
 296  3269.148
 297  2367.173
 298  2104.914
 299  1932.076
 300  1933.654
 301  2094.383
 302  1757.98
 303  2369.807
 304  2644.446
 305  2690.921
 306  2985.75
 307  3660.859
 308  3919.678
 309  4264.44
 310  4156.495
 311  3923.437
 312  3317.517
 313  2995.971
 314  2739.959
 315  2756.395
 316  2692.915
 317  2413.338
 318  2531.686
 319  2846.752
 320  2527.312
 321  2471.357
 322  2664.88
 323  2143.613
 324  2052.29
 325  2317.812
 326  2273.242
 327  2708.241
 328  3028.806
 329  3082.753
 330  3156.696
 331  2624.684
 332  2372.32
 333  2052.272
 334  2400.456
 335  2411.038
 336  2312.575
 337  2696.316
 338  3202.807
 339  3013.838
 340  3176.301
 341  2887.285
 342  2749.364
 343  2511.711
 344  2397.038
 345  2575.743
 346  2999.561
 347  2871.715
 348  3013.573
 349  2945.035
 350  2607.812
 351  2548.769
 352  2673.241
 353  2811.276
 354  2750.336
 355  2621.587
 356  2706.444
 357  3135.215
 358  2966.083
 359  2606.566
 360  2717.366
 361  3053.447
 362  2874.401
 363  2456.314
 364  2580.711
 365  2312.816
 366  1955.732
 367  2046.82
 368  2236.461
 369  2436.001
 370  3017.11
 371  3217.822
 372  3260.686
 373  3013.294
 374  2489.526
 375  2171.22
 376  2412.72
 377  3136.336
 378  2856.911
 379  2989.363
 380  3102.806
 381  2927.077
 382  2683.489
 383  2378.255
 384  2619.107
 385  2697.848
 386  2504.984
 387  2574.67
 388  2485.701
 389  2580.604
 390  2818.476
 391  2907.529
 392  3161.044
 393  3382.526
 394  3398.549
 395  2997.319
 396  2724.108
 397  3153.134
 398  2956.137
 399  2868.801
 400  2331.344
 401  2535.405
 402  2670.185
 403  3083.991
 404  3481.471
 405  3290
 406  2771.515
 407  2540.571
 408  2140.906
 409  2110.281
 410  2261.139
 411  2635.703
 412  2930.59
 413  3446.191
 414  3339.444
 415  2752.125
 416  2124.971
 417  2054.449
 418  2082.382
 419  2655.234
 420  2800.227
 421  3239.015
 422  3204.375
 423  2744.887
 424  2456.043
 425  2605.982
 426  2859.999
 427  2940.974
 428  2697.926
 429  2538.235
 430  2220.861
 431  2217.44
 432  2112.753
 433  1860.327
 434  2118.037
 435  2592.907
 436  2773.314
 437  2506.786
 438  2429.556
 439  2162.151
 440  1952.92
 441  1907.522
 442  2244.344
 443  2782.451
 444  2907.91
 445  3065.498
 446  2736.046
 447  2448.697
 448  2178.671
 449  1962.834
 450  2079.105
 451  1827.323
 452  2433.635
 453  2799.15
 454  2728.254
 455  2952.147
 456  2962.896
 457  2807.166
 458  2210.346
 459  2472.218
 460  2778.472
 461  2776.307
 462  2533.188
 463  2319.723
 464  2125.419
 465  1813.761
 466  2106.146
 467  2180.439
 468  2379.276
 469  2095.387
 470  2416.157
 471  2579.321
 472  2358.782
 473  2697.962
 474  2587.651
 475  2748.708
 476  3170.638
 477  3115.646
 478  3200.756
 479  2924.113
 480  2609.092
 481  2581.944
 482  2173.126
 483  2032.226
 484  2020.11
 485  2429.666
 486  2606.811
 487  2670.57
 488  2592.481
 489  2894.554
 490  2697.071
 491  2184.261
 492  2346.215
 493  2619.947
 494  2413.28
 495  2608.697
 496  2816.671
 497  3101.439
 498  2990.254
 499  2665.747
 500  2755.028
 501  2639.443
 502  2665.526
 503  2664.956
 504  2483.556
 505  2525.005
 506  2443.466
 507  2646.064
 508  3059.469
 509  3191.719
 510  3191.88
 511  2947.909
