# Input file       =  1199881642.101681_cleaned.dat
# Candidate        =  PSR_0332+5434
# Telescope        =  AR
# Epoch_topo       =  58131.519225713899
# Epoch_bary       =  N/A
# T_sample         =  0.002
# Data Folded      =  7143424
# Data Avg         =  0.0151838315687156
# Data StdDev      =  1.0000271500648  
# Profile Bins     =  512
# Profile Avg      =  211.900472227522 
# Profile StdDev   =  118.12179140909  
# Reduced chi-sqr  =  1.890
# Prob(Noise)      <  2.23e-30   (~11.4 sigma)
# P_topo (ms)      =  714.565531662957  +/- 0.000124
# P'_topo (s/s)    =  -0                +/- 6.7e-11
# P''_topo (s/s^2) =  0                 +/- 3.04e-14
# P_bary (ms)      =  N/A
# P'_bary (s/s)    =  N/A
# P''_bary (s/s^2) =  N/A
# P_orb (s)        =  N/A
# asin(i)/c (s)    =  N/A
# eccentricity     =  N/A
# w (rad)          =  N/A
# T_peri           =  N/A
######################################################
   0  1057.836
   1  1048.957
   2  896.0541
   3  512.864
   4  200.9024
   5  344.3341
   6  374.1791
   7  274.3031
   8  342.4546
   9  237.5945
  10  209.7366
  11  268.3694
  12  251.7877
  13  276.8684
  14  296.8884
  15  387.952
  16  295.8244
  17  283.7414
  18  310.1982
  19  159.0794
  20  90.75755
  21  136.529
  22  182.8408
  23  151.6212
  24  248.6997
  25  271.2313
  26  148.0429
  27  57.1374
  28  146.4728
  29  188.4793
  30  187.1059
  31  306.7133
  32  358.5114
  33  310.1672
  34  89.78686
  35  117.5264
  36  82.49921
  37  121.4395
  38  158.3955
  39  271.558
  40  226.9404
  41  139.1439
  42  152.2267
  43  147.6132
  44  227.4349
  45  267.9571
  46  371.4079
  47  337.5309
  48  305.1394
  49  165.543
  50  224.769
  51  249.9653
  52  -19.28514
  53  -6.416184
  54  223.8677
  55  260.8698
  56  285.6731
  57  203.9546
  58  203.5616
  59  156.5073
  60  36.61218
  61  183.9033
  62  240.2068
  63  340.6166
  64  307.0156
  65  303.4371
  66  266.3993
  67  106.0662
  68  186.967
  69  236.7223
  70  249.0465
  71  174.9174
  72  164.0484
  73  186.619
  74  251.6492
  75  291.3636
  76  249.0732
  77  96.74559
  78  65.85384
  79  188.9196
  80  230.261
  81  141.8541
  82  113.3443
  83  208.6916
  84  222.8032
  85  51.07892
  86  72.60989
  87  116.4463
  88  144.2864
  89  192.9683
  90  48.66385
  91  138.9247
  92  135.2373
  93  237.5586
  94  305.748
  95  196.6691
  96  205.3078
  97  373.8907
  98  178.7523
  99  111.6317
 100  182.9957
 101  117.4453
 102  278.7836
 103  294.2938
 104  204.9186
 105  72.11368
 106  50.23786
 107  113.7716
 108  55.19567
 109  -42.28061
 110  118.4862
 111  110.75
 112  127.8858
 113  225.0642
 114  313.4082
 115  234.3144
 116  151.4632
 117  232.4119
 118  265.3087
 119  125.4994
 120  188.8967
 121  321.2796
 122  317.9376
 123  293.568
 124  201.7661
 125  61.30822
 126  161.2064
 127  227.5465
 128  201.7536
 129  175.2861
 130  246.6749
 131  224.8138
 132  261.5322
 133  179.5528
 134  84.56056
 135  147.7834
 136  102.8526
 137  179.321
 138  156.7129
 139  224.8951
 140  169.205
 141  86.39922
 142  107.1323
 143  273.3195
 144  154.9104
 145  24.81967
 146  77.05253
 147  131.5844
 148  317.3644
 149  83.21045
 150  77.76228
 151  96.47987
 152  154.077
 153  282.8503
 154  276.1302
 155  163.3728
 156  134.3066
 157  169.7887
 158  109.7822
 159  62.37141
 160  59.57066
 161  166.2917
 162  159.4876
 163  187.2157
 164  86.73125
 165  225.516
 166  129.0356
 167  231.9579
 168  181.971
 169  122.5249
 170  160.3512
 171  96.14513
 172  149.7255
 173  247.5844
 174  170.5761
 175  32.51638
 176  38.02969
 177  195.9576
 178  159.6734
 179  53.37044
 180  253.7734
 181  365.6297
 182  212.7595
 183  270.489
 184  234.9257
 185  260.5611
 186  140.0611
 187  210.6837
 188  231.4699
 189  201.6121
 190  157.6785
 191  148.0179
 192  122.3459
 193  227.1814
 194  178.3777
 195  212.7939
 196  228.255
 197  328.6224
 198  308.4012
 199  262.441
 200  253.5591
 201  208.1622
 202  230.565
 203  241.0377
 204  192.2262
 205  235.4911
 206  221.6223
 207  287.4679
 208  185.0112
 209  284.9126
 210  243.9272
 211  246.0688
 212  237.2005
 213  361.884
 214  356.381
 215  272.0742
 216  99.27322
 217  239.7763
 218  245.1844
 219  201.4681
 220  184.3721
 221  280.0529
 222  360.135
 223  402.8817
 224  262.4709
 225  183.3586
 226  186.0644
 227  329.1009
 228  193.2906
 229  241.9548
 230  390.1067
 231  305.8644
 232  168.0728
 233  128.258
 234  164.3524
 235  268.0828
 236  179.1353
 237  43.91689
 238  98.30991
 239  99.99526
 240  121.0751
 241  111.1038
 242  99.13796
 243  129.7104
 244  126.4982
 245  115.5236
 246  80.44232
 247  18.92338
 248  105.083
 249  127.3761
 250  249.0273
 251  216.078
 252  89.40481
 253  60.0169
 254  186.6464
 255  346.8856
 256  166.834
 257  115.8813
 258  104.5315
 259  43.90899
 260  173.528
 261  299.5676
 262  394.8047
 263  337.5873
 264  245.1866
 265  171.7572
 266  133.9407
 267  119.7022
 268  134.5937
 269  135.3133
 270  261.2236
 271  241.1537
 272  283.0128
 273  352.7889
 274  320.9945
 275  231.7306
 276  265.1847
 277  275.4139
 278  161.896
 279  184.5802
 280  236.1149
 281  227.8405
 282  210.1834
 283  246.2312
 284  282.1701
 285  220.889
 286  112.054
 287  166.528
 288  90.68571
 289  90.16745
 290  54.61323
 291  159.4646
 292  201.5696
 293  306.5872
 294  216.585
 295  274.9732
 296  325.3632
 297  286.4604
 298  171.2133
 299  162.0882
 300  110.3358
 301  168.9612
 302  145.5017
 303  243.6357
 304  175.6248
 305  135.4236
 306  42.91201
 307  -50.0009
 308  50.95588
 309  258.2234
 310  218.4124
 311  141.8516
 312  331.1892
 313  402.1768
 314  375.1146
 315  366.3989
 316  313.89
 317  317.8978
 318  322.0449
 319  300.9586
 320  372.982
 321  375.7279
 322  167.3909
 323  123.4127
 324  204.6103
 325  329.2236
 326  304.0087
 327  206.6148
 328  201.651
 329  308.1355
 330  245.7256
 331  180.0006
 332  261.495
 333  227.5845
 334  200.7734
 335  64.51586
 336  158.1438
 337  167.012
 338  236.64
 339  141.2258
 340  55.69968
 341  181.7011
 342  129.5553
 343  129.4954
 344  168.7997
 345  122.2477
 346  247.249
 347  146.5684
 348  184.3283
 349  78.25167
 350  140.3985
 351  98.56015
 352  150.6915
 353  229.4554
 354  322.6942
 355  255.6449
 356  163.5789
 357  243.7024
 358  145.2226
 359  97.87077
 360  106.4836
 361  69.44189
 362  165.7888
 363  340.7902
 364  223.6913
 365  225.7756
 366  248.6679
 367  303.4265
 368  221.1616
 369  146.1184
 370  265.2358
 371  245.0365
 372  177.5171
 373  138.9093
 374  237.1974
 375  304.6837
 376  198.9284
 377  230.7946
 378  269.0424
 379  282.0964
 380  298.8114
 381  313.3663
 382  232.2001
 383  204.3868
 384  369.9552
 385  345.2054
 386  239.0024
 387  263.4605
 388  260.1341
 389  68.30673
 390  205.8004
 391  309.644
 392  304.3441
 393  403.8178
 394  373.1548
 395  274.9297
 396  172.457
 397  264.2436
 398  299.4449
 399  196.1774
 400  189.613
 401  350.7451
 402  283.7029
 403  156.1393
 404  205.0785
 405  168.2854
 406  184.6739
 407  192.0161
 408  221.983
 409  171.0514
 410  210.1624
 411  159.3596
 412  327.8572
 413  374.2542
 414  275.2575
 415  220.4969
 416  127.954
 417  132.3079
 418  62.4222
 419  75.47801
 420  307.3376
 421  327.3214
 422  143.9776
 423  163.2373
 424  181.9615
 425  172.1815
 426  192.782
 427  217.2285
 428  369.4454
 429  268.1908
 430  208.6371
 431  43.41842
 432  -2.268607
 433  176.6298
 434  265.4248
 435  204.1525
 436  69.11371
 437  238.6085
 438  228.3822
 439  87.64146
 440  104.1325
 441  224.8828
 442  311.2225
 443  191.146
 444  299.7045
 445  348.7935
 446  287.9432
 447  218.9578
 448  222.0274
 449  198.8417
 450  94.07842
 451  162.1732
 452  89.27538
 453  197.0583
 454  201.3351
 455  135.6642
 456  115.0809
 457  45.8478
 458  70.27767
 459  171.9175
 460  154.4624
 461  291.1362
 462  235.8723
 463  373.0151
 464  280.5656
 465  303.6577
 466  230.9024
 467  152.2884
 468  232.078
 469  330.2829
 470  129.7725
 471  170.8184
 472  224.1635
 473  131.5433
 474  110.5703
 475  123.6053
 476  251.6938
 477  243.2356
 478  357.8828
 479  248.8536
 480  61.35653
 481  216.2986
 482  58.10349
 483  15.71528
 484  60.23055
 485  9.116587
 486  137.1948
 487  262.2586
 488  144.7004
 489  143.5916
 490  196.493
 491  227.9855
 492  206.1442
 493  191.9362
 494  322.5827
 495  266.4975
 496  194.8752
 497  346.673
 498  328.739
 499  279.8889
 500  242.5927
 501  269.0475
 502  363.0636
 503  363.2525
 504  396.0249
 505  260.9887
 506  304.1785
 507  277.6884
 508  263.8833
 509  493.3674
 510  807.2225
 511  1043.418
