# Input file       =  1200686592.122527-PSRB0329-2ms-sampling-dd.dat
# Candidate        =  PSR_0332+5434
# Telescope        =  AR
# Epoch_topo       =  58140.835776881097
# Epoch_bary       =  N/A
# T_sample         =  0.002
# Data Folded      =  7340032
# Data Avg         =  -7.54293893682716e-10
# Data StdDev      =  10.0630804988261 
# Profile Bins     =  512
# Profile Avg      =  -0.384899375542636
# Profile StdDev   =  1204.88318342827 
# Reduced chi-sqr  =  0.585
# Prob(Noise)      <  1   (~0.0 sigma)
# P_topo (ms)      =  714.571798522958  +/- 0.000616
# P'_topo (s/s)    =  -0                +/- 3.25e-10
# P''_topo (s/s^2) =  0                 +/- 1.44e-13
# P_bary (ms)      =  N/A
# P'_bary (s/s)    =  N/A
# P''_bary (s/s^2) =  N/A
# P_orb (s)        =  N/A
# asin(i)/c (s)    =  N/A
# eccentricity     =  N/A
# w (rad)          =  N/A
# T_peri           =  N/A
######################################################
   0  -654.2283
   1  -633.423
   2  -439.956
   3  12.73988
   4  330.6954
   5  -324.9503
   6  -579.0017
   7  -220.4649
   8  171.1993
   9  234.7408
  10  197.0515
  11  -155.7298
  12  -67.56805
  13  -359.8542
  14  -478.6738
  15  -274.8515
  16  -187.3347
  17  171.8967
  18  206.0715
  19  -284.0991
  20  -630.207
  21  -683.0016
  22  -624.908
  23  -65.82053
  24  -78.98613
  25  92.64514
  26  248.8724
  27  140.7228
  28  49.61523
  29  6.844932
  30  -250.9758
  31  -585.5604
  32  -530.5959
  33  -339.081
  34  -279.3509
  35  327.0895
  36  1064.763
  37  371.8921
  38  -208.9108
  39  -251.5133
  40  -3.973771
  41  -439.8278
  42  112.1653
  43  929.6679
  44  -10.47167
  45  -301.5212
  46  -519.0664
  47  -302.1424
  48  -220.212
  49  -700.5335
  50  -306.1231
  51  -640.8725
  52  -935.1582
  53  -620.8574
  54  -946.2974
  55  -1344.725
  56  -1099.612
  57  -475.6782
  58  -252.1824
  59  -640.5413
  60  -109.0103
  61  -233.5915
  62  -33.64414
  63  30.56909
  64  -102.2763
  65  314.5207
  66  -148.3916
  67  -315.559
  68  -465.1974
  69  -951.9025
  70  -789.8304
  71  -183.9326
  72  -510.305
  73  -322.9434
  74  -540.6383
  75  -290.0169
  76  -570.1007
  77  133.5696
  78  589.5137
  79  308.4576
  80  -23.1019
  81  -578.8467
  82  -682.1851
  83  -1045.725
  84  -150.837
  85  -214.1004
  86  40.62827
  87  -196.6609
  88  -89.31635
  89  411.9211
  90  593.3527
  91  220.6297
  92  70.4234
  93  -83.02421
  94  -210.4544
  95  -151.3969
  96  -0.9848937
  97  40.6726
  98  289.7025
  99  832.0774
 100  1391.71
 101  888.8908
 102  782.6874
 103  466.9563
 104  535.7548
 105  1106.636
 106  1322.818
 107  820.8331
 108  554.1337
 109  859.8133
 110  418.126
 111  205.089
 112  46.3785
 113  110.1284
 114  307.5112
 115  -40.64232
 116  341.3059
 117  -96.7344
 118  197.9599
 119  139.1133
 120  -448.6482
 121  -377.4222
 122  -357.5291
 123  -533.4346
 124  -1076.428
 125  -1373.884
 126  -912.6471
 127  -334.3753
 128  -185.6864
 129  -112.5811
 130  -130.2069
 131  125.0926
 132  722.6266
 133  451.1725
 134  248.3743
 135  536.5898
 136  49.19163
 137  77.97154
 138  -38.7001
 139  239.4698
 140  -99.39234
 141  -492.5254
 142  -135.2597
 143  -146.6088
 144  -1091.967
 145  -1061.607
 146  -565.2791
 147  391.8636
 148  1180.81
 149  1044.669
 150  892.6477
 151  631.9756
 152  52.83994
 153  80.50862
 154  -247.8552
 155  224.0442
 156  1168.429
 157  1017.809
 158  669.2719
 159  408.3783
 160  468.5786
 161  -20.9382
 162  -209.4493
 163  171.8575
 164  639.2477
 165  676.6946
 166  771.8132
 167  69.83932
 168  -329.3842
 169  -127.4111
 170  1199.726
 171  1189.332
 172  929.452
 173  564.6019
 174  31.28432
 175  332.697
 176  398.683
 177  872.3885
 178  1111.064
 179  213.618
 180  -44.25232
 181  39.45163
 182  473.7443
 183  877.0192
 184  689.763
 185  262.5959
 186  -48.1397
 187  -637.3002
 188  -377.072
 189  -200.6177
 190  -649.3619
 191  -309.8897
 192  -176.4727
 193  -493.2058
 194  -739.6856
 195  -996.9523
 196  -880.5883
 197  -496.4693
 198  -48.76439
 199  -552.6136
 200  -708.0958
 201  -20.52435
 202  -178.4685
 203  -7.723963
 204  148.6413
 205  28.08494
 206  6.034987
 207  542.7766
 208  403.4514
 209  601.1375
 210  950.6365
 211  881.8184
 212  306.7557
 213  -35.03178
 214  322.9357
 215  67.50179
 216  12.24899
 217  509.259
 218  942.0294
 219  345.4736
 220  -252.4733
 221  -631.1434
 222  -338.115
 223  84.32932
 224  657.3024
 225  737.738
 226  1054.692
 227  129.9009
 228  -704.1144
 229  -803.1744
 230  -177.7993
 231  408.3086
 232  990.6902
 233  1025.753
 234  395.4063
 235  -48.02738
 236  -333.1086
 237  124.0378
 238  460.0072
 239  244.3907
 240  369.5388
 241  100.2674
 242  -254.4765
 243  -338.9631
 244  373.8031
 245  843.467
 246  956.1249
 247  892.2123
 248  498.3587
 249  394.1633
 250  -58.35684
 251  14.30109
 252  623.6137
 253  -263.5547
 254  -463.1285
 255  -397.9057
 256  144.7383
 257  625.6756
 258  819.9538
 259  612.9062
 260  -127.0575
 261  -304.6683
 262  141.5775
 263  -53.22471
 264  40.14519
 265  -159.5589
 266  575.6918
 267  574.3967
 268  274.365
 269  431.9612
 270  40.19878
 271  -258.2197
 272  -314.6827
 273  11.66231
 274  1192.281
 275  2532.257
 276  2590.995
 277  1725.755
 278  1128.423
 279  340.2569
 280  235.0498
 281  226.0467
 282  2180.634
 283  2910.195
 284  3355.097
 285  2510.488
 286  816.0811
 287  -118.1818
 288  -176.8416
 289  754.7158
 290  1592.336
 291  2429.779
 292  1909.632
 293  898.712
 294  132.5521
 295  -286.8322
 296  -459.0865
 297  69.88415
 298  718.8303
 299  632.8901
 300  369.4686
 301  180.4229
 302  278.2012
 303  -140.9611
 304  -287.6393
 305  -273.2168
 306  -328.0893
 307  -754.9156
 308  -613.6247
 309  80.28422
 310  429.6756
 311  72.49406
 312  100.727
 313  211.3275
 314  -18.46793
 315  183.424
 316  68.23158
 317  -132.4898
 318  -135.6816
 319  -244.9679
 320  -287.5158
 321  -236.6749
 322  -835.4304
 323  -934.7182
 324  -48.96157
 325  259.4442
 326  481.7502
 327  709.6951
 328  610.9742
 329  254.5628
 330  -423.0865
 331  -401.5936
 332  75.67877
 333  227.9466
 334  768.1335
 335  12.16695
 336  -154.4859
 337  -456.6375
 338  -104.3416
 339  -234.6443
 340  -225.5913
 341  28.67665
 342  -329.5162
 343  -194.5535
 344  -45.13541
 345  81.82207
 346  -61.95512
 347  -6.894221
 348  80.8052
 349  -88.76408
 350  275.3027
 351  -180.9294
 352  -216.4728
 353  -606.2451
 354  -884.2561
 355  -580.3713
 356  -742.9285
 357  -1019.886
 358  -490.7788
 359  -805.3242
 360  -909.2158
 361  -553.2216
 362  -572.7543
 363  -678.5121
 364  -1287.411
 365  -936.7639
 366  -1450.302
 367  -935.0717
 368  -1369.539
 369  -1133.23
 370  -1029.242
 371  -350.1134
 372  -414.9189
 373  -768.0342
 374  -958.787
 375  -453.5529
 376  -479.9411
 377  -793.9944
 378  -452.4769
 379  -187.2323
 380  -180.5927
 381  -39.31358
 382  -230.486
 383  66.75761
 384  -205.8658
 385  -118.072
 386  -863.1022
 387  -939.3898
 388  -325.1349
 389  -550.022
 390  -675.7366
 391  -748.3425
 392  -348.479
 393  -407.1763
 394  -359.2865
 395  -145.1764
 396  -716.9067
 397  -471.2729
 398  -229.3818
 399  -98.86334
 400  -310.04
 401  -64.71195
 402  -181.5403
 403  -734.1213
 404  -990.6378
 405  -339.8797
 406  54.15574
 407  407.2467
 408  554.2775
 409  455.0453
 410  105.9523
 411  -376.4118
 412  -694.3892
 413  -396.9459
 414  -641.7752
 415  -680.6427
 416  -1260.708
 417  -1349.947
 418  -1779.988
 419  -1259.015
 420  -735.8167
 421  -822.8868
 422  -1402.592
 423  -995.4031
 424  -156.5147
 425  -345.7263
 426  -789.4159
 427  -1253.574
 428  -1352.157
 429  -913.7149
 430  -770.791
 431  -415.3765
 432  -214.3797
 433  -185.3737
 434  24.12315
 435  -499.8542
 436  -711.3423
 437  -769.2022
 438  -273.9167
 439  -280.4471
 440  -769.5154
 441  -263.8001
 442  -275.3956
 443  -246.8834
 444  -168.5999
 445  -508.2101
 446  -863.2065
 447  -189.3313
 448  1200.456
 449  1324.991
 450  1291.734
 451  331.8651
 452  400.2762
 453  386.7376
 454  1532.254
 455  1671.357
 456  1439.231
 457  1555.351
 458  1129.766
 459  183.9539
 460  -646.01
 461  -273.1298
 462  -712.2838
 463  -166.6699
 464  5.803999
 465  143.4993
 466  721.0931
 467  494.4701
 468  401.8263
 469  372.791
 470  -199.7192
 471  214.5821
 472  764.7049
 473  880.0196
 474  1063.011
 475  592.1816
 476  252.3124
 477  479.4218
 478  661.66
 479  797.5201
 480  97.35487
 481  -252.5182
 482  -167.1715
 483  -229.1117
 484  -676.3956
 485  -601.5563
 486  -67.17151
 487  -218.5821
 488  -550.6804
 489  -215.3816
 490  -122.2097
 491  -339.5782
 492  726.4182
 493  707.5871
 494  931.9142
 495  619.2478
 496  518.9444
 497  516.5643
 498  294.9695
 499  322.8607
 500  657.516
 501  665.6586
 502  140.6157
 503  -284.7787
 504  -632.6279
 505  -342.034
 506  -648.9365
 507  -687.6747
 508  -471.2469
 509  -628.4419
 510  -527.2482
 511  -856.1295
