# Input file       =  1200743205.114184_cleaned.dat
# Candidate        =  PSR_0332+5434
# Telescope        =  AR
# Epoch_topo       =  58141.491019840090
# Epoch_bary       =  N/A
# T_sample         =  0.002
# Data Folded      =  7208960
# Data Avg         =  0.0694957384860819
# Data StdDev      =  10.6774554277389 
# Profile Bins     =  512
# Profile Avg      =  978.499994692263 
# Profile StdDev   =  1266.97806062766 
# Reduced chi-sqr  =  1.247
# Prob(Noise)      <  0.000114   (~3.7 sigma)
# P_topo (ms)      =  714.571812690201  +/- 7.66e-05
# P'_topo (s/s)    =  -0                +/- 4.11e-11
# P''_topo (s/s^2) =  0                 +/- 1.85e-14
# P_bary (ms)      =  N/A
# P'_bary (s/s)    =  N/A
# P''_bary (s/s^2) =  N/A
# P_orb (s)        =  N/A
# asin(i)/c (s)    =  N/A
# eccentricity     =  N/A
# w (rad)          =  N/A
# T_peri           =  N/A
######################################################
   0  312.9693
   1  944.4937
   2  1013.271
   3  1233.181
   4  446.5218
   5  758.8547
   6  2454.74
   7  1795.681
   8  1895.772
   9  878.7711
  10  713.4233
  11  2132.165
  12  2842.468
  13  3415.057
  14  3421.107
  15  2102.812
  16  1646.52
  17  1919.182
  18  2351.743
  19  2089.205
  20  1675.67
  21  1351.981
  22  1033.848
  23  1138.895
  24  747.3725
  25  1049.538
  26  564.097
  27  1136.118
  28  1961.063
  29  1879.783
  30  1985.52
  31  1761.131
  32  2243.586
  33  1556.211
  34  913.5058
  35  1211.615
  36  2179.871
  37  3088.56
  38  3294.125
  39  2381.667
  40  1058.083
  41  121.6503
  42  -221.1881
  43  -122.3811
  44  242.6857
  45  1359.275
  46  1560.713
  47  1579.89
  48  1483.093
  49  929.2157
  50  510.2601
  51  352.1007
  52  1172.628
  53  254.1278
  54  528.3634
  55  -146.6868
  56  809.093
  57  1015.591
  58  1294.346
  59  810.0161
  60  304.2443
  61  414.6653
  62  1842.832
  63  2892.575
  64  2646.473
  65  1868.69
  66  1493.88
  67  1278.231
  68  1650.24
  69  2257.238
  70  2103.132
  71  2970.989
  72  2951.522
  73  1092.324
  74  327.654
  75  756.749
  76  1893.934
  77  1593.421
  78  1855.459
  79  1531.377
  80  2248.479
  81  1854.238
  82  2595.313
  83  1933.59
  84  540.9064
  85  -682.0233
  86  276.8164
  87  1652.319
  88  2051.094
  89  2243.231
  90  1663.402
  91  807.2783
  92  248.0092
  93  4.33842
  94  531.0185
  95  1758.421
  96  2193.958
  97  1180.631
  98  575.5667
  99  281.858
 100  -8.255595
 101  686.1976
 102  2256.407
 103  2355.369
 104  2266.289
 105  1505.519
 106  842.3516
 107  1485.691
 108  1935.377
 109  2338.599
 110  3171.907
 111  2891.571
 112  1793.938
 113  1636.964
 114  1216.423
 115  2030.711
 116  2866.647
 117  2132.208
 118  1138.069
 119  59.05931
 120  1121.055
 121  2701.093
 122  2343.779
 123  2601.307
 124  1415.281
 125  -46.62955
 126  -814.1873
 127  962.7934
 128  2147.337
 129  2503.949
 130  2545.94
 131  1513.278
 132  916.6501
 133  986.1261
 134  1495.621
 135  1802.254
 136  1709.269
 137  1451.768
 138  2010.861
 139  1795.822
 140  941.6721
 141  181.5282
 142  14.59224
 143  1107.992
 144  1484.189
 145  1282.985
 146  1092.309
 147  1788.125
 148  818.01
 149  182.9272
 150  226.8552
 151  1144.008
 152  1982.892
 153  1806.595
 154  1612.527
 155  284.5693
 156  -1417.476
 157  -908.2325
 158  -685.137
 159  -822.8456
 160  -297.0371
 161  -76.31297
 162  1156.049
 163  1230.132
 164  562.9534
 165  170.5415
 166  -721.2257
 167  -928.7056
 168  -158.787
 169  578.0496
 170  460.0923
 171  644.7035
 172  1082.464
 173  434.7305
 174  -723.5764
 175  -434.8997
 176  1249.253
 177  2003.617
 178  3064.907
 179  4216.221
 180  3722.413
 181  2211.813
 182  1860.115
 183  1998.712
 184  2643.35
 185  2973.584
 186  2401.434
 187  2627.063
 188  1312.084
 189  1031.402
 190  -368.6784
 191  1143.674
 192  1952.762
 193  932.9652
 194  508.9962
 195  1221.104
 196  1082.798
 197  820.9059
 198  1071.903
 199  1097.734
 200  967.0155
 201  1084.592
 202  461.4557
 203  378.1135
 204  -7.718948
 205  1195.706
 206  754.9603
 207  1163.8
 208  182.1559
 209  -453.955
 210  -385.208
 211  -28.32344
 212  -424.8702
 213  -332.8448
 214  -461.6456
 215  -334.5025
 216  -17.51956
 217  -87.92197
 218  -602.9937
 219  5.244891
 220  575.7549
 221  633.4717
 222  944.9343
 223  436.105
 224  830.1592
 225  326.1396
 226  -119.882
 227  1205.332
 228  2189.479
 229  1994.066
 230  1754.459
 231  2358.318
 232  952.2077
 233  922.9465
 234  1414.774
 235  1434.603
 236  1827.675
 237  2799.819
 238  2634.713
 239  1960.333
 240  1748.723
 241  1323.437
 242  1557.697
 243  1397.566
 244  597.8894
 245  23.17684
 246  438.6344
 247  1218.126
 248  1415.171
 249  620.2378
 250  517.4756
 251  871.595
 252  276.0054
 253  521.8131
 254  1227.243
 255  1733.382
 256  1071.814
 257  1708.97
 258  1762.417
 259  3329.016
 260  2949.132
 261  2938.665
 262  2421.827
 263  2844.157
 264  2638.291
 265  1987.031
 266  1974.695
 267  1644.448
 268  1842.462
 269  2510.775
 270  1960.004
 271  1937.193
 272  1493.998
 273  -139.2326
 274  58.97379
 275  776.1316
 276  1424.179
 277  1629.421
 278  1521.619
 279  1377.293
 280  2320.891
 281  2081.427
 282  2071.902
 283  889.3179
 284  301.0474
 285  -190.1569
 286  18.05395
 287  885.6409
 288  2066.865
 289  2710.486
 290  1164.321
 291  -500.0885
 292  504.7747
 293  2359.999
 294  3000.588
 295  2101.028
 296  1944.689
 297  584.5399
 298  1116.633
 299  1718.245
 300  1646.349
 301  577.9225
 302  701.2601
 303  541.3361
 304  -403.4378
 305  -93.81859
 306  -172.7859
 307  3.990627
 308  -845.7255
 309  -908.2407
 310  -457.9205
 311  729.8978
 312  1401.424
 313  514.9587
 314  518.1785
 315  -176.1591
 316  114.54
 317  -964.447
 318  -679.4423
 319  335.7303
 320  559.9643
 321  725.5892
 322  -248.3105
 323  -813.4703
 324  -777.0612
 325  -164.5644
 326  461.61
 327  283.9497
 328  1838.005
 329  2028.385
 330  313.3895
 331  -955.8977
 332  522.1799
 333  1461.51
 334  702.989
 335  258.4392
 336  -1.138721
 337  -401.4386
 338  -1117.741
 339  -360.1352
 340  469.4125
 341  1151.823
 342  1743.827
 343  1229.797
 344  528.4822
 345  284.7851
 346  742.0122
 347  -657.8331
 348  -968.3512
 349  -348.8009
 350  28.99883
 351  -542.633
 352  -104.0141
 353  146.9282
 354  -1666.185
 355  -1372.014
 356  -650.8818
 357  -676.2299
 358  -225.768
 359  483.7563
 360  636.1185
 361  451.9239
 362  -456.205
 363  -827.3862
 364  -1218.169
 365  -119.3164
 366  777.3983
 367  954.3555
 368  539.6371
 369  -279.8904
 370  1171.335
 371  688.8815
 372  416.4955
 373  71.58597
 374  540.7818
 375  484.2333
 376  662.3315
 377  1310.112
 378  2141.192
 379  1933.611
 380  836.9213
 381  734.6557
 382  -366.5938
 383  -1325.154
 384  -1353.762
 385  712.6188
 386  1846.822
 387  922.6752
 388  -324.0582
 389  -1155.915
 390  -1272.065
 391  -111.846
 392  -477.2937
 393  46.85904
 394  425.0101
 395  -13.8852
 396  77.49162
 397  71.8317
 398  470.0761
 399  745.5362
 400  1545.759
 401  649.1261
 402  254.3455
 403  132.0107
 404  127.898
 405  421.9298
 406  665.6577
 407  918.451
 408  1491.397
 409  834.0794
 410  713.5748
 411  364.4022
 412  280.7101
 413  621.9005
 414  545.3709
 415  333.7141
 416  382.8758
 417  897.5769
 418  1122.207
 419  525.1973
 420  -512.1508
 421  -592.6597
 422  212.4019
 423  427.1087
 424  579.2374
 425  750.4915
 426  794.9185
 427  996.1154
 428  347.6003
 429  -10.05107
 430  540.5959
 431  -416.7043
 432  -672.3439
 433  -814.6864
 434  -111.0154
 435  475.3263
 436  788.0279
 437  105.8493
 438  -760.662
 439  78.31596
 440  92.19518
 441  830.9975
 442  814.308
 443  1086.544
 444  2187.398
 445  1467.272
 446  1344.263
 447  997.347
 448  1138.048
 449  474.8018
 450  888.3033
 451  2280.968
 452  2782.613
 453  2223.088
 454  1853.869
 455  509.8084
 456  -398.17
 457  200.0999
 458  1479.617
 459  2268.006
 460  2107.466
 461  1448.162
 462  1419.861
 463  2451.649
 464  2650.519
 465  2379.164
 466  2315.834
 467  1745.4
 468  1567.307
 469  2099.292
 470  1732.807
 471  1105.357
 472  502.9632
 473  -814.3051
 474  -409.8281
 475  1361.209
 476  2036.236
 477  297.841
 478  -521.8071
 479  -1028.184
 480  -392.7318
 481  654.1562
 482  390.3873
 483  1230.609
 484  2010.091
 485  852.0311
 486  1058.135
 487  131.1769
 488  633.9547
 489  1307.726
 490  1279.887
 491  2484.504
 492  3140.956
 493  2402.357
 494  957.1908
 495  510.1962
 496  1186.39
 497  1486.042
 498  844.2656
 499  2044.874
 500  1836.872
 501  1588.741
 502  926.2051
 503  1419.955
 504  686.4468
 505  439.8887
 506  1062.177
 507  1398.262
 508  1622.416
 509  2013.196
 510  1899.615
 511  1346.437
