# Input file       =  1200499343.110404_cleaned.dat
# Candidate        =  PSR_0332+5434
# Telescope        =  AR
# Epoch_topo       =  58138.668542944491
# Epoch_bary       =  N/A
# T_sample         =  0.002
# Data Folded      =  7340032
# Data Avg         =  0.109395055454327
# Data StdDev      =  1.00056974241841 
# Profile Bins     =  512
# Profile Avg      =  1568.14086082045 
# Profile StdDev   =  119.801253366475 
# Reduced chi-sqr  =  0.773
# Prob(Noise)      <  1   (~0.0 sigma)
# P_topo (ms)      =  714.570209087083  +/- 0.000138
# P'_topo (s/s)    =  -0                +/- 7.27e-11
# P''_topo (s/s^2) =  0                 +/- 3.21e-14
# P_bary (ms)      =  N/A
# P'_bary (s/s)    =  N/A
# P''_bary (s/s^2) =  N/A
# P_orb (s)        =  N/A
# asin(i)/c (s)    =  N/A
# eccentricity     =  N/A
# w (rad)          =  N/A
# T_peri           =  N/A
######################################################
   0  1821.034
   1  1872.524
   2  1877.497
   3  1726.44
   4  1637.236
   5  1635.084
   6  1476.1
   7  1514.939
   8  1584.216
   9  1591.025
  10  1691.212
  11  1645.469
  12  1629.817
  13  1593.1
  14  1614.208
  15  1561.838
  16  1683.391
  17  1562.79
  18  1594.474
  19  1592.403
  20  1606.545
  21  1557.592
  22  1455.592
  23  1459.875
  24  1537.171
  25  1532.524
  26  1394.778
  27  1404.404
  28  1399.041
  29  1474.836
  30  1503.05
  31  1583.327
  32  1600.631
  33  1632.848
  34  1577.742
  35  1563.302
  36  1636.408
  37  1606.987
  38  1478.002
  39  1467.252
  40  1568.695
  41  1514.897
  42  1426.206
  43  1495.99
  44  1498.094
  45  1516.563
  46  1473.062
  47  1510.848
  48  1536.878
  49  1528.376
  50  1434.601
  51  1523.747
  52  1538.459
  53  1575.222
  54  1483.017
  55  1468.42
  56  1499.706
  57  1588.806
  58  1654.849
  59  1527.724
  60  1446.992
  61  1473.333
  62  1564.226
  63  1623.79
  64  1529.206
  65  1488.407
  66  1548.559
  67  1570.297
  68  1533.111
  69  1505.421
  70  1418.042
  71  1388.219
  72  1519.522
  73  1559.609
  74  1482.552
  75  1437.023
  76  1569.165
  77  1686.543
  78  1605.124
  79  1649.883
  80  1558.267
  81  1555.021
  82  1554.23
  83  1518.379
  84  1566.311
  85  1565.016
  86  1751.47
  87  1621.009
  88  1586.859
  89  1572.759
  90  1629.661
  91  1752.652
  92  1663.083
  93  1541.976
  94  1546.49
  95  1555.169
  96  1521.961
  97  1579
  98  1499.516
  99  1534.894
 100  1565.735
 101  1523.155
 102  1541.263
 103  1661.536
 104  1559.866
 105  1535.185
 106  1683.219
 107  1701.498
 108  1581.432
 109  1528.21
 110  1602.138
 111  1575.822
 112  1514.087
 113  1556.227
 114  1476.606
 115  1546.617
 116  1593.498
 117  1567.039
 118  1631.048
 119  1604.054
 120  1610.622
 121  1611.044
 122  1580.735
 123  1524.034
 124  1566.662
 125  1563.162
 126  1558.533
 127  1605.985
 128  1595.843
 129  1451.107
 130  1519.701
 131  1636.948
 132  1563.885
 133  1522.681
 134  1569.614
 135  1583.743
 136  1586.603
 137  1576.763
 138  1598.672
 139  1626.691
 140  1584.864
 141  1522.723
 142  1380.695
 143  1478.418
 144  1637.121
 145  1674.444
 146  1571.341
 147  1606.019
 148  1704.769
 149  1673.136
 150  1599.054
 151  1602.896
 152  1576.679
 153  1580.964
 154  1520.477
 155  1435.936
 156  1536.784
 157  1653.204
 158  1680.453
 159  1556.513
 160  1577.602
 161  1535.714
 162  1525.445
 163  1545.215
 164  1553.391
 165  1586.564
 166  1441.095
 167  1461.545
 168  1551.798
 169  1630.285
 170  1599.35
 171  1573.387
 172  1593.158
 173  1541.276
 174  1528.426
 175  1561.204
 176  1626.026
 177  1605.229
 178  1609.206
 179  1553.312
 180  1465.873
 181  1411.062
 182  1497.109
 183  1593.839
 184  1613.657
 185  1659.099
 186  1637.63
 187  1565.643
 188  1642.661
 189  1529.016
 190  1557.39
 191  1575.501
 192  1542.074
 193  1528.77
 194  1574.415
 195  1548.506
 196  1605.677
 197  1573.621
 198  1499.203
 199  1538.162
 200  1529.561
 201  1572.749
 202  1684.195
 203  1508.868
 204  1522.216
 205  1469.488
 206  1498.934
 207  1597.405
 208  1613.295
 209  1511.308
 210  1501.653
 211  1556.463
 212  1660.498
 213  1609.149
 214  1493.545
 215  1533.133
 216  1577.895
 217  1618.294
 218  1568.529
 219  1501.181
 220  1582.735
 221  1592.947
 222  1610.21
 223  1694.745
 224  1634.413
 225  1633.808
 226  1596.779
 227  1585.14
 228  1583.258
 229  1557.899
 230  1656.892
 231  1664.586
 232  1583.393
 233  1626.06
 234  1657.215
 235  1709.895
 236  1662.152
 237  1591.012
 238  1621.993
 239  1637.468
 240  1659.025
 241  1687.709
 242  1607.518
 243  1580.114
 244  1517.271
 245  1536.496
 246  1618.177
 247  1528.038
 248  1656.365
 249  1608.144
 250  1676.753
 251  1673.733
 252  1502.168
 253  1594.034
 254  1530.441
 255  1495.906
 256  1499.874
 257  1493.923
 258  1573.54
 259  1632.45
 260  1563.404
 261  1445.929
 262  1496.396
 263  1562.108
 264  1612.294
 265  1537.21
 266  1474.191
 267  1581.024
 268  1549.982
 269  1536.686
 270  1458.676
 271  1460.515
 272  1529.721
 273  1550.644
 274  1493.174
 275  1452.447
 276  1491.204
 277  1590.098
 278  1605.419
 279  1525.369
 280  1581.476
 281  1503.155
 282  1522.612
 283  1568.294
 284  1476.443
 285  1553.04
 286  1492.356
 287  1616.971
 288  1685.801
 289  1481.275
 290  1432.164
 291  1521.502
 292  1648.295
 293  1607.77
 294  1573.5
 295  1529.78
 296  1503.507
 297  1504.238
 298  1531.809
 299  1577.47
 300  1557.866
 301  1559.09
 302  1443.741
 303  1464.233
 304  1503.89
 305  1529.13
 306  1528.109
 307  1492.175
 308  1596.53
 309  1649.233
 310  1687.6
 311  1659.761
 312  1621.896
 313  1642.038
 314  1549.181
 315  1590.458
 316  1575.992
 317  1624.408
 318  1562.378
 319  1560.289
 320  1612.359
 321  1607.138
 322  1599.334
 323  1613.911
 324  1652.053
 325  1593.667
 326  1631.389
 327  1636.279
 328  1695.913
 329  1599.115
 330  1693.83
 331  1567.367
 332  1507.545
 333  1658.996
 334  1647.911
 335  1648.834
 336  1506.285
 337  1424.954
 338  1420.252
 339  1503.76
 340  1592.428
 341  1594.145
 342  1500.979
 343  1482.569
 344  1485.101
 345  1489.433
 346  1562.489
 347  1573.526
 348  1616.211
 349  1607.339
 350  1649.167
 351  1641.75
 352  1583.586
 353  1561.169
 354  1640.922
 355  1528.047
 356  1548.393
 357  1558.801
 358  1560.662
 359  1592.903
 360  1614.993
 361  1593.903
 362  1483.973
 363  1543.212
 364  1660.6
 365  1617.61
 366  1602.341
 367  1666.244
 368  1620.771
 369  1650.934
 370  1653.804
 371  1586.516
 372  1550.592
 373  1667.449
 374  1603.475
 375  1550.851
 376  1559.943
 377  1501.141
 378  1563.352
 379  1584.956
 380  1519.831
 381  1511.401
 382  1529.281
 383  1507.004
 384  1475.81
 385  1438.84
 386  1466.479
 387  1619.249
 388  1561.338
 389  1555.739
 390  1552.354
 391  1568.325
 392  1577.841
 393  1581.497
 394  1575.994
 395  1547.753
 396  1449.199
 397  1583.122
 398  1632.439
 399  1574.521
 400  1594.788
 401  1616.761
 402  1654.849
 403  1658.301
 404  1599.197
 405  1578.056
 406  1509.175
 407  1611.246
 408  1656.992
 409  1578.799
 410  1542.841
 411  1515.296
 412  1584.455
 413  1462.432
 414  1513.698
 415  1473.019
 416  1618.555
 417  1660.88
 418  1537.144
 419  1552.857
 420  1601.559
 421  1641.299
 422  1627.212
 423  1547.578
 424  1537.656
 425  1563.006
 426  1562.813
 427  1491.117
 428  1577.428
 429  1505.726
 430  1515.207
 431  1519.059
 432  1642.277
 433  1613.676
 434  1556.375
 435  1533.84
 436  1503.227
 437  1587.435
 438  1683.863
 439  1600.563
 440  1546.442
 441  1567.452
 442  1655.766
 443  1596.823
 444  1589.214
 445  1580.043
 446  1500.992
 447  1406.135
 448  1403.565
 449  1416.42
 450  1500.992
 451  1510.857
 452  1610.875
 453  1509.742
 454  1493.034
 455  1419.931
 456  1397.507
 457  1423.599
 458  1455.189
 459  1564.578
 460  1584.312
 461  1611.47
 462  1636.992
 463  1467.63
 464  1631.494
 465  1616.325
 466  1447.302
 467  1459.965
 468  1481.705
 469  1516.316
 470  1521.716
 471  1604.195
 472  1592.368
 473  1546.875
 474  1513.59
 475  1590.863
 476  1655.139
 477  1751.427
 478  1711.56
 479  1553.825
 480  1530.955
 481  1562.354
 482  1510.564
 483  1453.614
 484  1550.291
 485  1545.823
 486  1667.343
 487  1586.843
 488  1608.403
 489  1690.212
 490  1595.014
 491  1736.321
 492  1681.666
 493  1691.885
 494  1701.867
 495  1623.2
 496  1495.105
 497  1440.6
 498  1511.273
 499  1446.221
 500  1480.936
 501  1461.562
 502  1531.299
 503  1585.528
 504  1534.086
 505  1589.297
 506  1651.754
 507  1578.06
 508  1649.57
 509  1756.504
 510  1989.355
 511  1922.867
