# Input file       =  1200772773.113199_cleaned.dat
# Candidate        =  PSR_0332+5434
# Telescope        =  AR
# Epoch_topo       =  58141.833242050918
# Epoch_bary       =  N/A
# T_sample         =  0.002
# Data Folded      =  7340032
# Data Avg         =  0.531539587809156
# Data StdDev      =  6.9747992828413  
# Profile Bins     =  256
# Profile Avg      =  15240.2637299424 
# Profile StdDev   =  1181.02939820734 
# Reduced chi-sqr  =  0.637
# Prob(Noise)      <  1   (~0.0 sigma)
# P_topo (ms)      =  714.572349277293  +/- 7.49e-05
# P'_topo (s/s)    =  -0                +/- 3.95e-11
# P''_topo (s/s^2) =  0                 +/- 1.75e-14
# P_bary (ms)      =  N/A
# P'_bary (s/s)    =  N/A
# P''_bary (s/s^2) =  N/A
# P_orb (s)        =  N/A
# asin(i)/c (s)    =  N/A
# eccentricity     =  N/A
# w (rad)          =  N/A
# T_peri           =  N/A
######################################################
   0  16329.14
   1  15362.82
   2  15191.15
   3  14871.01
   4  15238.48
   5  14690.65
   6  14657.22
   7  14848.29
   8  15772.44
   9  16192.46
  10  14675.13
  11  14364.96
  12  14211.78
  13  12950.01
  14  13704.83
  15  14892.82
  16  15704.16
  17  15966.29
  18  14942.48
  19  15084.5
  20  16067.14
  21  16443.25
  22  16943.65
  23  15974.84
  24  16333.9
  25  16668.08
  26  15400.07
  27  15387.9
  28  14455.43
  29  15110.1
  30  15821.48
  31  16072.42
  32  17201.5
  33  15525.79
  34  15036.78
  35  14195.84
  36  14567.01
  37  15130.29
  38  15096.41
  39  16374.36
  40  15765.01
  41  16255.13
  42  15246.6
  43  16758.07
  44  14882.09
  45  16590.12
  46  15745.23
  47  15014.21
  48  15514.2
  49  15456.13
  50  16842.13
  51  15045.92
  52  15588.57
  53  16125.04
  54  15539.78
  55  13815.14
  56  13341.74
  57  15656.3
  58  15506.88
  59  15470.65
  60  15293.12
  61  15011.57
  62  14895.1
  63  15308.19
  64  15858.49
  65  15319.16
  66  15274.82
  67  15983.74
  68  15642.14
  69  14668.49
  70  15829.63
  71  15449.55
  72  15363.49
  73  15293.34
  74  14669.42
  75  15175.5
  76  15105.82
  77  15235.3
  78  14974.61
  79  15633.52
  80  15538.44
  81  15824.6
  82  14987.12
  83  13841.2
  84  14886.76
  85  13767.99
  86  14347.85
  87  14674.77
  88  14738.57
  89  14659.17
  90  14492.36
  91  14259.82
  92  14349.71
  93  15473.65
  94  15224.72
  95  15110.62
  96  15365.73
  97  16007.64
  98  15178.93
  99  15647.56
 100  15812.31
 101  14688.02
 102  15187.23
 103  14642.52
 104  14473.4
 105  14083.49
 106  15436.62
 107  15341.75
 108  14589.1
 109  14346.43
 110  13292.33
 111  15080.16
 112  15166.11
 113  15740.93
 114  15213.11
 115  15663.36
 116  15660.62
 117  15546.32
 118  14648.73
 119  13715.62
 120  16079.7
 121  14920.67
 122  14581.93
 123  13407.42
 124  13522.82
 125  14852.83
 126  13925.24
 127  14572.26
 128  13561.86
 129  15263.86
 130  14797.62
 131  15761.99
 132  15289.58
 133  13675.65
 134  15082.8
 135  14055.15
 136  15213.48
 137  15162.84
 138  15791.2
 139  15801.28
 140  14738.23
 141  14180.59
 142  14766.05
 143  15016.04
 144  15424.6
 145  16091.7
 146  15745.3
 147  14986.84
 148  14589.11
 149  13972.21
 150  15926.64
 151  15872.6
 152  16016.82
 153  17804.37
 154  18959.1
 155  17249.34
 156  15574.77
 157  16140.73
 158  15683.07
 159  16167.93
 160  15240.84
 161  15231.16
 162  15070.99
 163  15890.3
 164  15353.43
 165  15156.4
 166  15072.18
 167  14799.08
 168  15129.81
 169  14906.1
 170  15734.05
 171  15762.69
 172  15957.38
 173  15437.5
 174  14581.56
 175  16055.47
 176  14763.4
 177  15825.97
 178  15636.54
 179  15291.83
 180  14043.92
 181  16006.72
 182  15542.39
 183  15686.49
 184  15338.15
 185  16325.41
 186  16800.87
 187  15953.2
 188  15584.84
 189  14636.02
 190  15170.46
 191  14292.23
 192  15518.06
 193  15584.7
 194  15459.69
 195  14635.38
 196  15189.89
 197  16611.86
 198  14106.48
 199  14430.83
 200  15773.05
 201  16454.58
 202  16393.04
 203  16266.83
 204  16921.59
 205  16228.73
 206  15341.75
 207  14359.05
 208  15279.21
 209  16770.13
 210  16659.58
 211  15936.12
 212  15202.53
 213  16036.08
 214  15882.86
 215  15828.18
 216  14943.17
 217  14823.27
 218  14714.6
 219  14381.77
 220  14819.84
 221  14907.52
 222  14896.95
 223  14946
 224  15316.65
 225  15746.06
 226  14309.58
 227  14701.07
 228  14287.43
 229  15243.85
 230  15009.31
 231  15766.17
 232  14668.99
 233  14668.27
 234  14687.68
 235  14722.48
 236  14646.73
 237  14566.17
 238  15550.92
 239  14374.28
 240  14974.05
 241  13685.52
 242  15150.94
 243  14982.02
 244  14657.67
 245  16481.85
 246  15410.07
 247  14665.64
 248  14007.96
 249  15468.65
 250  14214.41
 251  14957.06
 252  16435.12
 253  15281.22
 254  15188.67
 255  13567.95
