# Input file       =  1200671680.103016-PSRB0329-2ms-sampling-dd.dat
# Candidate        =  PSR_0332+5434
# Telescope        =  AR
# Epoch_topo       =  58140.663184062687
# Epoch_bary       =  N/A
# T_sample         =  0.002
# Data Folded      =  7340032
# Data Avg         =  -1.83839432518962e-09
# Data StdDev      =  118.771896566916 
# Profile Bins     =  512
# Profile Avg      =  -1.959729859466  
# Profile StdDev   =  14220.9198121841 
# Reduced chi-sqr  =  1.569
# Prob(Noise)      <  3.08e-15   (~7.8 sigma)
# P_topo (ms)      =  714.571366424487  +/- 0.000228
# P'_topo (s/s)    =  -0                +/- 1.2e-10
# P''_topo (s/s^2) =  0                 +/- 5.32e-14
# P_bary (ms)      =  N/A
# P'_bary (s/s)    =  N/A
# P''_bary (s/s^2) =  N/A
# P_orb (s)        =  N/A
# asin(i)/c (s)    =  N/A
# eccentricity     =  N/A
# w (rad)          =  N/A
# T_peri           =  N/A
######################################################
   0  11555.14
   1  16229.19
   2  15304.02
   3  14073.67
   4  6719.396
   5  -3349.339
   6  -4727.401
   7  -5529.735
   8  -3705.083
   9  -1423.339
  10  996.448
  11  -403.7303
  12  -1046.542
  13  -1705.611
  14  -5467.593
  15  -3507.432
  16  -1150.574
  17  792.3109
  18  798.9755
  19  -403.8402
  20  -2117.489
  21  -4561.25
  22  -4240.329
  23  -3918.942
  24  -3196.958
  25  -2663.042
  26  5378.442
  27  20249.96
  28  38103.49
  29  55341.29
  30  50476.15
  31  39827.61
  32  27328.24
  33  18081.34
  34  29801.54
  35  49136.39
  36  63610.3
  37  59904.07
  38  40672.59
  39  20256.97
  40  5992.049
  41  -1781.711
  42  -3233.018
  43  -4655.881
  44  -4010.353
  45  -2962.582
  46  -3819.917
  47  -3798.854
  48  -4425.126
  49  -5578.767
  50  -6121.1
  51  -3400.594
  52  -2885.484
  53  -2973.456
  54  -3119.763
  55  -4856.083
  56  -5051.087
  57  -5530.142
  58  -4030.308
  59  -3335.052
  60  -3893.135
  61  -4341.592
  62  -5065.504
  63  -6015.038
  64  -6259.746
  65  -5659.233
  66  -5574.583
  67  -5112.125
  68  -5493.256
  69  -5722.73
  70  -6008.66
  71  -6182.957
  72  -5572.961
  73  -5499.087
  74  -4952.583
  75  -5347.481
  76  -5484.091
  77  -5885.974
  78  -6615.716
  79  -6197.222
  80  -5386.035
  81  -5097.288
  82  -4616.408
  83  -4183.515
  84  -4433.662
  85  -5210.507
  86  -5241
  87  -4563.129
  88  -4799.541
  89  -3653.209
  90  -3614.534
  91  -4490.756
  92  -4653.958
  93  -5644.354
  94  -5596.947
  95  -5700.88
  96  -5317.271
  97  -4787.292
  98  -5377.022
  99  -5709.433
 100  -6371.901
 101  -6987.612
 102  -6891.223
 103  -6356.449
 104  -5510.842
 105  -5356.328
 106  -5841.229
 107  -6437.001
 108  -6591.346
 109  -5882.745
 110  -5890.684
 111  -5841.656
 112  -5697.726
 113  -5859.551
 114  -5864.201
 115  -5816.917
 116  -5643.968
 117  -5043.07
 118  -5146.911
 119  -4815.896
 120  -5100.365
 121  -5879.335
 122  -5575.651
 123  -5212.654
 124  -4813.711
 125  -4346.469
 126  -4696.168
 127  -4990.463
 128  -5361.152
 129  -5628.236
 130  -5785.511
 131  -5772.829
 132  -6150.89
 133  -4891.46
 134  -3693.392
 135  6419.874
 136  4834.968
 137  3710.916
 138  4821.748
 139  -3988.347
 140  -5292.46
 141  -990.6324
 142  7921.082
 143  8382.453
 144  8804.851
 145  2991.714
 146  -1646.758
 147  -3231.865
 148  -4349.061
 149  -1988.824
 150  6337.259
 151  6708.857
 152  24905.3
 153  43841.92
 154  50774.03
 155  46807.12
 156  37895.96
 157  28187.72
 158  14113.06
 159  27078.77
 160  54461.82
 161  51505.66
 162  45492.55
 163  34048.33
 164  3439.74
 165  -3024.395
 166  -7104.798
 167  -5628.937
 168  -5983.248
 169  -5778.442
 170  -5473.924
 171  -5801.536
 172  -5123.439
 173  -4893.461
 174  -5075.969
 175  -4371.163
 176  -3296.347
 177  -3839.135
 178  -3487.352
 179  -3129.928
 180  -3560.228
 181  -3276.603
 182  -2794.66
 183  -1666.498
 184  -1760.655
 185  -1699.591
 186  -1189.475
 187  -1220.701
 188  -1446.393
 189  -2025.751
 190  -3683.699
 191  -4559.494
 192  -5736.108
 193  -6388.914
 194  -6023.042
 195  -6127.191
 196  -6306.997
 197  -5925.027
 198  -5931.066
 199  -5817.849
 200  -5692.055
 201  -5314.582
 202  -5416.473
 203  -5285.659
 204  -5240.993
 205  -5419.805
 206  -5970.976
 207  -5971.495
 208  -5797.038
 209  -5778.175
 210  -5243.58
 211  -4869.11
 212  -4948.125
 213  -5308.185
 214  -5757.175
 215  -5637.216
 216  -5689.774
 217  -3571.061
 218  468.1451
 219  3837.39
 220  3214
 221  3626.476
 222  2339.051
 223  -2421.624
 224  -1323.692
 225  1817.239
 226  7426.314
 227  6325.799
 228  4103.991
 229  1393.7
 230  -3219.661
 231  -3175.654
 232  -3548.88
 233  -3978.468
 234  -4495.779
 235  -5252.994
 236  -6498.366
 237  -5841.143
 238  -5266.217
 239  -4524.261
 240  -4250.619
 241  -3948.009
 242  -4512.292
 243  -5636.667
 244  -5569.846
 245  -5301.909
 246  -4888.263
 247  -4931.415
 248  -4935.049
 249  -5576.267
 250  -6305.044
 251  -6537.52
 252  -6212.871
 253  -5803.89
 254  -5723.211
 255  -6223.072
 256  -5823.045
 257  -5477.139
 258  -5853.989
 259  -6526.623
 260  -6132.756
 261  -5710.049
 262  -5444.136
 263  -5339.281
 264  -5503.525
 265  -5814.667
 266  -6292.486
 267  -5978.63
 268  -5713.466
 269  -5275.034
 270  -5000.636
 271  -5354.531
 272  -5769.85
 273  -6279.212
 274  -6326.14
 275  -6413.274
 276  -5700.797
 277  -5263
 278  -5313.426
 279  -5376.472
 280  -5372.607
 281  -4868.183
 282  -4273.622
 283  -3638.928
 284  -4267.375
 285  -3880.278
 286  -3783.188
 287  -3448.147
 288  -3881.952
 289  -4231.121
 290  -5056.1
 291  -5086.101
 292  -5655.917
 293  -5763.537
 294  -6013.635
 295  -6015.678
 296  -6410.193
 297  -6334.371
 298  -5579.339
 299  -5559.485
 300  -5958.248
 301  -5905.05
 302  -5448.461
 303  -5590.137
 304  -5582.515
 305  -5612.229
 306  -6027.812
 307  -6371.432
 308  -5824.995
 309  -5290.56
 310  -5296.014
 311  -5314.173
 312  -5415.686
 313  -5974.269
 314  -5678.787
 315  -5779.548
 316  -4970.989
 317  -3790.597
 318  -4003.061
 319  -4047.334
 320  -4656.624
 321  -5021.576
 322  -5661.053
 323  -5659.431
 324  -5259.334
 325  -4891.98
 326  -4919.324
 327  -5482.977
 328  -5904.754
 329  -5572.955
 330  -6116.498
 331  -6071.767
 332  -6055.584
 333  -6556.065
 334  -5629.964
 335  -5489.426
 336  -5959.911
 337  -4945.205
 338  -5690.782
 339  -6539.62
 340  1222.665
 341  2568.893
 342  4000.976
 343  4999.938
 344  2716.055
 345  -88.4499
 346  -4722.985
 347  2279.05
 348  4892.431
 349  5570.152
 350  5059.889
 351  1784.779
 352  -1970.62
 353  -4092.497
 354  -4815.646
 355  -4834.708
 356  -5278.693
 357  -5407.562
 358  -5131.862
 359  -5376.759
 360  -5824.627
 361  -5866.315
 362  -5943.99
 363  -6535.396
 364  -6475.23
 365  -6503.181
 366  -7651.125
 367  -7223.844
 368  -6743.448
 369  -6340.448
 370  -6352.974
 371  -5943.396
 372  -6197.997
 373  -6342.377
 374  -6190.503
 375  -5991.274
 376  -5739.05
 377  -5743.724
 378  -5795.484
 379  -5998.924
 380  -5851.581
 381  -5740.328
 382  -5845.135
 383  -5883.224
 384  -6483.398
 385  -5687.939
 386  -5872.735
 387  -5669.884
 388  -5920.342
 389  -5786.088
 390  -5686.251
 391  -5959.931
 392  -5381.608
 393  -4950.299
 394  -4942.769
 395  -5652.676
 396  -5945
 397  -5215.466
 398  -5010.614
 399  -4716.937
 400  -4653.137
 401  -4527.132
 402  -4778.626
 403  -5340.346
 404  -5173.029
 405  -5802.047
 406  -5000.153
 407  -5218.238
 408  -4739.285
 409  -4423.514
 410  -3597.823
 411  -1692.153
 412  -996.3588
 413  -1948.918
 414  -1424.689
 415  -350.6627
 416  -1768.95
 417  4272.39
 418  8415.11
 419  16926.28
 420  36750.15
 421  34691.76
 422  32439.62
 423  28354.62
 424  9909.595
 425  15038.69
 426  16911.24
 427  37475.91
 428  40651.21
 429  31230.65
 430  22786.95
 431  6397.518
 432  -2721.642
 433  -4220.708
 434  -5883.603
 435  -6287.349
 436  -5589.995
 437  -4405.863
 438  -7005.934
 439  -1202.422
 440  8147.125
 441  33335.67
 442  32541.01
 443  30841.87
 444  32338.8
 445  4231.444
 446  -2737.171
 447  26532.21
 448  54599.61
 449  67814.07
 450  78728.35
 451  40355.24
 452  14235.23
 453  -8403.953
 454  -2114.427
 455  -3887.276
 456  -1895.855
 457  3833.625
 458  4434.386
 459  1105.964
 460  2292.175
 461  327.3576
 462  -6389.101
 463  -1519.831
 464  725.446
 465  3818.829
 466  2281.47
 467  -63.28465
 468  -1953.222
 469  -6555.792
 470  -7036.226
 471  -5806.752
 472  -6561.839
 473  -6351.3
 474  -5986.007
 475  -6571.42
 476  -6738.202
 477  -6757.6
 478  -6545.691
 479  -5769.861
 480  -5627.111
 481  -6023.479
 482  -6018.633
 483  -6338.215
 484  -6381.992
 485  -6177.543
 486  -5996.561
 487  -5388.471
 488  -4986.422
 489  -5372.914
 490  -5661.872
 491  -5430.474
 492  -6086.697
 493  -5795.385
 494  -5367.829
 495  -4714.438
 496  -4981.938
 497  -5838.071
 498  -6134.295
 499  -5149.794
 500  -5113.817
 501  -5733.756
 502  -5194.361
 503  -5751.822
 504  -6741.63
 505  8522.974
 506  10611.61
 507  11494.55
 508  11420.34
 509  4653.783
 510  138.1885
 511  -3032.207
