# Input file       =  1200859475.122465_cleaned.dat
# Candidate        =  PSR_0332+5434
# Telescope        =  AR
# Epoch_topo       =  58142.836737528531
# Epoch_bary       =  N/A
# T_sample         =  0.002
# Data Folded      =  7340032
# Data Avg         =  0.0187300835456958
# Data StdDev      =  1.00004054491284 
# Profile Bins     =  512
# Profile Avg      =  268.423600919585 
# Profile StdDev   =  119.73789094229  
# Reduced chi-sqr  =  1.032
# Prob(Noise)      <  0.301   (~0.5 sigma)
# P_topo (ms)      =  714.572898998238  +/- 0.000216
# P'_topo (s/s)    =  -0                +/- 1.14e-10
# P''_topo (s/s^2) =  0                 +/- 5.04e-14
# P_bary (ms)      =  N/A
# P'_bary (s/s)    =  N/A
# P''_bary (s/s^2) =  N/A
# P_orb (s)        =  N/A
# asin(i)/c (s)    =  N/A
# eccentricity     =  N/A
# w (rad)          =  N/A
# T_peri           =  N/A
######################################################
   0  682.9782
   1  717.4703
   2  654.6655
   3  447.5533
   4  277.4309
   5  146.3348
   6  265.9205
   7  272.4033
   8  352.9854
   9  468.0237
  10  359.2359
  11  487.332
  12  332.5972
  13  207.5436
  14  275.548
  15  328.5091
  16  344.1077
  17  138.33
  18  262.2895
  19  363.7679
  20  377.4844
  21  301.8568
  22  149.5005
  23  159.3308
  24  199.3136
  25  301.0391
  26  312.9456
  27  300.5322
  28  411.8781
  29  477.3824
  30  484.2301
  31  350.9528
  32  207.7136
  33  48.60058
  34  211.8454
  35  304.574
  36  294.4641
  37  282.9179
  38  271.6106
  39  320.2286
  40  360.179
  41  316.086
  42  271.5645
  43  227.381
  44  275.9442
  45  366.8448
  46  311.2314
  47  292.4955
  48  369.3378
  49  326.4141
  50  217.3911
  51  207.1301
  52  261.891
  53  238.4813
  54  205.6585
  55  286.9493
  56  338.9113
  57  306.5725
  58  344.6634
  59  407.8002
  60  332.9072
  61  201.4789
  62  171.7489
  63  230.0892
  64  255.8753
  65  299.062
  66  161.5228
  67  260.6153
  68  262.5614
  69  333.0223
  70  290.3303
  71  116.3298
  72  181.1361
  73  264.493
  74  332.8415
  75  214.7677
  76  262.2604
  77  262.2862
  78  226.7635
  79  156.5979
  80  255.7262
  81  263.2002
  82  356.173
  83  402.0484
  84  319.4469
  85  205.3994
  86  240.7323
  87  202.4876
  88  260.5862
  89  201.5897
  90  271.821
  91  358.4374
  92  417.3097
  93  481.8715
  94  422.3898
  95  336.3148
  96  295.4026
  97  258.9048
  98  214.9909
  99  198.9168
 100  264.4989
 101  383.7006
 102  355.089
 103  222.3975
 104  87.37299
 105  138.9826
 106  200.1859
 107  256.6838
 108  304.1112
 109  280.5324
 110  286.2052
 111  77.69106
 112  239.1271
 113  318.1381
 114  254.5334
 115  183.5008
 116  166.9336
 117  154.474
 118  177.6713
 119  194.5586
 120  192.7708
 121  228.0975
 122  143.3504
 123  161.4526
 124  212.8715
 125  239.7237
 126  298.6456
 127  349.045
 128  279.7998
 129  209.874
 130  105.1621
 131  211.1452
 132  264.2827
 133  337.6367
 134  396.6294
 135  294.2555
 136  235.5384
 137  277.5022
 138  311.5679
 139  286.9608
 140  245.0562
 141  199.6139
 142  167.1092
 143  202.956
 144  238.2044
 145  277.0537
 146  290.049
 147  298.2094
 148  276.8833
 149  226.0845
 150  277.9162
 151  319.8353
 152  298.5007
 153  273.7901
 154  242.8994
 155  238.9516
 156  283.9428
 157  208.666
 158  171.3296
 159  196.282
 160  244.8851
 161  274.5375
 162  292.429
 163  184.8698
 164  184.0409
 165  251.2912
 166  258.2629
 167  153.1012
 168  148.989
 169  236.0259
 170  163.6249
 171  268.267
 172  355.6177
 173  258.0505
 174  183.3793
 175  267.6343
 176  389.0273
 177  217.5135
 178  227.4942
 179  275.2333
 180  172.3999
 181  139.4771
 182  200.6329
 183  215.1537
 184  129.5046
 185  245.2382
 186  359.0267
 187  260.8977
 188  218.4636
 189  301.8676
 190  193.573
 191  164.2226
 192  1.822461
 193  199.7458
 194  337.9199
 195  176.3471
 196  302.7448
 197  342.4701
 198  375.3015
 199  276.4258
 200  159.8348
 201  223.0083
 202  280.9734
 203  238.803
 204  243.1957
 205  246.394
 206  319.6302
 207  283.5776
 208  156.7669
 209  209.4956
 210  268.0221
 211  227.5117
 212  219.3378
 213  268.3467
 214  275.1186
 215  269.0233
 216  261.8839
 217  329.5817
 218  271.9082
 219  272.2715
 220  243.9564
 221  326.2406
 222  246.021
 223  328.6381
 224  219.1426
 225  225.9055
 226  171.3218
 227  177.0846
 228  262.3904
 229  262.1097
 230  292.4232
 231  222.972
 232  212.3347
 233  237.1827
 234  223.2767
 235  170.0787
 236  384.1252
 237  357.3786
 238  310.5665
 239  272.8296
 240  211.2514
 241  273.6629
 242  261.4261
 243  184.1713
 244  244.2426
 245  269.2891
 246  299.9392
 247  301.145
 248  251.9819
 249  242.5005
 250  243.7068
 251  258.1349
 252  189.4431
 253  272.114
 254  336.5447
 255  337.9744
 256  302.4489
 257  334.0033
 258  215.1327
 259  269.8387
 260  304.2285
 261  339.7179
 262  336.8657
 263  285.0624
 264  309.5175
 265  216.7869
 266  236.5885
 267  215.0113
 268  250.8273
 269  306.1362
 270  259.0682
 271  258.4834
 272  317.8524
 273  323.9659
 274  233.1967
 275  241.4278
 276  318.6299
 277  263.8644
 278  257.2121
 279  336.0912
 280  286.3953
 281  246.1166
 282  229.0049
 283  186.9793
 284  227.4378
 285  292.5775
 286  365.3586
 287  309.7139
 288  310.8092
 289  311.6701
 290  418.8003
 291  344.3186
 292  248.9559
 293  148.8869
 294  232.0038
 295  262.7543
 296  183.983
 297  172.6667
 298  327.0926
 299  421.177
 300  386.5202
 301  409.2399
 302  308.2628
 303  195.6521
 304  132.1189
 305  203.5957
 306  177.9789
 307  360.812
 308  152.7671
 309  182.3389
 310  222.0963
 311  168.7048
 312  223.0082
 313  276.71
 314  238.8409
 315  176.9841
 316  286.7292
 317  399.9925
 318  292.2184
 319  227.8674
 320  172.9957
 321  168.5941
 322  239.5007
 323  323.7362
 324  293.4435
 325  165.3683
 326  245.311
 327  322.4738
 328  330.3829
 329  333.5782
 330  262.6583
 331  211.1954
 332  90.49913
 333  40.73317
 334  126.6947
 335  143.4093
 336  185.2958
 337  178.9956
 338  222.8523
 339  308.9633
 340  269.8596
 341  291.9556
 342  348.9948
 343  302.197
 344  182.8263
 345  345.6878
 346  300.6375
 347  244.4223
 348  425.9455
 349  447.6401
 350  347.0614
 351  283.1661
 352  320.3867
 353  391.1476
 354  305.4356
 355  214.8541
 356  329.4871
 357  345.0413
 358  310.1349
 359  282.1858
 360  366.8613
 361  342.548
 362  233.2468
 363  350.5467
 364  259.4448
 365  216.7274
 366  302.4064
 367  286.2626
 368  214.3263
 369  108.6693
 370  162.1485
 371  136.0813
 372  221.6819
 373  305.0642
 374  271.2302
 375  179.9572
 376  325.1184
 377  264.8512
 378  322.8156
 379  245.3157
 380  285.8986
 381  319.137
 382  285.1828
 383  329.9317
 384  232.9763
 385  332.66
 386  244.9607
 387  229.957
 388  392.7702
 389  355.2207
 390  344.8194
 391  297.3451
 392  154.7449
 393  224.4999
 394  191.6567
 395  313.9451
 396  266.4247
 397  104.9584
 398  147.088
 399  183.9646
 400  289.9591
 401  269.0629
 402  192.6752
 403  249.9444
 404  289.9393
 405  370.7278
 406  341.2834
 407  264.0375
 408  289.6728
 409  375.6993
 410  230.8182
 411  159.3462
 412  207.8132
 413  245.7051
 414  264.1227
 415  259.3569
 416  233.6052
 417  277.6618
 418  184.1896
 419  183.7387
 420  161.8444
 421  229.8905
 422  299.6031
 423  317.2014
 424  338.3992
 425  411.2769
 426  246.7267
 427  221.345
 428  297.4292
 429  406.1031
 430  306.7316
 431  189.3004
 432  283.8443
 433  269.8949
 434  259.3956
 435  224.6087
 436  259.4634
 437  259.8091
 438  265.0173
 439  259.5847
 440  187.2482
 441  124.6855
 442  256.4122
 443  234.5279
 444  259.9184
 445  305.6793
 446  284.3376
 447  260.1133
 448  210.481
 449  231.3026
 450  198.7538
 451  155.4271
 452  244.1524
 453  187.5727
 454  206.8353
 455  115.4287
 456  103.0682
 457  162.529
 458  251.5527
 459  194.6626
 460  233.1299
 461  273.313
 462  345.4843
 463  311.2368
 464  247.9863
 465  176.7202
 466  238.7422
 467  131.7404
 468  99.41864
 469  78.88566
 470  170.1862
 471  273.0047
 472  319.3812
 473  249.2604
 474  236.5266
 475  399.9874
 476  360.7117
 477  183.7484
 478  295.5502
 479  242.6037
 480  240.2964
 481  314.0301
 482  346.9038
 483  279.0532
 484  280.1874
 485  338.0964
 486  274.7989
 487  215.1639
 488  214.9659
 489  254.5642
 490  242.3398
 491  307.6039
 492  374.9754
 493  351.2644
 494  375.085
 495  416.6903
 496  416.9164
 497  432.1003
 498  340.2398
 499  253.3175
 500  279.9668
 501  336.2773
 502  234.4493
 503  278.3161
 504  304.2118
 505  450.6057
 506  401.8018
 507  236.0401
 508  395.0792
 509  530.778
 510  722.1313
 511  796.6774
