# Input file       =  1200154712.110376_cleaned.dat
# Candidate        =  PSR_0332+5434
# Telescope        =  AR
# Epoch_topo       =  58134.679758221944
# Epoch_bary       =  N/A
# T_sample         =  0.002
# Data Folded      =  7340032
# Data Avg         =  0.0243573893945749
# Data StdDev      =  1.0000445421674  
# Profile Bins     =  512
# Profile Avg      =  349.368284521751 
# Profile StdDev   =  119.738369545716 
# Reduced chi-sqr  =  1.551
# Prob(Noise)      <  1.6e-14   (~7.6 sigma)
# P_topo (ms)      =  714.567704272185  +/- 0.000359
# P'_topo (s/s)    =  -0                +/- 1.89e-10
# P''_topo (s/s^2) =  0                 +/- 8.36e-14
# P_bary (ms)      =  N/A
# P'_bary (s/s)    =  N/A
# P''_bary (s/s^2) =  N/A
# P_orb (s)        =  N/A
# asin(i)/c (s)    =  N/A
# eccentricity     =  N/A
# w (rad)          =  N/A
# T_peri           =  N/A
######################################################
   0  1048.93
   1  978.5074
   2  791.1278
   3  593.8063
   4  519.7723
   5  535.4261
   6  509.0244
   7  495.2973
   8  478.3664
   9  386.465
  10  367.0254
  11  491.614
  12  535.9907
  13  364.2572
  14  413.3497
  15  458.9804
  16  302.128
  17  333.3023
  18  331.1397
  19  396.5743
  20  423.7733
  21  319.3817
  22  351.116
  23  318.3458
  24  262.6829
  25  289.9763
  26  290.3908
  27  272.3111
  28  336.2491
  29  336.4124
  30  380.6805
  31  328.3743
  32  187.7011
  33  263.4999
  34  285.1826
  35  279.2973
  36  261.6437
  37  272.4983
  38  347.4829
  39  286.4494
  40  376.7966
  41  380.9236
  42  281.1246
  43  334.7434
  44  405.7949
  45  328.9833
  46  244.9234
  47  249.1388
  48  321.7222
  49  307.9527
  50  231.6166
  51  271.8865
  52  227.759
  53  233.7453
  54  155.4185
  55  188.4725
  56  261.4397
  57  253.1212
  58  346.5158
  59  379.883
  60  355.3934
  61  217.6596
  62  273.378
  63  370.7926
  64  297.6771
  65  250.0821
  66  213.7359
  67  278.284
  68  319.9173
  69  377.5202
  70  262.9547
  71  283.9651
  72  333.7814
  73  318.3492
  74  251.1567
  75  291.6179
  76  356.5533
  77  352.5647
  78  293.5597
  79  293.0128
  80  284.1109
  81  336.2005
  82  340.3329
  83  349.7938
  84  278.6245
  85  307.0868
  86  233.5477
  87  204.8457
  88  189.0679
  89  382.1413
  90  405.6245
  91  406.7278
  92  474.1292
  93  462.2719
  94  406.2519
  95  358.7742
  96  275.5413
  97  242.1097
  98  369.6461
  99  496.5562
 100  330.0895
 101  154.353
 102  333.37
 103  416.0089
 104  358.0438
 105  366.8858
 106  385.1898
 107  432.8576
 108  403.0133
 109  439.387
 110  371.5824
 111  372.4861
 112  409.2874
 113  331.6421
 114  222.6815
 115  242.0922
 116  317.8724
 117  375.4326
 118  282.6031
 119  328.0266
 120  173.7119
 121  65.62395
 122  80.50302
 123  101.6919
 124  232.2919
 125  271.5601
 126  273.0674
 127  357.1227
 128  329.7966
 129  271.3409
 130  387.223
 131  335.4295
 132  223.5893
 133  289.0388
 134  339.5781
 135  365.1896
 136  284.3607
 137  290.7388
 138  413.3477
 139  364.8122
 140  238.1072
 141  323.5358
 142  467.3057
 143  456.1853
 144  484.6045
 145  537.4879
 146  550.7205
 147  366.1365
 148  328.2307
 149  372.3184
 150  403.7916
 151  393.5022
 152  436.1866
 153  409.4923
 154  364.8972
 155  348.1184
 156  293.6503
 157  287.044
 158  282.7517
 159  335.4103
 160  386.3008
 161  364.1777
 162  307.703
 163  231.8235
 164  252.921
 165  274.6801
 166  328.7907
 167  347.9237
 168  343.1483
 169  218.0874
 170  222.4361
 171  178.3747
 172  188.9687
 173  366.6215
 174  391.5405
 175  357.2556
 176  287.0708
 177  432.1831
 178  381.149
 179  368.882
 180  244.4407
 181  207.6923
 182  278.3158
 183  267.7369
 184  334.0871
 185  377.3595
 186  306.8098
 187  293.9512
 188  194.6485
 189  347.1055
 190  331.0181
 191  324.4478
 192  273.7264
 193  246.5404
 194  328.2429
 195  303.126
 196  367.4908
 197  352.6065
 198  303.6721
 199  222.111
 200  251.3484
 201  185.7062
 202  311.0331
 203  380.4884
 204  403.1057
 205  371.5099
 206  410.4575
 207  432.9444
 208  395.2407
 209  309.402
 210  281.4371
 211  213.9319
 212  293.0648
 213  285.0866
 214  344.2649
 215  359.6068
 216  293.2624
 217  246.4338
 218  210.4185
 219  255.3592
 220  316.404
 221  401.2994
 222  436.2698
 223  419.2656
 224  409.0537
 225  432.0529
 226  372.0151
 227  306.9354
 228  253.317
 229  257.9704
 230  235.4591
 231  289.748
 232  313.8406
 233  371.0503
 234  390.5516
 235  291.5546
 236  235.8461
 237  315.6902
 238  244.4419
 239  229.2823
 240  194.3635
 241  376.3582
 242  375.8197
 243  314.4876
 244  343.4188
 245  328.8118
 246  361.4675
 247  399.5182
 248  326.7268
 249  352.9484
 250  385.39
 251  338.7708
 252  367.1824
 253  328.7185
 254  423.1961
 255  548.2169
 256  430.9981
 257  259.7853
 258  283.6144
 259  507.91
 260  452.9052
 261  282.8455
 262  297.4745
 263  328.2631
 264  293.6888
 265  316.9495
 266  228.6806
 267  166.4094
 268  274.774
 269  290.5924
 270  261.6865
 271  200.1844
 272  309.5834
 273  352.6105
 274  195.9932
 275  276.2796
 276  344.4723
 277  366.9273
 278  330.8318
 279  211.1271
 280  216.0586
 281  355.3129
 282  422.8986
 283  253.7961
 284  352.4553
 285  397.5763
 286  235.1124
 287  147.8114
 288  214.9611
 289  361.9321
 290  275.5628
 291  312.9637
 292  353.9185
 293  352.5214
 294  376.5722
 295  270.4534
 296  256.8946
 297  373.9602
 298  409.2114
 299  467.9629
 300  410.6846
 301  418.643
 302  384.0401
 303  428.3652
 304  357.712
 305  400.4724
 306  551.6462
 307  433.2076
 308  334.0348
 309  288.5027
 310  331.9769
 311  321.3369
 312  368.7347
 313  324.515
 314  325.1732
 315  396.0869
 316  340.1258
 317  219.2088
 318  219.5589
 319  273.9114
 320  374.8819
 321  351.6122
 322  274.6471
 323  284.4071
 324  306.5592
 325  323.0626
 326  473.615
 327  531.2587
 328  477.229
 329  336.5565
 330  303.5908
 331  418.3834
 332  357.9269
 333  337.2173
 334  342.9344
 335  362.0988
 336  402.4295
 337  421.4136
 338  512.7686
 339  388.8982
 340  346.6353
 341  371.0843
 342  231.0698
 343  346.0922
 344  446.8166
 345  428.9205
 346  290.2233
 347  308.473
 348  332.1656
 349  260.1575
 350  282.1882
 351  344.5961
 352  370.9263
 353  523.1248
 354  473.6697
 355  491.0298
 356  519.7003
 357  517.7402
 358  566.1998
 359  489.9892
 360  487.2137
 361  486.4832
 362  411.3529
 363  373.2805
 364  359.1916
 365  376.8428
 366  514.5959
 367  517.8334
 368  510.6302
 369  482.0206
 370  502.3782
 371  512.9962
 372  545.6185
 373  475.9775
 374  498.2409
 375  463.9813
 376  344.942
 377  456.26
 378  437.4072
 379  459.4743
 380  440.8625
 381  414.2451
 382  466.5181
 383  421.9167
 384  352.6994
 385  416.393
 386  456.6267
 387  482.3596
 388  383.3427
 389  365.5987
 390  490.5901
 391  513.3546
 392  403.7728
 393  318.8438
 394  337.5794
 395  401.6624
 396  296.3701
 397  312.0289
 398  287.7387
 399  339.2933
 400  322.2609
 401  511.3358
 402  518.1573
 403  423.341
 404  373.4475
 405  386.2406
 406  315.5847
 407  335.4382
 408  423.2887
 409  439.7629
 410  392.6679
 411  304.8124
 412  343.1127
 413  248.9827
 414  274.8272
 415  303.9063
 416  345.0528
 417  305.5765
 418  262.8804
 419  327.5841
 420  373.8863
 421  480.4137
 422  516.1428
 423  504.36
 424  420.4715
 425  370.4235
 426  281.0164
 427  287.3674
 428  347.7025
 429  301.648
 430  349.3818
 431  441.5758
 432  365.7776
 433  253.552
 434  332.4304
 435  355.3879
 436  398.1488
 437  339.7511
 438  316.166
 439  258.0509
 440  365.1059
 441  297.459
 442  213.5925
 443  217.3786
 444  235.6024
 445  310.2877
 446  329.1533
 447  227.6047
 448  264.1169
 449  276.3712
 450  434.5911
 451  458.3894
 452  406.4202
 453  343.1095
 454  315.2432
 455  239.7577
 456  258.3219
 457  268.7821
 458  384.6681
 459  391.6241
 460  349.7069
 461  376.0107
 462  354.0422
 463  316.3175
 464  365.7666
 465  427.9516
 466  318.2006
 467  336.8048
 468  401.3318
 469  291.5688
 470  243.0428
 471  245.2138
 472  303.0934
 473  305.121
 474  330.3495
 475  229.2474
 476  240.0921
 477  339.5211
 478  386.1993
 479  369.96
 480  373.9372
 481  266.0128
 482  249.7865
 483  275.6782
 484  315.4095
 485  361.1467
 486  439.506
 487  357.1806
 488  389.3947
 489  289.0228
 490  192.7586
 491  279.1583
 492  280.5871
 493  246.3231
 494  269.3343
 495  361.5159
 496  346.3018
 497  346.71
 498  260.7021
 499  233.3496
 500  203.2698
 501  302.0022
 502  264.0808
 503  368.859
 504  422.5463
 505  431.4483
 506  437.9982
 507  486.8706
 508  689.9358
 509  844.2834
 510  923.2709
 511  1046.925
