# Input file       =  1200255831.105539_cleaned.dat
# Candidate        =  PSR_0332+5434
# Telescope        =  AR
# Epoch_topo       =  58135.850116962261
# Epoch_bary       =  N/A
# T_sample         =  0.002
# Data Folded      =  7340032
# Data Avg         =  0.0677748091703895
# Data StdDev      =  3.69063940908687 
# Profile Bins     =  256
# Profile Avg      =  1943.03174325023 
# Profile StdDev   =  624.928899536528 
# Reduced chi-sqr  =  0.960
# Prob(Noise)      <  0.666   (~0.0 sigma)
# P_topo (ms)      =  714.568802867453  +/- 0.00041
# P'_topo (s/s)    =  -0                +/- 2.16e-10
# P''_topo (s/s^2) =  0                 +/- 9.55e-14
# P_bary (ms)      =  N/A
# P'_bary (s/s)    =  N/A
# P''_bary (s/s^2) =  N/A
# P_orb (s)        =  N/A
# asin(i)/c (s)    =  N/A
# eccentricity     =  N/A
# w (rad)          =  N/A
# T_peri           =  N/A
######################################################
   0  2240.519
   1  2581.096
   2  2423.944
   3  2289.025
   4  2622.885
   5  1977.49
   6  1689.951
   7  1843.697
   8  1972.893
   9  1988.175
  10  2367.902
  11  2632.092
  12  2714.991
  13  1614.437
  14  2137.626
  15  2179.396
  16  1907.572
  17  1278.118
  18  2247.429
  19  1762.693
  20  2402.422
  21  2020.79
  22  2210.083
  23  2258.466
  24  2206.055
  25  2016.95
  26  1364.814
  27  1465.998
  28  1489.568
  29  2329.13
  30  1569.977
  31  1782.382
  32  1779.542
  33  2244.235
  34  2316.534
  35  1719.458
  36  1469.86
  37  2066.092
  38  1473.165
  39  1298.302
  40  1774.858
  41  1964.977
  42  1302.671
  43  737.8182
  44  1806.662
  45  2218.751
  46  2076.133
  47  1116.871
  48  757.3699
  49  2185.721
  50  2203.52
  51  1558.228
  52  1840.2
  53  1875.375
  54  1612.448
  55  1377.635
  56  1432.361
  57  1621.438
  58  1793.825
  59  1800.337
  60  1645.913
  61  1987.211
  62  1467.81
  63  1456.704
  64  1957.827
  65  1645.727
  66  1887.778
  67  1480.621
  68  1295.573
  69  1962.011
  70  1992.181
  71  2555.048
  72  1915.085
  73  1235.587
  74  1915.028
  75  1834.572
  76  2265.16
  77  2493.23
  78  2223.633
  79  2534.289
  80  2207.281
  81  2405.243
  82  1979.773
  83  1254.938
  84  894.302
  85  1209.307
  86  1679.715
  87  1393.488
  88  2071.533
  89  2267.56
  90  1618.503
  91  1152.707
  92  1499.298
  93  1686.148
  94  1523.889
  95  1549.287
  96  1626.608
  97  1574.643
  98  1728.359
  99  1578.312
 100  1654.587
 101  1393.506
 102  1590.415
 103  1293.615
 104  1537.582
 105  1274.466
 106  2279.031
 107  2550.758
 108  1541.962
 109  2052.347
 110  1728.578
 111  2150.494
 112  1599.394
 113  2087.265
 114  2117.075
 115  1799.059
 116  862.7772
 117  584.9112
 118  1434.515
 119  1633.553
 120  1573.606
 121  1760.596
 122  2068.114
 123  2400.124
 124  2199.583
 125  1681.815
 126  1401.788
 127  2021.238
 128  2083.868
 129  1936.798
 130  2125.894
 131  2129.556
 132  1389.59
 133  2227.471
 134  1654.001
 135  1773.842
 136  1608.781
 137  2760.557
 138  1911.493
 139  1947.075
 140  2658.201
 141  2247.806
 142  1858.973
 143  1989.536
 144  2158.339
 145  2429.152
 146  2432.272
 147  1633.587
 148  2139.688
 149  1936.947
 150  2471.021
 151  2960.261
 152  2959.847
 153  3778.004
 154  5502.639
 155  3317.498
 156  2972.43
 157  2239.73
 158  2264.573
 159  1739.815
 160  2651.57
 161  3181.85
 162  2494.271
 163  2178.819
 164  1979.318
 165  1864.103
 166  1668.077
 167  1519.611
 168  2628.312
 169  2001.984
 170  2066.118
 171  1650.327
 172  2387.1
 173  1819.001
 174  1588.938
 175  2036.111
 176  1754.436
 177  1507.833
 178  2120.759
 179  2875.472
 180  2384.499
 181  1653.536
 182  1629.42
 183  1924.909
 184  2169.235
 185  2073.475
 186  1320.576
 187  1793.392
 188  2324.746
 189  2237.508
 190  1165.427
 191  1592.051
 192  1723.311
 193  1342.505
 194  1402.171
 195  1465.022
 196  2525.393
 197  1657.561
 198  1348.269
 199  2046.212
 200  1570.801
 201  2120.394
 202  1312.93
 203  1893.631
 204  1789.252
 205  1866.302
 206  1832.168
 207  1034.469
 208  1545.749
 209  1223.755
 210  1486.582
 211  1445.218
 212  1716.87
 213  1843.112
 214  1915.42
 215  1735.742
 216  2386.661
 217  2907.28
 218  1903.733
 219  1844.433
 220  1572.182
 221  2160.741
 222  1923.164
 223  2769.262
 224  2713.912
 225  2156.257
 226  2390.999
 227  1717.461
 228  1961.952
 229  2675.714
 230  2400.319
 231  2522.128
 232  1870.726
 233  2173.03
 234  1123.791
 235  1262.138
 236  1301.783
 237  2316.075
 238  2052.414
 239  2602.655
 240  2848.111
 241  1429.356
 242  3216.301
 243  2536.696
 244  2517.956
 245  1907.985
 246  2520.438
 247  2210.846
 248  2463.902
 249  2738.184
 250  2320.969
 251  1590.832
 252  1686.138
 253  1757.196
 254  1982.903
 255  1717.046
