# Input file       =  1200570921.112577-PSRB0329-2ms-sampling-dd.dat
# Candidate        =  PSR_0332+5434
# Telescope        =  AR
# Epoch_topo       =  58139.496992043714
# Epoch_bary       =  N/A
# T_sample         =  0.002
# Data Folded      =  7208960
# Data Avg         =  -2.20788563621881e-09
# Data StdDev      =  409.614365838645 
# Profile Bins     =  512
# Profile Avg      =  0.0212151161483505
# Profile StdDev   =  48604.5030436034 
# Reduced chi-sqr  =  1.254
# Prob(Noise)      <  8.01e-05   (~3.8 sigma)
# P_topo (ms)      =  714.570683817444  +/- 0.00015
# P'_topo (s/s)    =  -0                +/- 8.04e-11
# P''_topo (s/s^2) =  0                 +/- 3.62e-14
# P_bary (ms)      =  N/A
# P'_bary (s/s)    =  N/A
# P''_bary (s/s^2) =  N/A
# P_orb (s)        =  N/A
# asin(i)/c (s)    =  N/A
# eccentricity     =  N/A
# w (rad)          =  N/A
# T_peri           =  N/A
######################################################
   0  -26592.08
   1  -27151.28
   2  -31263.2
   3  -37428.95
   4  -39172.7
   5  -38854.71
   6  -39925.65
   7  -41267.5
   8  -41802.68
   9  -41862.16
  10  -41213.11
  11  -41931.54
  12  -40149.35
  13  -39967.04
  14  -42090.99
  15  -29163.71
  16  -15326.32
  17  -3037.427
  18  11426.15
  19  20817.74
  20  14326.75
  21  -9848.316
  22  -1354.765
  23  -7055.076
  24  4945.213
  25  73873.81
  26  131653.5
  27  132563.1
  28  112431.2
  29  51944.83
  30  -125.8548
  31  -28792.07
  32  48506.55
  33  95378.23
  34  125861.6
  35  130223.5
  36  103407.2
  37  65649.15
  38  4664.193
  39  13934.93
  40  16825.68
  41  50612.31
  42  49460.77
  43  38535.49
  44  42672.22
  45  -4006.848
  46  -12985.61
  47  9189.867
  48  17803.23
  49  37453.61
  50  68062.59
  51  83728.68
  52  92469.34
  53  45905.7
  54  52690.42
  55  65086.48
  56  44606.52
  57  87412.04
  58  109786.7
  59  87509.16
  60  58505.17
  61  39979.98
  62  16755.79
  63  -4305.157
  64  -6199.248
  65  -7328.666
  66  -42415.99
  67  -35540.2
  68  -27665.09
  69  -11521.54
  70  -15921.86
  71  -19505.15
  72  -25538.34
  73  -40890.43
  74  -43227.24
  75  -44130.11
  76  -44342.45
  77  -43149.62
  78  -42981.47
  79  -38776.42
  80  -35880.4
  81  -32047.63
  82  -30091.05
  83  -31047.62
  84  -32702.44
  85  -38995.93
  86  -37096.01
  87  -31275.01
  88  -20650.26
  89  -16170.05
  90  -10993.22
  91  -10816.99
  92  -14881
  93  -23100.09
  94  -20427.79
  95  -19711.1
  96  -26018.51
  97  -12744.96
  98  -10539.88
  99  -9763.902
 100  -24418.18
 101  -24840.29
 102  -27314.78
 103  -31962.23
 104  -15442.02
 105  636.7288
 106  -4285.933
 107  -4127.595
 108  -7958.634
 109  -34888.73
 110  -26885.27
 111  -14219.86
 112  9323.567
 113  9260.425
 114  4614.396
 115  -4865.811
 116  -41966.06
 117  -41659.92
 118  -37987.6
 119  -30115.05
 120  9232.489
 121  23240.89
 122  32006.23
 123  23144.89
 124  -2118.76
 125  -27865.03
 126  -12916.61
 127  18600.51
 128  39362.15
 129  37145.26
 130  20528
 131  -2116.665
 132  -36522.24
 133  -16916.17
 134  -9312.247
 135  -831.7042
 136  443.8881
 137  -6502.245
 138  -12985.19
 139  -26575.61
 140  -11861.82
 141  -7136.434
 142  -10680.73
 143  -8330.304
 144  -12667.33
 145  -20906.1
 146  -31975.83
 147  -30288.92
 148  -25081.2
 149  11441.91
 150  18626.86
 151  20263.72
 152  13269.85
 153  -16697.48
 154  -36269.1
 155  -11713.23
 156  22046.37
 157  35114.74
 158  37740.24
 159  21766.86
 160  -2025.029
 161  -29063.6
 162  -29290.44
 163  -30730.7
 164  -13978.03
 165  17199.2
 166  65857.43
 167  58719.45
 168  43902.01
 169  26711.18
 170  -22862.25
 171  -4816.144
 172  17409.79
 173  56265.87
 174  48300.61
 175  33930.4
 176  6362.998
 177  -26229.37
 178  -39189.09
 179  -37693.04
 180  -40382.21
 181  -40213.89
 182  -40229.62
 183  -39848.88
 184  -38142.01
 185  -39801.45
 186  -35036.27
 187  -18559.79
 188  -9706.277
 189  -5510.786
 190  -3548.871
 191  -6443.552
 192  -20475.86
 193  -21891.62
 194  2825.884
 195  2804.123
 196  7600.912
 197  16793.08
 198  -6154.686
 199  -15943.57
 200  -22441.41
 201  -31113.54
 202  -36294.22
 203  -39142.54
 204  -29263.4
 205  -16390.09
 206  -7751.682
 207  -6551.958
 208  -10911.53
 209  -20363.67
 210  -37573.15
 211  -10909.62
 212  9012.729
 213  29121.12
 214  25102.71
 215  11092.99
 216  -3885.774
 217  -37454.03
 218  -12083.62
 219  12735.28
 220  28320.86
 221  39086.59
 222  41236.11
 223  33647.33
 224  14409.84
 225  8229.71
 226  15034.85
 227  12441.26
 228  30897.5
 229  83445.96
 230  105292.8
 231  86777.62
 232  68803.23
 233  28641.92
 234  -22220.62
 235  -5366.574
 236  29456.56
 237  70081.94
 238  84775.27
 239  62098.1
 240  41923.2
 241  13562.01
 242  6357.093
 243  31043.09
 244  50149.57
 245  91070.47
 246  68929.93
 247  44917.47
 248  27026.61
 249  -12883.04
 250  -18286.58
 251  -16414.58
 252  -17483.84
 253  -16418.28
 254  -19136.05
 255  -24860.43
 256  -21203.39
 257  -23942.04
 258  -23246.13
 259  -26586.05
 260  -28623.22
 261  -26669.75
 262  -25649.89
 263  -22020.12
 264  -12977.46
 265  -19310.75
 266  -24233.45
 267  -21798.61
 268  -28909.58
 269  -24856.4
 270  -12510.54
 271  -11345.21
 272  -7926.555
 273  9146.944
 274  5302.472
 275  7015.636
 276  9223.595
 277  -2295.55
 278  -10050.18
 279  -12222.21
 280  13705.96
 281  9993.17
 282  9873.671
 283  -98.63195
 284  -11071.97
 285  -10440.06
 286  -9119.434
 287  -1173.429
 288  -1694.683
 289  -2261.718
 290  5444.578
 291  10786.21
 292  22550.72
 293  17965.76
 294  9375.558
 295  19260.96
 296  7900.055
 297  21465.44
 298  11264.09
 299  -3213.694
 300  -11334.01
 301  -39174.23
 302  -34278.68
 303  -33926.71
 304  -27013.39
 305  -10520.6
 306  19721
 307  45946.98
 308  60458.14
 309  46531.41
 310  20812.75
 311  5461.245
 312  -4040.85
 313  48281.91
 314  119406.9
 315  169454
 316  163192.5
 317  165111.6
 318  127668.4
 319  90985.05
 320  89139.49
 321  128126.3
 322  123736.6
 323  147536.3
 324  128975.2
 325  108633.3
 326  80387.95
 327  61416.36
 328  62621.65
 329  57033.68
 330  54928.45
 331  15132.8
 332  7311.164
 333  -8766.841
 334  -21687.69
 335  -7977.579
 336  17886.39
 337  26686.88
 338  17703.54
 339  15839.73
 340  1219.709
 341  -3431.155
 342  -4303.888
 343  -7622.615
 344  -3997.63
 345  -19707.4
 346  -12294
 347  3984.119
 348  22958.15
 349  39533.5
 350  33622.01
 351  19072.76
 352  -9398.597
 353  -36092.97
 354  -31475.31
 355  -23062.83
 356  -14842.27
 357  -15473.3
 358  -17500.49
 359  -26837.77
 360  -36547.06
 361  -39184.15
 362  -41103.57
 363  -42264.48
 364  -38568.26
 365  -39394.2
 366  -37747.21
 367  -35500.57
 368  -36375.44
 369  -3855.665
 370  5288.544
 371  15551.24
 372  10971.08
 373  -5672.622
 374  -20784.32
 375  -28373.28
 376  13959.86
 377  41643.05
 378  43702.91
 379  39342.06
 380  12611.09
 381  -27716.24
 382  -35797.09
 383  -17154.14
 384  2687.994
 385  58543.66
 386  60055.23
 387  47846.89
 388  28338.12
 389  -21606.2
 390  -30171.55
 391  -14624.21
 392  19950
 393  24154.1
 394  22411.9
 395  2565.238
 396  -19042.53
 397  -33904.58
 398  -41905.3
 399  -40667.19
 400  -30628.87
 401  -19797.64
 402  -20762.69
 403  -22246.48
 404  -28579.07
 405  -40526.95
 406  -42817.18
 407  -39496.88
 408  -38000.39
 409  -37089.79
 410  -36731.34
 411  -39358.88
 412  -42147.43
 413  -42545.27
 414  -43415.63
 415  -42067.23
 416  -42032.68
 417  -42261.71
 418  -41845.36
 419  -41087.96
 420  -42183.8
 421  -39729.5
 422  -35917.76
 423  -21120.79
 424  -17240.48
 425  -10987.79
 426  -8304.554
 427  -19352.75
 428  -24733.94
 429  -19270.28
 430  -24380.44
 431  -19234.29
 432  -19184.5
 433  -20198.62
 434  -28949.71
 435  -28897.12
 436  -22394.48
 437  -21713.71
 438  -23193.31
 439  -24966.95
 440  -33559.88
 441  -43502.43
 442  -36004.73
 443  -29749.52
 444  -29273.83
 445  11094.55
 446  12685.39
 447  11721.15
 448  16129.45
 449  4942.878
 450  -4209.354
 451  -9053.354
 452  12364.87
 453  9989.927
 454  -3690.065
 455  7561.403
 456  -6307.796
 457  -21939.93
 458  -27279.22
 459  -31503.81
 460  -32900.91
 461  -31112.94
 462  -30202.9
 463  -31635.65
 464  -34436.89
 465  -40519.44
 466  -38853.36
 467  -34867.99
 468  -5603.765
 469  -6630.762
 470  -6371.488
 471  -3761.142
 472  -29767.79
 473  -37364.55
 474  -31125.18
 475  -4729.064
 476  -5944.756
 477  -15022.96
 478  -24766.58
 479  -35575.33
 480  -43616.85
 481  -42438.71
 482  -42813.87
 483  -41559.41
 484  -37963.96
 485  -30769.17
 486  -32144.3
 487  -31816.57
 488  -32901.81
 489  -40179.69
 490  -39144.48
 491  -24508.93
 492  -11984.9
 493  -6080.184
 494  -12575.7
 495  -16499.45
 496  -2242.159
 497  4360.565
 498  29907.04
 499  34187.82
 500  29646.96
 501  1951.731
 502  -8651.886
 503  11199.97
 504  10086.28
 505  9776.157
 506  9457.235
 507  -6569.384
 508  -19048.13
 509  -27019.89
 510  -25290.69
 511  -25751.15
