# Input file       =  1200413215.099894_cleaned.dat
# Candidate        =  PSR_0332+5434
# Telescope        =  AR
# Epoch_topo       =  58137.671690970994
# Epoch_bary       =  N/A
# T_sample         =  0.002
# Data Folded      =  7340032
# Data Avg         =  0.0220785480057801
# Data StdDev      =  0.999965999322237
# Profile Bins     =  512
# Profile Avg      =  316.614279758024 
# Profile StdDev   =  119.728965372379 
# Reduced chi-sqr  =  1.120
# Prob(Noise)      <  0.0308   (~1.9 sigma)
# P_topo (ms)      =  714.569607227826  +/- 0.000498
# P'_topo (s/s)    =  -0                +/- 2.63e-10
# P''_topo (s/s^2) =  0                 +/- 1.16e-13
# P_bary (ms)      =  N/A
# P'_bary (s/s)    =  N/A
# P''_bary (s/s^2) =  N/A
# P_orb (s)        =  N/A
# asin(i)/c (s)    =  N/A
# eccentricity     =  N/A
# w (rad)          =  N/A
# T_peri           =  N/A
######################################################
   0  884.7011
   1  766.4698
   2  543.722
   3  467.4489
   4  405.412
   5  421.3305
   6  389.4696
   7  401.5541
   8  371.0169
   9  358.7358
  10  279.276
  11  283.7912
  12  410.1292
  13  480.9821
  14  429.0075
  15  401.4177
  16  481.1304
  17  344.365
  18  270.0036
  19  398.7257
  20  534.8433
  21  455.3823
  22  306.3827
  23  321.8019
  24  375.0184
  25  281.9567
  26  190.1773
  27  301.6161
  28  347.9006
  29  335.7367
  30  391.0641
  31  281.8712
  32  345.8281
  33  340.6839
  34  368.8018
  35  385.235
  36  383.6695
  37  418.6669
  38  378.0427
  39  352.995
  40  429.6333
  41  443.076
  42  363.6544
  43  440.6443
  44  418.3241
  45  408.911
  46  386.1066
  47  299.8118
  48  333.361
  49  400.8089
  50  420.3846
  51  343.3419
  52  386.1765
  53  486.8349
  54  330.8932
  55  288.1158
  56  333.407
  57  292.1469
  58  431.1229
  59  284.6375
  60  334.3734
  61  362.2102
  62  443.3174
  63  368.7098
  64  340.6345
  65  321.3387
  66  312.6581
  67  387.5977
  68  387.985
  69  297.7182
  70  258.3694
  71  270.4676
  72  237.9445
  73  275.0777
  74  223.0847
  75  196.6775
  76  201.9005
  77  165.4633
  78  233.8403
  79  241.2053
  80  321.8502
  81  381.2182
  82  334.9921
  83  233.3772
  84  258.7446
  85  393.4719
  86  444.7998
  87  332.2695
  88  279.3148
  89  263.0205
  90  235.6732
  91  281.4092
  92  294.4175
  93  324.6022
  94  296.3803
  95  331.7801
  96  288.2859
  97  199.5933
  98  144.4059
  99  256.0996
 100  341.21
 101  341.4686
 102  220.3214
 103  180.3066
 104  159.6904
 105  283.7858
 106  261.6745
 107  292.5849
 108  330.3294
 109  159.2729
 110  220.0078
 111  353.4247
 112  390.8877
 113  338.4561
 114  305.0658
 115  271.0948
 116  333.1059
 117  418.4998
 118  286.8005
 119  320.6635
 120  292.2358
 121  319.1273
 122  202.6895
 123  200.6725
 124  306.6048
 125  177.2105
 126  236.2086
 127  303.5095
 128  270.7387
 129  268.3349
 130  308.062
 131  321.3374
 132  153.8051
 133  183.0729
 134  344.8214
 135  242.3255
 136  196.1574
 137  279.0557
 138  376.4295
 139  302.4924
 140  247.3702
 141  271.5125
 142  260.1651
 143  324.2451
 144  316.9753
 145  374.4357
 146  215.4906
 147  167.9451
 148  271.0943
 149  310.8126
 150  263.3646
 151  179.4356
 152  215.6869
 153  268.7872
 154  244.5659
 155  295.0848
 156  383.7481
 157  375.5989
 158  406.6472
 159  439.5381
 160  282.7506
 161  257.9619
 162  235.9499
 163  325.0055
 164  303.3546
 165  241.9817
 166  251.4572
 167  265.019
 168  235.6552
 169  257.3839
 170  291.4154
 171  232.6564
 172  217.8805
 173  195.3637
 174  149.2332
 175  203.7993
 176  286.2253
 177  135.4349
 178  185.4697
 179  199.9147
 180  226.1225
 181  289.9912
 182  216.0258
 183  287.0976
 184  198.3897
 185  278.1635
 186  232.1836
 187  268.4272
 188  248.1868
 189  297.4411
 190  273.9962
 191  317.4001
 192  247.2359
 193  219.9748
 194  231.5041
 195  234.7761
 196  212.2963
 197  158.2673
 198  195.9242
 199  237.8674
 200  285.8628
 201  397.5438
 202  376.7636
 203  283.4412
 204  268.8925
 205  229.4766
 206  257.1491
 207  324.0815
 208  332.8194
 209  235.9357
 210  320.9094
 211  298.2352
 212  225.7239
 213  241.2354
 214  303.0418
 215  354.7645
 216  277.9622
 217  239.3293
 218  220.8916
 219  276.0452
 220  281.4954
 221  220.3358
 222  347.0318
 223  367.1151
 224  325.5905
 225  264.144
 226  167.4164
 227  198.9812
 228  211.9138
 229  262.4351
 230  259.3936
 231  265.3003
 232  226.9544
 233  235.0702
 234  318.1833
 235  212.8118
 236  197.1248
 237  427.2514
 238  461.7495
 239  285.6166
 240  291.2128
 241  359.3849
 242  414.45
 243  401.6685
 244  339.6091
 245  319.7892
 246  331.4611
 247  404.3604
 248  360.0202
 249  372.0937
 250  456.3375
 251  492.2477
 252  377.4551
 253  268.0157
 254  276.8623
 255  298.2285
 256  334.7849
 257  385.2349
 258  318.6556
 259  405.3923
 260  421.743
 261  385.8556
 262  410.8159
 263  410.4411
 264  355.2574
 265  243.6297
 266  324.8242
 267  368.887
 268  363.0442
 269  390.6424
 270  337.3193
 271  334.0572
 272  426.1796
 273  351.044
 274  273.959
 275  185.6978
 276  217.3751
 277  295.7752
 278  428.379
 279  376.2509
 280  337.6421
 281  333.8506
 282  337.097
 283  381.2871
 284  300.7297
 285  289.5433
 286  336.9794
 287  413.53
 288  291.1149
 289  237.0468
 290  205.4862
 291  309.1881
 292  342.6854
 293  289.0067
 294  272.4205
 295  251.9152
 296  284.3292
 297  464.0783
 298  358.6557
 299  305.0673
 300  310.7936
 301  358.0541
 302  395.239
 303  416.4849
 304  371.5981
 305  355.9959
 306  280.561
 307  282.263
 308  315.936
 309  370.1698
 310  478.35
 311  487.5642
 312  401.0576
 313  416.7778
 314  471.9131
 315  369.0999
 316  262.9835
 317  303.1558
 318  371.9845
 319  405.2283
 320  396.3105
 321  216.6481
 322  225.2207
 323  374.5107
 324  362.9145
 325  382.0377
 326  466.2745
 327  407.5595
 328  333.0837
 329  342.9994
 330  295.1978
 331  286.0864
 332  328.4602
 333  238.0694
 334  214.2806
 335  217.0717
 336  215.0078
 337  215.4758
 338  273.0016
 339  299.3948
 340  391.5182
 341  319.9672
 342  374.8638
 343  459.153
 344  391.7953
 345  350.3596
 346  317.929
 347  227.6543
 348  261.0467
 349  323.846
 350  413.8311
 351  467.8267
 352  410.0666
 353  304.726
 354  286.5288
 355  253.3208
 356  360.226
 357  355.8087
 358  393.9869
 359  369.8174
 360  314.6161
 361  211.1724
 362  370.3394
 363  347.8068
 364  149.762
 365  243.5235
 366  398.3396
 367  412.9756
 368  342.922
 369  305.4034
 370  317.8204
 371  214.3424
 372  211.6426
 373  217.7154
 374  264.4386
 375  324.2784
 376  232.0039
 377  321.8833
 378  302.829
 379  296.2113
 380  299.6495
 381  234.1599
 382  259.5764
 383  249.3069
 384  387.0487
 385  281.9854
 386  157.8163
 387  292.6796
 388  302.9737
 389  297.1014
 390  261.1981
 391  205.7606
 392  347.5226
 393  380.244
 394  292.5239
 395  239.4176
 396  250.766
 397  203.6802
 398  281.8978
 399  322.7905
 400  295.3226
 401  282.4441
 402  302.8339
 403  325.6967
 404  274.7792
 405  241.0858
 406  189.3951
 407  243.041
 408  296.3918
 409  258.3005
 410  303.0852
 411  305.7934
 412  203.4918
 413  253.783
 414  251.1938
 415  344.1749
 416  443.1148
 417  396.3627
 418  346.6528
 419  222.8206
 420  252.9978
 421  296.0507
 422  302.304
 423  265.3646
 424  197.165
 425  339.708
 426  244.7433
 427  242.957
 428  376.064
 429  362.8159
 430  263.8968
 431  292.6933
 432  337.5757
 433  258.6911
 434  317.4618
 435  353.9871
 436  382.7458
 437  309.2787
 438  358.2197
 439  258.8008
 440  224.0471
 441  357.9409
 442  401.5053
 443  443.7182
 444  261.7008
 445  291.7762
 446  189.6764
 447  245.748
 448  240.9668
 449  382.4243
 450  422.7369
 451  297.8665
 452  286.1138
 453  364.2536
 454  264.8181
 455  230.8652
 456  292.9155
 457  298.2233
 458  286.3004
 459  266.8781
 460  293.7675
 461  354.75
 462  335.941
 463  425.1144
 464  365.4511
 465  323.2839
 466  340.0247
 467  414.2451
 468  468.7261
 469  230.5549
 470  254.8545
 471  210.0518
 472  275.9091
 473  298.4781
 474  343.6362
 475  309.805
 476  358.2617
 477  355.9538
 478  342.6818
 479  284.2695
 480  281.9348
 481  330.3354
 482  315.0351
 483  336.7163
 484  244.9066
 485  302.6829
 486  301.5089
 487  269.7146
 488  266.8237
 489  317.0796
 490  361.5854
 491  310.5547
 492  340.838
 493  261.1402
 494  258.8553
 495  348.0703
 496  348.4155
 497  403.2847
 498  275.9285
 499  287.4069
 500  503.6477
 501  339.0207
 502  272.834
 503  308.37
 504  357.6395
 505  484.586
 506  407.492
 507  393.7423
 508  461.2013
 509  790.4103
 510  917.7443
 511  928.8898
