# Input file       =  1200671680.103016_cleaned.dat
# Candidate        =  PSR_0332+5434
# Telescope        =  AR
# Epoch_topo       =  58140.663184062687
# Epoch_bary       =  N/A
# T_sample         =  0.002
# Data Folded      =  7340032
# Data Avg         =  0.0321318478315595
# Data StdDev      =  1.00008715960745 
# Profile Bins     =  512
# Profile Avg      =  460.213134950424 
# Profile StdDev   =  119.743472261215 
# Reduced chi-sqr  =  0.987
# Prob(Noise)      <  0.576   (~0.0 sigma)
# P_topo (ms)      =  714.571365261746  +/- 0.00039
# P'_topo (s/s)    =  -0                +/- 2.06e-10
# P''_topo (s/s^2) =  0                 +/- 9.09e-14
# P_bary (ms)      =  N/A
# P'_bary (s/s)    =  N/A
# P''_bary (s/s^2) =  N/A
# P_orb (s)        =  N/A
# asin(i)/c (s)    =  N/A
# eccentricity     =  N/A
# w (rad)          =  N/A
# T_peri           =  N/A
######################################################
   0  1108.163
   1  967.5382
   2  795.5195
   3  577.2686
   4  434.7739
   5  442.6502
   6  464.317
   7  455.2341
   8  515.197
   9  528.6268
  10  514.8002
  11  522.9243
  12  529.9464
  13  483.7696
  14  480.0587
  15  598.2258
  16  569.5
  17  471.1609
  18  410.736
  19  343.2469
  20  388.2073
  21  502.4263
  22  517.2067
  23  492.3112
  24  440.562
  25  462.8729
  26  369.6898
  27  366.3303
  28  413.4684
  29  537.941
  30  528.3798
  31  433.0873
  32  460.2801
  33  494.7195
  34  541.8052
  35  513.7132
  36  492.7728
  37  475.353
  38  391.5154
  39  427.759
  40  406.677
  41  424.6451
  42  428.7751
  43  506.2939
  44  559.8425
  45  459.1813
  46  518.0009
  47  472.8929
  48  474.4972
  49  481.1171
  50  483.5714
  51  432.3963
  52  457.0551
  53  416.7187
  54  391.3777
  55  487.4951
  56  428.7333
  57  347.9375
  58  370.1301
  59  405.5818
  60  388.3722
  61  484.2548
  62  427.8563
  63  448.1849
  64  429.2652
  65  415.404
  66  414.9185
  67  582.1853
  68  477.526
  69  408.0742
  70  366.9971
  71  397.2715
  72  395.8523
  73  360.9957
  74  358.7818
  75  490.1617
  76  572.2963
  77  493.228
  78  382.9929
  79  468.932
  80  442.0201
  81  418.0029
  82  451.8513
  83  586.8892
  84  492.7177
  85  488.5135
  86  499.0211
  87  487.294
  88  423.4249
  89  443.6007
  90  552.8411
  91  623.9415
  92  544.7512
  93  456.1212
  94  469.2892
  95  474.7905
  96  538.288
  97  516.9108
  98  446.8428
  99  543.8616
 100  626.51
 101  530.893
 102  435.783
 103  415.5666
 104  455.9755
 105  508.9149
 106  497.9976
 107  480.4187
 108  515.8489
 109  372.1055
 110  448.7245
 111  488.4418
 112  423.0512
 113  393.6876
 114  485.2588
 115  561.0793
 116  488.8258
 117  565.9319
 118  493.1895
 119  483.6115
 120  532.6337
 121  439.7405
 122  331.3299
 123  397.7983
 124  400.4817
 125  440.356
 126  504.9008
 127  497.6879
 128  508.7716
 129  562.2304
 130  593.6469
 131  506.2174
 132  491.9189
 133  476.558
 134  389.0338
 135  389.2564
 136  500.229
 137  457.1618
 138  532.6217
 139  480.3209
 140  510.8237
 141  571.2587
 142  504.638
 143  531.8167
 144  569.6403
 145  592.4759
 146  492.517
 147  597.347
 148  570.6368
 149  501.6486
 150  511.264
 151  449.4461
 152  516.3057
 153  483.1213
 154  429.2717
 155  454.2938
 156  380.2837
 157  401.2116
 158  448.4377
 159  477.3217
 160  406.5255
 161  440.2409
 162  515.3222
 163  517.5323
 164  500.896
 165  487.6166
 166  421.5951
 167  458.8753
 168  517.0058
 169  476.0876
 170  456.3753
 171  491.6444
 172  491.5998
 173  482.2859
 174  465.2682
 175  458.532
 176  477.7393
 177  411.5791
 178  392.7368
 179  400.5313
 180  496.021
 181  369.8819
 182  326.071
 183  403.9799
 184  316.089
 185  471.6913
 186  552.2564
 187  387.79
 188  372.0663
 189  348.5221
 190  479.2245
 191  404.3578
 192  377.3983
 193  470.8926
 194  431.3508
 195  412.1375
 196  364.4129
 197  330.056
 198  330.4541
 199  343.0658
 200  474.7687
 201  514.9485
 202  538.7565
 203  497.8322
 204  516.6902
 205  568.1429
 206  485.7908
 207  396.3755
 208  421.508
 209  402.372
 210  429.3011
 211  451.6935
 212  423.7238
 213  460.3126
 214  388.0075
 215  506.1349
 216  500.8788
 217  499.4539
 218  507.6331
 219  539.4283
 220  513.3284
 221  524.516
 222  488.5081
 223  494.0073
 224  500.0446
 225  507.7457
 226  436.1617
 227  438.9312
 228  487.4404
 229  553.7789
 230  547.5956
 231  385.0714
 232  382.4341
 233  497.3454
 234  545.6887
 235  563.9876
 236  555.9791
 237  415.2258
 238  334.7713
 239  398.8967
 240  462.4461
 241  401.0103
 242  381.6804
 243  444.0238
 244  469.5388
 245  366.7889
 246  456.1924
 247  429.4571
 248  444.5951
 249  488.2689
 250  405.1522
 251  486.0574
 252  370.8896
 253  408.1163
 254  481.7414
 255  535.6434
 256  457.4066
 257  467.0548
 258  548.3546
 259  428.2932
 260  356.8025
 261  438.3705
 262  434.9643
 263  461.6779
 264  468.0551
 265  480.1926
 266  421.0534
 267  404.6413
 268  539.2209
 269  594.0856
 270  474.3207
 271  456.6929
 272  487.1655
 273  473.6364
 274  425.3039
 275  396.6877
 276  423.9687
 277  373.8492
 278  402.4044
 279  406.4532
 280  430.5363
 281  421.5816
 282  495.4561
 283  560.0123
 284  510.7532
 285  491.786
 286  486.3972
 287  530.287
 288  497.5978
 289  472.4634
 290  512.1449
 291  503.4591
 292  414.1926
 293  496.0983
 294  493.1064
 295  483.8111
 296  463.1378
 297  475.068
 298  520.1984
 299  562.1517
 300  412.0468
 301  466.8499
 302  362.8575
 303  371.5496
 304  390.1435
 305  509.3492
 306  540.7026
 307  624.5394
 308  647.202
 309  573.6232
 310  474.5867
 311  537.0327
 312  553.7926
 313  576.3672
 314  517.2641
 315  532.261
 316  548.6793
 317  504.5024
 318  437.3787
 319  500.4069
 320  507.0713
 321  479.6135
 322  513.842
 323  533.1653
 324  511.0999
 325  465.035
 326  484.2184
 327  492.2156
 328  363.6016
 329  364.7519
 330  499.6797
 331  438.0634
 332  339.0318
 333  387.0366
 334  328.2471
 335  377.2295
 336  327.4973
 337  407.8091
 338  520.7012
 339  384.0882
 340  352.2349
 341  366.9674
 342  318.3481
 343  311.1472
 344  382.5244
 345  374.0886
 346  403.2207
 347  331.7442
 348  361.3401
 349  394.5222
 350  344.7975
 351  267.6062
 352  335.4616
 353  509.3871
 354  535.0261
 355  459.3183
 356  348.0392
 357  332.5135
 358  370.5189
 359  403.907
 360  444.461
 361  458.1525
 362  486.1855
 363  441.7528
 364  458.6232
 365  490.8104
 366  507.6152
 367  489.5606
 368  423.7953
 369  472.7128
 370  422.6696
 371  309.0179
 372  390.6333
 373  484.7732
 374  381.682
 375  366.6586
 376  445.4867
 377  392.644
 378  335.3227
 379  362.7883
 380  327.7812
 381  398.8466
 382  410.8097
 383  463.9822
 384  344.9472
 385  390.755
 386  435.8103
 387  537.6251
 388  409.971
 389  337.5759
 390  403.4033
 391  407.6748
 392  273.1611
 393  303.8699
 394  449.9212
 395  510.459
 396  434.8143
 397  353.1254
 398  428.8243
 399  380.1932
 400  293.5326
 401  432.3132
 402  485.4812
 403  407.7358
 404  456.171
 405  477.0261
 406  402.6276
 407  359.772
 408  419.407
 409  402.7713
 410  357.5936
 411  338.8917
 412  418.8094
 413  554.6392
 414  536.0484
 415  570.2706
 416  584.3555
 417  489.5545
 418  452.4278
 419  446.7583
 420  441.4406
 421  442.6929
 422  343.0759
 423  372.4506
 424  368.6431
 425  462.9568
 426  504.0542
 427  426.0452
 428  319.7634
 429  352.8155
 430  474.7996
 431  551.6728
 432  567.4579
 433  613.3259
 434  538.8521
 435  461.1611
 436  481.7041
 437  456.7091
 438  583.4037
 439  617.8743
 440  569.5549
 441  519.2682
 442  477.3075
 443  407.9466
 444  437.0096
 445  390.6628
 446  403.2103
 447  387.2539
 448  472.2809
 449  478.4727
 450  510.8272
 451  517.3586
 452  504.2758
 453  517.0711
 454  526.8825
 455  558.8356
 456  452.6967
 457  396.6064
 458  356.5012
 459  361.6108
 460  402.6132
 461  524.0691
 462  510.9905
 463  459.6852
 464  448.6844
 465  308.377
 466  292.602
 467  388.7748
 468  329.4927
 469  311.2687
 470  465.9433
 471  452.2811
 472  457.7254
 473  448.6322
 474  416.6468
 475  335.0301
 476  393.8214
 477  367.3689
 478  398.5816
 479  384.3256
 480  361.2833
 481  497.5858
 482  338.4981
 483  347.0607
 484  485.6281
 485  417.1945
 486  438.0476
 487  420.095
 488  410.1992
 489  481.5473
 490  495.5257
 491  447.0575
 492  348.2075
 493  492.8677
 494  648.4958
 495  560.1595
 496  497.4785
 497  534.4354
 498  525.257
 499  387.9084
 500  409.6137
 501  292.7381
 502  408.2702
 503  486.4679
 504  462.5363
 505  518.7824
 506  504.1442
 507  550.5184
 508  631.6501
 509  713.538
 510  834.0742
 511  990.4922
