# Input file       =  1200068525.116485-PSRB0329-2ms-sampling-dd.dat
# Candidate        =  PSR_0332+5434
# Telescope        =  AR
# Epoch_topo       =  58133.682223570431
# Epoch_bary       =  N/A
# T_sample         =  0.002
# Data Folded      =  7340032
# Data Avg         =  4.77419647715201e-09
# Data StdDev      =  123.637687211907 
# Profile Bins     =  512
# Profile Avg      =  -2.4804535820709 
# Profile StdDev   =  14803.5157004825 
# Reduced chi-sqr  =  1.354
# Prob(Noise)      <  1.48e-07   (~5.1 sigma)
# P_topo (ms)      =  714.56704016545   +/- 0.000236
# P'_topo (s/s)    =  -0                +/- 1.25e-10
# P''_topo (s/s^2) =  0                 +/- 5.5e-14
# P_bary (ms)      =  N/A
# P'_bary (s/s)    =  N/A
# P''_bary (s/s^2) =  N/A
# P_orb (s)        =  N/A
# asin(i)/c (s)    =  N/A
# eccentricity     =  N/A
# w (rad)          =  N/A
# T_peri           =  N/A
######################################################
   0  -6589.575
   1  -7596.019
   2  -7252.527
   3  -6331.269
   4  -5865.427
   5  -6570.069
   6  -7114.85
   7  -7284.714
   8  -6468.926
   9  -5038.863
  10  -6618.869
  11  -7023.824
  12  -6797.684
  13  -6238.375
  14  -5983.841
  15  -6667.364
  16  -7327.935
  17  -7273.536
  18  -6512.712
  19  -5973.023
  20  -6839.47
  21  -7634.011
  22  -7051.472
  23  -5668.442
  24  -5720.918
  25  -6583.218
  26  -7981.53
  27  -7043.825
  28  -6897.222
  29  -6510.798
  30  -6350.186
  31  -6373.12
  32  -5993.402
  33  -5987.672
  34  -6989.521
  35  -8515.429
  36  -7379.095
  37  -6348.006
  38  -5555.907
  39  -6470.839
  40  -8593.093
  41  -6832.79
  42  -6560.756
  43  -7381.572
  44  -6989.894
  45  -7271.405
  46  -10015.48
  47  3672.025
  48  12142.6
  49  27363.46
  50  35123.36
  51  33410.78
  52  26832.59
  53  2613.625
  54  12327.21
  55  23272.02
  56  45194.21
  57  47357
  58  41163.57
  59  14032.12
  60  5000.347
  61  6705.165
  62  5191.434
  63  10424.69
  64  14040.03
  65  8096.554
  66  4360.958
  67  -6857.988
  68  8140.721
  69  14768.09
  70  16385.02
  71  13789.76
  72  7907.591
  73  -2209.989
  74  -7130.807
  75  -6570.369
  76  -6437.175
  77  -6875.367
  78  -7198.096
  79  -6597.184
  80  -5485.552
  81  -5922.564
  82  -8074.824
  83  -7787.353
  84  -7055.3
  85  -5980.557
  86  -3152.602
  87  -2963.011
  88  10828.83
  89  28540.55
  90  50991.22
  91  51450.02
  92  49322.53
  93  38718.55
  94  4798.611
  95  25243.62
  96  53259.56
  97  71324.76
  98  60606.42
  99  46039.51
 100  20957.08
 101  -5216.662
 102  -7692.097
 103  -6251.467
 104  -7132.142
 105  -6149.313
 106  -5094.178
 107  -6038.132
 108  -5513.749
 109  -4468.617
 110  -5197.102
 111  -5463.341
 112  -2578.635
 113  556.1949
 114  1078.579
 115  858.5428
 116  -162.3222
 117  -2721.176
 118  -5982.277
 119  -1948.625
 120  1653.729
 121  351.111
 122  -1704.694
 123  -2293.361
 124  -4117.477
 125  -6864.539
 126  -7041.8
 127  -5959.464
 128  -5803.597
 129  -5426.435
 130  -6563.628
 131  -6600.758
 132  -6660.247
 133  -6355.021
 134  -5574.869
 135  -6200.682
 136  -6144.386
 137  -5926.942
 138  -5102.913
 139  -6930.666
 140  -7269.798
 141  -6425.479
 142  -5402.44
 143  -5161.733
 144  -6386.227
 145  -7224.889
 146  -6280.006
 147  -6033.426
 148  -6257.67
 149  -6478.128
 150  -6951.866
 151  -6619.483
 152  -6067.579
 153  -6454.226
 154  -7374.17
 155  -7923.983
 156  -6603.547
 157  -6107.238
 158  -7095.895
 159  -7183.736
 160  -6849.029
 161  -6674.472
 162  -5820.563
 163  -5411.625
 164  -7230.244
 165  -5690.605
 166  -6499.885
 167  -7493.733
 168  4889.437
 169  8841.739
 170  12633.37
 171  17321.38
 172  7558.736
 173  -1209.581
 174  -8534.39
 175  13714.08
 176  20219.21
 177  21332.61
 178  12784.15
 179  2271.172
 180  -4426.705
 181  -4342.382
 182  -5100.3
 183  -4746.279
 184  -5250.952
 185  -5601.035
 186  -5247.826
 187  -6714.353
 188  -6924.365
 189  -7041.108
 190  -5950.667
 191  -5969.336
 192  -5748.108
 193  -6004.583
 194  -6283.827
 195  -5859.494
 196  -6636.882
 197  -6614.136
 198  -7651.824
 199  -6885.436
 200  -5870.127
 201  -6274.918
 202  -7353.61
 203  -7561.229
 204  -6954.261
 205  -5645.019
 206  -5917.803
 207  -8309.235
 208  -5867.34
 209  -5328.041
 210  -6245.31
 211  -4205.787
 212  -5161.342
 213  -4160.637
 214  19342.28
 215  31350.7
 216  38298.89
 217  43805.19
 218  24336.65
 219  12998.18
 220  -1274.399
 221  40699.88
 222  49639.71
 223  54139.13
 224  36887.32
 225  15937.19
 226  949.7967
 227  -5931.251
 228  -5604.988
 229  -5511.811
 230  -6023.302
 231  -5964.052
 232  -4214.105
 233  -2925.738
 234  -1289.069
 235  -127.7505
 236  -5555.182
 237  -5956.234
 238  -4334.58
 239  -2147.298
 240  -2856.929
 241  -3191.297
 242  37.68208
 243  -2302.666
 244  -3382.084
 245  -5179.694
 246  -7308.098
 247  -6137.195
 248  -4487.16
 249  -3123.119
 250  -4346.913
 251  -4330.446
 252  -5551.656
 253  -6463.669
 254  -6891.49
 255  -8204.438
 256  -7501.318
 257  -6781.441
 258  -6258.548
 259  -7594.117
 260  -7024.802
 261  -7206.74
 262  -7400.677
 263  -7101.111
 264  -8588.986
 265  -8156.722
 266  -7176.65
 267  -7456.967
 268  -7034.297
 269  -5896.984
 270  -8046.317
 271  5516.918
 272  14954.42
 273  20838.45
 274  26009.99
 275  20227.48
 276  9663.587
 277  -4720.787
 278  13061.11
 279  30531.68
 280  32169.12
 281  27747.86
 282  19651.91
 283  -1410.861
 284  -6471.123
 285  -6645.238
 286  -6889.736
 287  -7129.929
 288  -7118.411
 289  -6388.32
 290  -5182.158
 291  -4926.517
 292  -5020.394
 293  -6139.78
 294  -5768.874
 295  -4881.755
 296  -3897.934
 297  -4049.381
 298  -4949.201
 299  -5829.589
 300  -6131.738
 301  -5735.124
 302  -6843.558
 303  -7161.113
 304  -6035.197
 305  -5211.827
 306  -5452.58
 307  -6634.884
 308  -7075.975
 309  -6778.746
 310  -5852.378
 311  -6050.886
 312  -6788.105
 313  -6735.8
 314  -6315.158
 315  -6310.18
 316  -6671.769
 317  -7479.021
 318  -5864.664
 319  1177.18
 320  9115.91
 321  12518.97
 322  12720.29
 323  9988.405
 324  -5064.162
 325  -1697.461
 326  2985.084
 327  17151.06
 328  14811.04
 329  10573.93
 330  15752.79
 331  9282.353
 332  14551.19
 333  16524.69
 334  8750.651
 335  2446.1
 336  -8022.871
 337  10501.45
 338  17053.64
 339  21682.55
 340  15846.86
 341  6272.854
 342  -1865.692
 343  -6654.074
 344  -5855.027
 345  -3523.398
 346  814.6451
 347  4461.724
 348  6124.318
 349  4721.337
 350  391.0472
 351  -8292.211
 352  -1319.368
 353  4867.341
 354  8317.251
 355  7620.975
 356  4493.571
 357  1207.79
 358  -5478.613
 359  -7022.397
 360  -3492.804
 361  -3519.479
 362  -1682.508
 363  -2908.352
 364  -4390.212
 365  -6073.751
 366  -6886.564
 367  -6060.415
 368  -6354.872
 369  -6141.935
 370  -7865.673
 371  -7169.452
 372  -6462.622
 373  -6328.232
 374  -6522.17
 375  -7146.34
 376  -5348.586
 377  -5480.888
 378  -6001.481
 379  -6985.616
 380  -7416.896
 381  -6775.503
 382  -6690.315
 383  -6266.612
 384  -7878.98
 385  -8158.656
 386  -8069.399
 387  -7186.263
 388  -7673.675
 389  -7808.315
 390  -6884.138
 391  -6024.125
 392  -5489.102
 393  -7155.918
 394  -7510.866
 395  -7071.781
 396  -6093.293
 397  -7116.942
 398  -6386.081
 399  -6794.001
 400  -7098.001
 401  -6202.534
 402  -7192.583
 403  -6276.511
 404  -6811.342
 405  -6823.162
 406  -6622.425
 407  -7500.84
 408  -7917.034
 409  -7476.971
 410  -6867.897
 411  -4270.95
 412  -615.351
 413  994.5273
 414  2976.828
 415  16715.95
 416  15334.84
 417  10783.11
 418  16492.57
 419  14718.73
 420  6785.783
 421  7171.349
 422  19009.45
 423  16008.33
 424  12505.76
 425  7342.956
 426  1510.709
 427  -7294.408
 428  -6617.238
 429  -7062.196
 430  -6092.584
 431  -6693.983
 432  -7665.721
 433  -6445.075
 434  -5531.014
 435  -5760.604
 436  -7323.013
 437  -7702.691
 438  -7973.014
 439  -6083.793
 440  -6537.47
 441  -7257.357
 442  -6960.786
 443  -6934.321
 444  -6533.325
 445  -7216.613
 446  -7193.851
 447  -7435.108
 448  -6496
 449  -5732.598
 450  -7232.26
 451  -7884.52
 452  -8123.329
 453  -7001.136
 454  -6359.069
 455  -6835.575
 456  -5378.175
 457  -3260.614
 458  -585.4414
 459  -307.7316
 460  -2582.464
 461  -5258.094
 462  -5255.395
 463  -1349.326
 464  2158.895
 465  612.9206
 466  -1733.633
 467  -2462.487
 468  -4983.465
 469  -5844.15
 470  -6569.875
 471  -6307.693
 472  -6618.277
 473  -5339.257
 474  -5227.535
 475  -5230.694
 476  -4796.621
 477  -4845.416
 478  -4571.195
 479  -6664.689
 480  -5949.299
 481  -5807.17
 482  -4142.412
 483  -3644.189
 484  -4086.75
 485  -4498.826
 486  -4774.352
 487  -5365.84
 488  -6847.792
 489  -6643.908
 490  -6076.779
 491  -5348.728
 492  -1646.723
 493  1841.646
 494  15528.8
 495  17165.18
 496  17259.86
 497  14770.85
 498  -478.1022
 499  2722.415
 500  9443.046
 501  21800.02
 502  21574.78
 503  17815.84
 504  6148.215
 505  -1512.72
 506  -5842.792
 507  -3982.504
 508  -6451.432
 509  -7081.988
 510  -5726.934
 511  -6432.502
