# Input file       =  1200398598.099281_cleaned.dat
# Candidate        =  PSR_0332+5434
# Telescope        =  AR
# Epoch_topo       =  58137.502512723164
# Epoch_bary       =  N/A
# T_sample         =  0.002
# Data Folded      =  7143424
# Data Avg         =  0.0181290680941087
# Data StdDev      =  1.0001481868349  
# Profile Bins     =  512
# Profile Avg      =  252.865726746022 
# Profile StdDev   =  118.136088101045 
# Reduced chi-sqr  =  1.319
# Prob(Noise)      <  1.62e-06   (~4.7 sigma)
# P_topo (ms)      =  714.569489329757  +/- 0.00015
# P'_topo (s/s)    =  -0                +/- 8.12e-11
# P''_topo (s/s^2) =  0                 +/- 3.68e-14
# P_bary (ms)      =  N/A
# P'_bary (s/s)    =  N/A
# P''_bary (s/s^2) =  N/A
# P_orb (s)        =  N/A
# asin(i)/c (s)    =  N/A
# eccentricity     =  N/A
# w (rad)          =  N/A
# T_peri           =  N/A
######################################################
   0  222.2236
   1  266.0085
   2  242.2254
   3  199.4275
   4  274.3163
   5  295.0518
   6  227.9601
   7  88.07924
   8  191.2366
   9  220.5702
  10  271.5085
  11  326.1877
  12  202.2853
  13  149.8269
  14  121.2442
  15  66.00064
  16  67.24427
  17  105.4621
  18  193.4824
  19  150.7929
  20  167.8936
  21  157.3783
  22  197.4116
  23  206.317
  24  172.5777
  25  195.4823
  26  350.3943
  27  279.3978
  28  246.113
  29  272.6093
  30  327.8731
  31  372.888
  32  337.4149
  33  340.7598
  34  233.738
  35  268.0073
  36  226.8035
  37  211.3259
  38  152.8018
  39  160.6825
  40  244.8102
  41  315.5872
  42  320.6004
  43  204.7773
  44  181.6015
  45  259.1278
  46  325.8393
  47  397.1154
  48  392.8118
  49  155.1718
  50  227.5986
  51  357.328
  52  142.354
  53  237.9958
  54  365.058
  55  288.0532
  56  290.3297
  57  437.6785
  58  514.0772
  59  300.6994
  60  270.2155
  61  572.2815
  62  840.3552
  63  992.5455
  64  861.1476
  65  677.494
  66  531.6805
  67  313.7749
  68  310.4389
  69  254.323
  70  231.5392
  71  311.8324
  72  251.7731
  73  269.8366
  74  237.0977
  75  230.4028
  76  283.2047
  77  324.3572
  78  418.4269
  79  441.5175
  80  382.5219
  81  368.443
  82  305.053
  83  266.1778
  84  191.875
  85  235.1483
  86  257.2346
  87  147.1051
  88  170.1788
  89  204.9766
  90  259.0762
  91  187.5703
  92  113.1155
  93  298.6118
  94  240.3304
  95  196.8442
  96  264.9409
  97  251.7475
  98  184.0915
  99  228.6968
 100  292.9538
 101  194.7942
 102  187.2411
 103  297.4943
 104  268.9214
 105  324.6641
 106  342.4875
 107  261.45
 108  250.5939
 109  145.3702
 110  149.8071
 111  301.8829
 112  260.549
 113  134.3699
 114  184.6849
 115  301.9606
 116  196.3007
 117  316.9541
 118  293.1473
 119  296.4862
 120  285.4973
 121  301.5015
 122  403.3575
 123  250.9792
 124  147.3578
 125  110.3003
 126  211.8256
 127  217.6918
 128  274.3867
 129  343.0722
 130  317.5933
 131  321.2758
 132  235.4006
 133  230.8992
 134  173.4785
 135  191.1504
 136  320.6863
 137  180.1814
 138  235.7043
 139  202.651
 140  192.2976
 141  154.2527
 142  123.3564
 143  168.5252
 144  124.5844
 145  177.4691
 146  145.8758
 147  133.3818
 148  61.91675
 149  -11.84534
 150  72.08654
 151  208.1091
 152  340.9173
 153  251.4295
 154  131.5787
 155  195.3755
 156  164.6064
 157  212.1287
 158  127.0352
 159  252.3279
 160  369.2223
 161  309.0811
 162  206.0307
 163  62.53936
 164  156.5087
 165  331.3245
 166  245.224
 167  91.14542
 168  172.5656
 169  155.1595
 170  218.3982
 171  272.5147
 172  322.938
 173  244.6639
 174  295.912
 175  285.4776
 176  301.1561
 177  261.1568
 178  205.7659
 179  265.3402
 180  322.0025
 181  359.9323
 182  314.264
 183  279.3623
 184  278.5045
 185  301.5048
 186  322.5156
 187  339.272
 188  200.0701
 189  146.7601
 190  224.7537
 191  157.6929
 192  339.593
 193  309.6847
 194  250.6827
 195  223.6915
 196  378.5684
 197  406.1089
 198  275.1325
 199  194.4557
 200  161.3866
 201  131.9449
 202  206.1768
 203  292.0571
 204  345.1869
 205  303.9652
 206  390.2011
 207  152.3007
 208  174.3739
 209  189.7105
 210  287.2379
 211  341.2403
 212  270.8156
 213  263.2504
 214  210.7041
 215  144.5311
 216  78.0788
 217  144.943
 218  240.5689
 219  256.1047
 220  308.9001
 221  358.7476
 222  229.3394
 223  81.65951
 224  132.2509
 225  228.032
 226  347.9589
 227  352.4343
 228  275.8405
 229  361.8258
 230  250.6032
 231  205.3801
 232  175.467
 233  251.5456
 234  215.0707
 235  280.4688
 236  267.375
 237  165.4403
 238  111.4627
 239  220.5981
 240  236.6349
 241  228.6709
 242  232.4712
 243  200.6192
 244  153.5567
 245  261.8818
 246  226.1834
 247  291.1039
 248  268.0326
 249  226.6229
 250  306.1255
 251  262.7678
 252  268.9515
 253  328.4272
 254  350.0382
 255  397.1369
 256  251.0885
 257  213.7371
 258  189.0359
 259  108.8476
 260  280.6555
 261  181.719
 262  217.4596
 263  303.4179
 264  174.0411
 265  172.1443
 266  165.5292
 267  259.0753
 268  308.9679
 269  306.093
 270  309.9863
 271  221.8776
 272  134.8016
 273  26.99743
 274  130.7568
 275  212.2184
 276  273.2173
 277  222.9178
 278  225.3474
 279  302.4577
 280  288.9868
 281  310.5616
 282  222.3807
 283  159.2984
 284  166.3456
 285  140.0012
 286  162.5205
 287  302.9339
 288  361.387
 289  197.0612
 290  103.9184
 291  210.2605
 292  281.0205
 293  249.1896
 294  356.4079
 295  244.2052
 296  231.2711
 297  287.6038
 298  154.3056
 299  224.1726
 300  277.6567
 301  304.596
 302  210.1727
 303  147.2817
 304  382.8444
 305  350.5249
 306  222.191
 307  155.2022
 308  185.8374
 309  260.5994
 310  264.5134
 311  219.9036
 312  158.9197
 313  166.4075
 314  204.025
 315  263.1456
 316  185.4341
 317  294.4818
 318  209.7487
 319  295.6125
 320  261.2054
 321  244.0151
 322  296.0331
 323  312.4769
 324  317.0833
 325  365.9192
 326  267.1049
 327  122.454
 328  187.9159
 329  373.2529
 330  357.4025
 331  218.6169
 332  228.8434
 333  150.5926
 334  369.785
 335  305.2641
 336  408.1799
 337  477.2008
 338  312.8559
 339  131.9326
 340  249.0573
 341  444.1615
 342  312.9289
 343  148.1109
 344  404.2311
 345  327.2064
 346  279.4125
 347  367.4143
 348  266.3588
 349  210.0143
 350  246.7191
 351  231.9952
 352  189.8165
 353  250.3785
 354  429.3355
 355  189.8183
 356  111.3513
 357  181.5888
 358  138.5001
 359  157.8158
 360  225.0509
 361  256.359
 362  327.5494
 363  287.5201
 364  286.9679
 365  301.5176
 366  328.8203
 367  320.049
 368  273.0836
 369  327.6344
 370  348.8043
 371  399.1204
 372  410.2117
 373  313.5504
 374  188.9179
 375  194.1034
 376  211.5765
 377  390.1666
 378  455.8378
 379  326.1754
 380  233.0554
 381  112.6469
 382  171.0981
 383  377.3762
 384  429.8413
 385  272.0545
 386  290.9703
 387  214.6631
 388  130.1866
 389  147.7086
 390  221.8423
 391  267.4638
 392  175.6301
 393  250.5619
 394  313.5928
 395  377.8584
 396  294.061
 397  360.4342
 398  248.7068
 399  321.8911
 400  375.423
 401  324.092
 402  298.2737
 403  365.8191
 404  289.3342
 405  213.3645
 406  252.5254
 407  355.4081
 408  268.2615
 409  186.0001
 410  165.6725
 411  284.2161
 412  131.4504
 413  83.52357
 414  181.1505
 415  269.2171
 416  220.8771
 417  253.1609
 418  217.2257
 419  350.3026
 420  265.743
 421  162.3925
 422  214.226
 423  296.2871
 424  329.6352
 425  324.7898
 426  245.3592
 427  178.7863
 428  213.8397
 429  334.0227
 430  413.6114
 431  301.7832
 432  217.5034
 433  202.2391
 434  226.1943
 435  362.9841
 436  269.3046
 437  275.1448
 438  253.1001
 439  283.5295
 440  318.8943
 441  276.9144
 442  306.4672
 443  407.816
 444  327.2155
 445  213.6318
 446  270.638
 447  329.7886
 448  247.9544
 449  184.4686
 450  192.9004
 451  236.5417
 452  231.6927
 453  137.3039
 454  156.0961
 455  239.1002
 456  311.459
 457  291.0077
 458  277.6936
 459  226.4053
 460  150.9179
 461  173.938
 462  262.2114
 463  180.7739
 464  68.954
 465  165.3644
 466  166.5701
 467  184.4031
 468  145.7003
 469  65.12357
 470  195.5355
 471  213.1527
 472  177.2335
 473  172.2625
 474  237.5018
 475  335.2917
 476  230.3357
 477  251.8182
 478  167.7627
 479  170.9059
 480  320.0319
 481  343.8271
 482  326.7629
 483  299.6811
 484  296.8166
 485  341.5589
 486  242.7069
 487  206.2792
 488  366.9536
 489  342.4327
 490  312.3557
 491  244.298
 492  262.046
 493  184.0565
 494  211.7756
 495  153.6864
 496  107.9935
 497  135.0088
 498  190.8675
 499  368.3245
 500  397.678
 501  201.6362
 502  207.3986
 503  206.2533
 504  199.019
 505  134.2968
 506  155.3094
 507  287.4097
 508  299.0643
 509  246.0669
 510  183.2062
 511  183.4023
