# Input file       =  1200428131.111276_cleaned.dat
# Candidate        =  PSR_0332+5434
# Telescope        =  AR
# Epoch_topo       =  58137.844329991618
# Epoch_bary       =  N/A
# T_sample         =  0.002
# Data Folded      =  7340032
# Data Avg         =  0.0291574489999964
# Data StdDev      =  1.00016200712913 
# Profile Bins     =  512
# Profile Avg      =  418.025404661284 
# Profile StdDev   =  119.752433982251 
# Reduced chi-sqr  =  1.045
# Prob(Noise)      <  0.232   (~0.7 sigma)
# P_topo (ms)      =  714.570048299539  +/- 0.000541
# P'_topo (s/s)    =  -0                +/- 2.86e-10
# P''_topo (s/s^2) =  0                 +/- 1.26e-13
# P_bary (ms)      =  N/A
# P'_bary (s/s)    =  N/A
# P''_bary (s/s^2) =  N/A
# P_orb (s)        =  N/A
# asin(i)/c (s)    =  N/A
# eccentricity     =  N/A
# w (rad)          =  N/A
# T_peri           =  N/A
######################################################
   0  863.0133
   1  631.2588
   2  532.9886
   3  480.6527
   4  491.0985
   5  635.2914
   6  575.0088
   7  503.3213
   8  581.3797
   9  413.9646
  10  318.639
  11  363.911
  12  497.3425
  13  563.6304
  14  399.959
  15  428.6209
  16  480.6685
  17  337.0916
  18  286.4654
  19  321.7979
  20  453.5904
  21  388.4256
  22  386.9019
  23  527.616
  24  634.8549
  25  461.6887
  26  533.8981
  27  566.41
  28  614.7156
  29  521.2317
  30  375.095
  31  491.5351
  32  535.5148
  33  492.8314
  34  474.0655
  35  351.0811
  36  430.1785
  37  423.1582
  38  370.9553
  39  463.0053
  40  583.3047
  41  475.5142
  42  438.6001
  43  359.3615
  44  303.7243
  45  336.7351
  46  389.2231
  47  355.869
  48  412.261
  49  483.3757
  50  469.94
  51  395.7808
  52  414.2796
  53  326.5508
  54  272.3234
  55  343.3167
  56  445.0263
  57  513.9369
  58  481.9535
  59  432.1887
  60  479.0949
  61  402.1414
  62  356.463
  63  375.2089
  64  505.8443
  65  550.399
  66  501.8807
  67  370.362
  68  308.7976
  69  373.6317
  70  450.5013
  71  405.8111
  72  362.9908
  73  301.2318
  74  317.4635
  75  371.1652
  76  425.6525
  77  520.9755
  78  456.1518
  79  398.3383
  80  256.1651
  81  302.2925
  82  310.0053
  83  373.6989
  84  511.6732
  85  519.9285
  86  400.5791
  87  419.6097
  88  352.1061
  89  269.1832
  90  287.8236
  91  345.1962
  92  436.7334
  93  356.948
  94  333.663
  95  387.0301
  96  397.983
  97  343.2841
  98  314.5934
  99  330.1095
 100  316.8409
 101  273.734
 102  303.4414
 103  289.7
 104  380.1652
 105  367.6864
 106  356.6276
 107  289.0698
 108  417.478
 109  392.5117
 110  297.375
 111  363.9979
 112  321.1113
 113  373.8763
 114  418.2158
 115  356.9352
 116  235.1002
 117  335.7661
 118  335.6851
 119  337.3171
 120  333.5861
 121  340.5326
 122  361.4815
 123  345.9872
 124  298.6669
 125  409.9168
 126  422.7694
 127  256.5042
 128  327.4207
 129  364.3912
 130  410.9939
 131  343.1482
 132  369.9739
 133  347.0516
 134  329.2543
 135  350.2004
 136  317.1966
 137  283.0214
 138  314.0453
 139  362.8838
 140  393.8546
 141  393.121
 142  313.2174
 143  218.2296
 144  306.7318
 145  411.8201
 146  333.4453
 147  362.5847
 148  412.2215
 149  389.6778
 150  341.7021
 151  343.0838
 152  406.2208
 153  319.6785
 154  311.1522
 155  313.3024
 156  354.0165
 157  428.5305
 158  423.2882
 159  405.7663
 160  288.287
 161  375.924
 162  382.0471
 163  391.235
 164  289.7019
 165  431.02
 166  528.0779
 167  429.2393
 168  358.5909
 169  472.1762
 170  432.1703
 171  389.6605
 172  455.7358
 173  443.2597
 174  360.9888
 175  361.6392
 176  345.2109
 177  170.7024
 178  229.1605
 179  306.419
 180  353.4442
 181  280.4197
 182  358.5474
 183  315.1006
 184  252.7649
 185  362.7454
 186  349.15
 187  315.1373
 188  204.3259
 189  254.2322
 190  414.4492
 191  429.5115
 192  416.6993
 193  361.2484
 194  271.0127
 195  384.9167
 196  305.4606
 197  290.786
 198  359.2366
 199  466.0008
 200  552.9337
 201  548.7957
 202  454.6042
 203  414.1076
 204  371.5065
 205  467.6894
 206  516.1967
 207  464.717
 208  471.1701
 209  478.9113
 210  367.4785
 211  391.6786
 212  428.7591
 213  385.4131
 214  374.2669
 215  365.1163
 216  268.8099
 217  320.7028
 218  371.1451
 219  450.1882
 220  400.27
 221  243.287
 222  265.405
 223  280.0934
 224  388.927
 225  350.6908
 226  277.0944
 227  411.6905
 228  441.6957
 229  423.5171
 230  494.8435
 231  480.4137
 232  395.7632
 233  447.3719
 234  530.3242
 235  404.5493
 236  432.371
 237  399.3607
 238  523.5121
 239  488.8876
 240  388.3114
 241  480.0754
 242  490.4498
 243  399.3522
 244  407.2638
 245  462.6687
 246  598.9746
 247  591.3832
 248  495.6718
 249  512.6619
 250  558.8902
 251  645.6825
 252  528.4321
 253  424.1293
 254  372.5089
 255  498.2159
 256  568.5225
 257  536.5985
 258  520.4303
 259  595.7315
 260  601.6554
 261  404.9566
 262  371.0502
 263  539.9946
 264  423.8822
 265  419.822
 266  469.4641
 267  425.9665
 268  353.1033
 269  388.0734
 270  489.7824
 271  505.8275
 272  351.7225
 273  282.4365
 274  293.3963
 275  321.1873
 276  426.0342
 277  484.4781
 278  499.2778
 279  506.7169
 280  452.0773
 281  456.3534
 282  395.4119
 283  403.5858
 284  481.4152
 285  417.5687
 286  460.8964
 287  458.3911
 288  446.8154
 289  370.0969
 290  411.8578
 291  390.096
 292  456.7758
 293  571.6728
 294  608.1268
 295  506.7153
 296  428.8612
 297  395.0292
 298  406.9343
 299  454.033
 300  359.4874
 301  350.7177
 302  447.6072
 303  440.5555
 304  480.6072
 305  418.3748
 306  510.8957
 307  406.2523
 308  485.843
 309  489.8952
 310  502.0873
 311  438.8054
 312  393.4068
 313  412.1455
 314  384.8505
 315  334.7699
 316  427.8741
 317  460.4301
 318  368.7269
 319  456.2956
 320  491.7544
 321  410.9987
 322  315.5437
 323  371.6252
 324  447.3409
 325  305.0021
 326  414.0444
 327  413.3206
 328  424.2186
 329  384.603
 330  428.7803
 331  408.1009
 332  548.9742
 333  568.6046
 334  564.2759
 335  632.7505
 336  566.6871
 337  446.8806
 338  347.6354
 339  420.084
 340  357.6701
 341  364.2741
 342  403.6952
 343  450.3483
 344  472.2589
 345  404.2433
 346  392.8557
 347  434.5214
 348  375.4279
 349  373.2033
 350  378.2861
 351  458.2715
 352  418.3074
 353  475.4029
 354  543.3541
 355  424.7419
 356  405.1245
 357  391.6779
 358  381.7086
 359  400.8109
 360  349.1114
 361  379.0394
 362  404.078
 363  320.5103
 364  388.115
 365  443.2942
 366  487.7125
 367  435.8652
 368  417.3178
 369  528.7895
 370  443.0369
 371  403.8304
 372  419.9356
 373  479.2277
 374  449.1747
 375  446.121
 376  465.4257
 377  280.0553
 378  307.0015
 379  417.0325
 380  356.2324
 381  359.1127
 382  364.9662
 383  448.5055
 384  432.7003
 385  465.8338
 386  420.6479
 387  353.1703
 388  428.9563
 389  391.3575
 390  375.9661
 391  428.2194
 392  438.7033
 393  331.2976
 394  403.2339
 395  537.87
 396  505.7141
 397  406.7944
 398  474.9899
 399  426.1696
 400  405.8781
 401  373.2644
 402  306.8303
 403  370.3849
 404  375.1219
 405  367.601
 406  309.8945
 407  393.7816
 408  359.9521
 409  403.7171
 410  377.542
 411  260.4372
 412  429.6769
 413  424.8635
 414  464.5285
 415  453.61
 416  504.533
 417  485.0747
 418  379.6461
 419  439.2326
 420  383.1487
 421  445.5722
 422  427.5829
 423  450.6543
 424  355.3221
 425  297.3039
 426  397.3142
 427  414.5873
 428  424.0988
 429  336.7054
 430  330.7334
 431  319.9694
 432  371.7322
 433  410.2518
 434  394.9682
 435  500.1644
 436  456.5716
 437  312.6551
 438  333.1475
 439  392.8148
 440  451.8399
 441  420.2041
 442  410.68
 443  354.6195
 444  383.4514
 445  423.3675
 446  389.6321
 447  330.1703
 448  408.3179
 449  408.5965
 450  391.6062
 451  358.597
 452  369.0025
 453  439.1853
 454  370.3488
 455  374.4023
 456  487.6024
 457  421.9522
 458  385.0515
 459  477.0156
 460  559.0881
 461  431.7415
 462  380.013
 463  519.0181
 464  488.4444
 465  447.563
 466  444.7669
 467  513.7211
 468  482.4367
 469  420.3189
 470  478.274
 471  505.9969
 472  479.2981
 473  552.3942
 474  413.1444
 475  347.1883
 476  480.7862
 477  556.7158
 478  503.8166
 479  471.382
 480  410.2383
 481  372.1517
 482  351.4276
 483  338.9592
 484  457.2386
 485  493.0902
 486  445.4866
 487  474.1385
 488  507.3401
 489  487.3136
 490  437.9936
 491  558.4584
 492  507.0153
 493  460.7816
 494  523.6529
 495  547.2367
 496  561.0815
 497  514.3117
 498  569.058
 499  544.7435
 500  530.3178
 501  484.5808
 502  351.009
 503  431.9838
 504  479.4755
 505  470.7909
 506  484.5134
 507  486.6691
 508  559.1302
 509  710.0319
 510  876.318
 511  937.3658
