# Input file       =  1200428131.111276_cleaned.dat
# Candidate        =  PSR_0332+5434
# Telescope        =  AR
# Epoch_topo       =  58137.844329991618
# Epoch_bary       =  N/A
# T_sample         =  0.002
# Data Folded      =  7340032
# Data Avg         =  0.0291574489999964
# Data StdDev      =  1.00016200712913 
# Profile Bins     =  512
# Profile Avg      =  418.025432340501 
# Profile StdDev   =  119.752433982251 
# Reduced chi-sqr  =  1.045
# Prob(Noise)      <  0.231   (~0.7 sigma)
# P_topo (ms)      =  714.57004936422   +/- 0.000541
# P'_topo (s/s)    =  -0                +/- 2.85e-10
# P''_topo (s/s^2) =  0                 +/- 1.26e-13
# P_bary (ms)      =  N/A
# P'_bary (s/s)    =  N/A
# P''_bary (s/s^2) =  N/A
# P_orb (s)        =  N/A
# asin(i)/c (s)    =  N/A
# eccentricity     =  N/A
# w (rad)          =  N/A
# T_peri           =  N/A
######################################################
   0  420.4195
   1  358.0205
   2  363.2088
   3  402.9067
   4  449.8007
   5  473.0347
   6  405.4392
   7  392.4723
   8  433.9823
   9  376.9951
  10  372.7398
  11  377.6754
  12  457.7208
  13  418.7971
  14  473.7473
  15  544.2457
  16  425.7376
  17  403.5676
  18  393.4709
  19  380.5026
  20  401.577
  21  349.8155
  22  378.4008
  23  404.1996
  24  320.5261
  25  387.4401
  26  441.6713
  27  488.6453
  28  435.8633
  29  417.3678
  30  529.3302
  31  443.6235
  32  403.9382
  33  420.1443
  34  477.5071
  35  449.744
  36  446.4117
  37  465.9268
  38  281.1502
  39  305.8271
  40  418.1026
  41  356.1201
  42  358.2194
  43  365.1682
  44  447.193
  45  433.3081
  46  465.5986
  47  422.0295
  48  352.5667
  49  428.3756
  50  392.7772
  51  374.7969
  52  428.8021
  53  437.8995
  54  333.1862
  55  400.8203
  56  536.4323
  57  507.4386
  58  407.5039
  59  474.519
  60  426.3855
  61  405.993
  62  373.7904
  63  306.7921
  64  369.8576
  65  375.5644
  66  368.4186
  67  309.4307
  68  393.2379
  69  359.537
  70  403.3529
  71  379.0337
  72  259.9878
  73  428.2017
  74  424.7153
  75  465.8207
  76  453.2543
  77  503.9267
  78  485.9583
  79  379.9995
  80  439.1224
  81  382.8548
  82  445.3892
  83  428.4634
  84  449.9898
  85  355.9922
  86  297.2207
  87  396.7446
  88  415.5797
  89  422.9826
  90  337.4077
  91  329.707
  92  321.0728
  93  371.3996
  94  409.7155
  95  394.8616
  96  499.4099
  97  458.5176
  98  312.7752
  99  332.8667
 100  391.8925
 101  451.8729
 102  420.8709
 103  409.5031
 104  354.8824
 105  383.4656
 106  422.5757
 107  391.1376
 108  328.6267
 109  409.5318
 110  407.9425
 111  393.5652
 112  358.3338
 113  367.2861
 114  439.0479
 115  372.512
 116  372.7674
 117  486.6819
 118  423.998
 119  383.6801
 120  475.9076
 121  559.3046
 122  433.1759
 123  379.0411
 124  518.5734
 125  489.3661
 126  448.6085
 127  443.8147
 128  512.9007
 129  483.0103
 130  420.4128
 131  477.5348
 132  506.472
 133  479.1867
 134  552.3333
 135  414.0571
 136  346.6952
 137  480.7523
 138  556.5328
 139  503.7382
 140  472.1429
 141  410.5773
 142  372.7832
 143  350.7562
 144  338.2643
 145  456.5455
 146  493.8071
 147  445.6371
 148  473.8163
 149  506.4905
 150  488.2043
 151  438.1546
 152  557.2141
 153  507.8387
 154  461.0226
 155  523.4702
 156  546.796
 157  561.1249
 158  514.1864
 159  568.4017
 160  546.2502
 161  529.626
 162  485.7282
 163  351.161
 164  431.2578
 165  478.9921
 166  471.7667
 167  484.356
 168  485.764
 169  557.8623
 170  708.9304
 171  875.4815
 172  936.5054
 173  864.3597
 174  633.7446
 175  532.6985
 176  481.0989
 177  490.8156
 178  633.9669
 179  576.6566
 180  503.3324
 181  582.4487
 182  415.825
 183  317.7243
 184  362.2936
 185  495.9617
 186  564.8275
 187  401.4474
 188  427.6728
 189  480.7032
 190  338.547
 191  286.7825
 192  320.9567
 193  452.0742
 194  389.6796
 195  386.3354
 196  525.2267
 197  635.8504
 198  462.1304
 199  533.9371
 200  566.6117
 201  614.0438
 202  522.0349
 203  375.3403
 204  491.6041
 205  535.7048
 206  492.2419
 207  475.1986
 208  350.8514
 209  430.6093
 210  423.0538
 211  371.1602
 212  461.2847
 213  582.7986
 214  476.0212
 215  439.7336
 216  360.1958
 217  303.7928
 218  336.2481
 219  389.3604
 220  356.4566
 221  410.8173
 222  482.165
 223  471.5205
 224  395.3484
 225  414.9555
 226  327.47
 227  271.4871
 228  342.3284
 229  445.1895
 230  513.4713
 231  482.9473
 232  431.158
 233  479.501
 234  402.8289
 235  356.4503
 236  374.6806
 237  504.8278
 238  550.5499
 239  502.6951
 240  371.6525
 241  308.4451
 242  372.9096
 243  450.3907
 244  405.6139
 245  363.8904
 246  300.8333
 247  317.8915
 248  370.6866
 249  425.1186
 250  520.1866
 251  458.1075
 252  398.7907
 253  256.7179
 254  300.3702
 255  310.2895
 256  372.7184
 257  510.963
 258  520.9147
 259  401.2128
 260  419.8064
 261  353.0792
 262  268.5344
 263  287.9937
 264  344.2376
 265  437.0854
 266  358.3286
 267  332.6876
 268  386.7474
 269  398.3017
 270  343.498
 271  314.2755
 272  331.0411
 273  317.8955
 274  272.7981
 275  303.2566
 276  289.4588
 277  379.0821
 278  367.8403
 279  357.6132
 280  288.4575
 281  417.3992
 282  393.6911
 283  297.8631
 284  362.888
 285  321.2132
 286  372.8905
 287  418.3477
 288  358.0912
 289  235.1823
 290  334.9635
 291  336.0681
 292  337.3875
 293  333.2354
 294  340.9855
 295  360.3501
 296  348.1307
 297  297.6199
 298  408.8992
 299  423.6635
 300  256.5844
 301  326.6066
 302  365.4152
 303  409.9689
 304  344.1187
 305  368.3322
 306  348.2096
 307  329.4441
 308  349.6488
 309  317.8236
 310  283.1029
 311  313.1537
 312  362.6572
 313  394.1194
 314  392.7659
 315  315.3173
 316  217.6922
 317  305.457
 318  412.3931
 319  333.117
 320  362.0686
 321  411.984
 322  390.8528
 323  341.3546
 324  343.0784
 325  406.4669
 326  319.9557
 327  310.2898
 328  313.9985
 329  353.7352
 330  428.035
 331  422.4079
 332  407.1917
 333  288.7415
 334  374.5859
 335  381.7415
 336  393.0522
 337  289.1106
 338  429.4434
 339  527.8234
 340  431.7918
 341  357.3835
 342  470.9951
 343  433.2077
 344  389.9147
 345  454.4303
 346  444.5294
 347  361.1655
 348  361.6387
 349  346.8266
 350  170.8597
 351  227.8112
 352  306.0533
 353  352.964
 354  280.9571
 355  358.232
 356  316.4993
 357  252.5425
 358  362.7536
 359  348.2289
 360  317.0176
 361  203.7628
 362  252.9997
 363  413.4684
 364  429.3929
 365  416.8582
 366  362.6181
 367  271.1104
 368  383.9176
 369  306.9225
 370  290.2099
 371  359.068
 372  464.1261
 373  552.8023
 374  549.1
 375  455.3185
 376  414.8569
 377  371.6143
 378  466.1072
 379  516.2563
 380  465.2725
 381  471.1974
 382  479.7692
 383  367.5907
 384  391.0966
 385  428.6205
 386  385.7301
 387  375.5811
 388  364.9525
 389  268.8186
 390  319.2457
 391  371.0678
 392  450.1181
 393  401.3156
 394  244.2361
 395  265.4096
 396  279.9174
 397  387.6191
 398  351.5993
 399  276.6096
 400  410.3257
 401  442.5455
 402  423.9623
 403  493.7733
 404  481.9736
 405  395.5794
 406  445.8388
 407  530.8434
 408  404.2638
 409  432.1268
 410  400.0258
 411  522.3105
 412  489.4279
 413  389.2973
 414  478.5165
 415  491.9847
 416  399.4414
 417  406.9657
 418  460.735
 419  598.8347
 420  591.2924
 421  496.9362
 422  511.7264
 423  558.8155
 424  646.1368
 425  528.4559
 426  425.5573
 427  372.8133
 428  496.6307
 429  567.6565
 430  536.4581
 431  520.7859
 432  594.9254
 433  603.3101
 434  406.8867
 435  369.3903
 436  539.5987
 437  425.0623
 438  418.7188
 439  469.2587
 440  427.0755
 441  353.4309
 442  388.0042
 443  488.3753
 444  506.8688
 445  353.8105
 446  282.102
 447  292.2773
 448  321.3455
 449  425.339
 450  484.9174
 451  498.2606
 452  506.7651
 453  452.3257
 454  456.6248
 455  395.9185
 456  402.5738
 457  481.7224
 458  417.5488
 459  459.9394
 460  459.5305
 461  446.4129
 462  370.5206
 463  411.957
 464  389.6258
 465  455.8732
 466  570.2664
 467  610.106
 468  507.3689
 469  428.5806
 470  396.0076
 471  405.843
 472  454.9077
 473  360.2519
 474  350.1988
 475  446.8215
 476  439.6472
 477  480.8484
 478  419.0903
 479  510.708
 480  407.0209
 481  484.7038
 482  489.4062
 483  502.6859
 484  439.8948
 485  393.9189
 486  411.1034
 487  385.39
 488  334.3386
 489  427.8946
 490  460.5711
 491  368.3577
 492  455.2755
 493  491.9891
 494  413.6125
 495  314.3873
 496  370.7971
 497  448.065
 498  305.701
 499  412.5454
 500  413.453
 501  425.5876
 502  384.1971
 503  428.6434
 504  406.3318
 505  548.8857
 506  568.9026
 507  563.8024
 508  632.527
 509  567.4991
 510  447.9233
 511  347.9851
