# Input file       =  1200312473.104338-PSRB0329-2ms-sampling-dd.dat
# Candidate        =  PSR_0332+5434
# Telescope        =  AR
# Epoch_topo       =  58136.505695652057
# Epoch_bary       =  N/A
# T_sample         =  0.002
# Data Folded      =  7143424
# Data Avg         =  1.50877762826319e-09
# Data StdDev      =  9.54004884415819 
# Profile Bins     =  512
# Profile Avg      =  0.218734139127897
# Profile StdDev   =  1126.85706535984 
# Reduced chi-sqr  =  0.908
# Prob(Noise)      <  0.932   (~0.0 sigma)
# P_topo (ms)      =  714.568867796644  +/- 5.42e-05
# P'_topo (s/s)    =  -0                +/- 2.94e-11
# P''_topo (s/s^2) =  0                 +/- 1.33e-14
# P_bary (ms)      =  N/A
# P'_bary (s/s)    =  N/A
# P''_bary (s/s^2) =  N/A
# P_orb (s)        =  N/A
# asin(i)/c (s)    =  N/A
# eccentricity     =  N/A
# w (rad)          =  N/A
# T_peri           =  N/A
######################################################
   0  -1115.814
   1  -745.4333
   2  -618.8541
   3  -703.5437
   4  -322.9057
   5  391.5917
   6  662.456
   7  1049.159
   8  1014.885
   9  1089.818
  10  455.7162
  11  -367.6471
  12  -351.9586
  13  1304.735
  14  2065.699
  15  1091.19
  16  289.1296
  17  69.55219
  18  -326.5933
  19  -617.3229
  20  580.2192
  21  2074.517
  22  2852.141
  23  2545.972
  24  1460.373
  25  -66.33661
  26  314.9378
  27  -73.8933
  28  1585.665
  29  1502.88
  30  1465.903
  31  665.1216
  32  -901.071
  33  -1154.286
  34  -570.8222
  35  134.7693
  36  711.9612
  37  1112.374
  38  1198.987
  39  618.3843
  40  -201.0437
  41  -622.0541
  42  -661.2419
  43  -429.103
  44  245.9827
  45  397.2186
  46  797.5414
  47  705.4316
  48  -624.1945
  49  -873.7171
  50  -444.686
  51  -236.4304
  52  -91.69879
  53  78.18565
  54  641.6569
  55  275.9006
  56  -205.6655
  57  -1015.143
  58  -992.4932
  59  -647.2001
  60  -686.7036
  61  -753.1161
  62  -233.1879
  63  150.0895
  64  -76.62771
  65  -634.5153
  66  -1037.375
  67  -169.7376
  68  54.2821
  69  88.47733
  70  261.5193
  71  564.778
  72  489.7014
  73  -364.0627
  74  -328.785
  75  -405.4306
  76  -5.406996
  77  -183.9537
  78  -620.7933
  79  -356.8364
  80  -438.5441
  81  -769.9553
  82  -1338.995
  83  -1070.367
  84  -807.2805
  85  -982.2425
  86  -569.9511
  87  164.5553
  88  651.1758
  89  569.9451
  90  -682.2485
  91  -924.4357
  92  -739.7456
  93  -662.9677
  94  -559.8901
  95  136.7136
  96  660.2405
  97  486.7918
  98  -107.838
  99  -743.2098
 100  -85.86845
 101  -0.8330454
 102  701.049
 103  621.928
 104  459.4111
 105  446.6939
 106  -62.49522
 107  -448.1455
 108  -539.5645
 109  23.82316
 110  193.5006
 111  669.7329
 112  985.1154
 113  556.5539
 114  259.3847
 115  -383.7169
 116  236.7065
 117  1470.869
 118  1528.854
 119  1972.32
 120  1887.674
 121  1126.731
 122  482.4009
 123  -406.2682
 124  -652.4564
 125  -185.9809
 126  -669.1766
 127  -795.6776
 128  -331.4524
 129  30.03447
 130  -97.21296
 131  -551.1025
 132  -648.7142
 133  -916.8904
 134  -966.7028
 135  -572.7067
 136  343.9393
 137  836.8718
 138  769.3527
 139  -61.38013
 140  -641.7969
 141  14.29482
 142  468.5206
 143  384.5487
 144  550.3151
 145  479.157
 146  400.5218
 147  268.9819
 148  -187.6149
 149  660.0365
 150  589.1215
 151  162.5218
 152  -260.6102
 153  231.5693
 154  598.9697
 155  866.9586
 156  110.2058
 157  -663.1244
 158  280.7562
 159  332.8758
 160  -88.60538
 161  484.1628
 162  1023.76
 163  852.757
 164  635.6788
 165  738.1092
 166  1354.782
 167  1389.751
 168  1220.824
 169  1619.332
 170  1647.088
 171  1127.184
 172  619.4922
 173  31.48308
 174  393.0222
 175  212.0098
 176  97.89599
 177  -729.947
 178  -560.7808
 179  210.0892
 180  110.0037
 181  -157.8893
 182  -347.7057
 183  -478.0157
 184  -860.5225
 185  -752.4271
 186  -239.9386
 187  370.6531
 188  84.35869
 189  -738.8817
 190  -901.5787
 191  -898.3076
 192  -1375.797
 193  -1261.781
 194  -1104.963
 195  -301.9366
 196  -681.0998
 197  -1180.701
 198  -809.9479
 199  13.63052
 200  537.6962
 201  417.3888
 202  702.983
 203  582.6573
 204  648.7264
 205  322.9101
 206  458.6743
 207  480.8839
 208  748.0583
 209  360.7367
 210  -251.8122
 211  245.5914
 212  368.2622
 213  125.5946
 214  7.369125
 215  191.6405
 216  721.3378
 217  -219.6041
 218  -65.86492
 219  547.7414
 220  432.0485
 221  473.3666
 222  28.64622
 223  148.1522
 224  918.8465
 225  1050.608
 226  848.4492
 227  732.6765
 228  1068.386
 229  650.446
 230  -799.2565
 231  -22.2805
 232  569.043
 233  440.9367
 234  343.4688
 235  1178.735
 236  1297.063
 237  1135.339
 238  649.2531
 239  360.6289
 240  184.5645
 241  47.01424
 242  -4.651139
 243  -219.9361
 244  591.7724
 245  649.6476
 246  241.3092
 247  -515.5029
 248  -387.4052
 249  319.877
 250  222.1388
 251  552.6236
 252  853.2014
 253  1151.486
 254  621.9169
 255  -20.23322
 256  -211.5922
 257  28.24666
 258  115.0851
 259  -83.17861
 260  -197.3596
 261  -198.0309
 262  -155.2392
 263  -460.2639
 264  -431.5838
 265  56.20893
 266  -105.4438
 267  -51.23447
 268  36.8082
 269  821.207
 270  603.9597
 271  -105.573
 272  -200.8842
 273  50.0347
 274  725.6359
 275  36.85168
 276  33.00975
 277  197.3976
 278  447.444
 279  -8.03069
 280  -105.6307
 281  331.5059
 282  1133.894
 283  1356.92
 284  1587.947
 285  1803.615
 286  1791.836
 287  1412.755
 288  1686.011
 289  1950.415
 290  2367.173
 291  3185.93
 292  1396.313
 293  1261.823
 294  1895.747
 295  721.391
 296  149.5456
 297  -330.2956
 298  -398.326
 299  -545.693
 300  -334.6031
 301  1027.299
 302  1220.474
 303  1272.793
 304  563.001
 305  -527.7577
 306  -1105.559
 307  -408.7592
 308  404.3186
 309  1086.922
 310  1600.703
 311  1400.253
 312  327.1725
 313  -933.0712
 314  -673.7864
 315  -419.7984
 316  232.6019
 317  256.3804
 318  128.8665
 319  234.1587
 320  -121.1539
 321  -467.4268
 322  -758.8464
 323  -863.7479
 324  -969.368
 325  -1087.788
 326  -680.2424
 327  -212.2769
 328  -134.2642
 329  -762.8853
 330  -957.2606
 331  -485.2842
 332  -258.8826
 333  -353.9924
 334  -167.9608
 335  586.1505
 336  868.8582
 337  510.0645
 338  -176.9033
 339  -93.65829
 340  -323.6297
 341  -428.54
 342  43.41065
 343  590.8355
 344  487.4164
 345  176.5
 346  -185.7019
 347  -505.382
 348  150.5841
 349  16.40608
 350  319.0089
 351  850.9539
 352  801.0115
 353  -280.7335
 354  -642.8313
 355  -824.413
 356  -127.3008
 357  79.80163
 358  -248.2269
 359  -497.3919
 360  -264.2099
 361  -734.606
 362  -940.1591
 363  -1281.864
 364  -728.312
 365  -438.6582
 366  -253.707
 367  230.2614
 368  65.62623
 369  30.98909
 370  -180.5146
 371  -1040.277
 372  -992.9747
 373  -626.2243
 374  -621.9548
 375  -876.3481
 376  -94.05725
 377  303.2473
 378  152.631
 379  -646.2079
 380  -995.3973
 381  -841.6219
 382  -907.9458
 383  -1.933435
 384  350.3857
 385  1068.255
 386  279.0975
 387  -255.4309
 388  -663.3626
 389  -1226.761
 390  -1103.98
 391  -741.0881
 392  97.37958
 393  1.693442
 394  -255.608
 395  -611.4386
 396  -786.5165
 397  -686.7217
 398  161.4866
 399  275.1414
 400  380.4941
 401  646.161
 402  686.2648
 403  462.847
 404  -893.0756
 405  -653.7568
 406  -607.6779
 407  -583.2169
 408  -336.7844
 409  947.1176
 410  822.3892
 411  -25.16382
 412  -540.5749
 413  -747.7291
 414  -317.9063
 415  78.75189
 416  994.8093
 417  1368.504
 418  1000.803
 419  543.312
 420  64.88407
 421  -569.8978
 422  -616.7822
 423  -155.1972
 424  292.0361
 425  110.2244
 426  536.4153
 427  614.9124
 428  -7.879252
 429  -109.0754
 430  64.81284
 431  707.2116
 432  569.7172
 433  516.5239
 434  734.915
 435  1183.574
 436  628.346
 437  -292.6309
 438  -886.9506
 439  -438.4827
 440  -551.4797
 441  -650.2233
 442  -315.9171
 443  -1.284664
 444  24.62598
 445  -680.408
 446  -930.3026
 447  -1163.806
 448  -1071.58
 449  -522.5275
 450  145.7182
 451  5.708278
 452  -217.9058
 453  -992.9097
 454  -1640.978
 455  -1560.192
 456  -1429.441
 457  -996.7478
 458  -964.3531
 459  -340.057
 460  -190.039
 461  -1114.617
 462  -1990.584
 463  -1717.542
 464  -1500.536
 465  -1157.928
 466  19.94529
 467  107.1101
 468  -81.24123
 469  -683.2722
 470  -1827.632
 471  -1492.012
 472  -608.8939
 473  -670.0184
 474  -818.1086
 475  -695.5906
 476  -636.4829
 477  -1103.779
 478  -1441.948
 479  -1211.795
 480  -751.4559
 481  -438.7452
 482  -229.1476
 483  -83.46094
 484  44.33686
 485  -299.969
 486  -918.7974
 487  -1322.241
 488  -1271.4
 489  -1086.149
 490  -960.5902
 491  -585.9167
 492  -51.89461
 493  -775.3291
 494  -1622.558
 495  -1865.433
 496  -1199.827
 497  -674.8196
 498  -307.0892
 499  -127.1462
 500  -64.95904
 501  25.67569
 502  -522.9561
 503  -945.2717
 504  -992.2265
 505  -430.5393
 506  -268.5524
 507  -558.8043
 508  110.8259
 509  133.6148
 510  -243.2815
 511  -992.6712
