# Input file       =  1200930286.110481_cleaned.dat
# Candidate        =  PSR_0332+5434
# Telescope        =  AR
# Epoch_topo       =  58143.656309149083
# Epoch_bary       =  N/A
# T_sample         =  0.002
# Data Folded      =  7340032
# Data Avg         =  0.0159301739583522
# Data StdDev      =  1.00005718525943 
# Profile Bins     =  512
# Profile Avg      =  228.542885460047 
# Profile StdDev   =  119.739883341513 
# Reduced chi-sqr  =  1.300
# Prob(Noise)      <  5.21e-06   (~4.4 sigma)
# P_topo (ms)      =  714.572976891912  +/- 0.000189
# P'_topo (s/s)    =  -0                +/- 9.99e-11
# P''_topo (s/s^2) =  0                 +/- 4.41e-14
# P_bary (ms)      =  N/A
# P'_bary (s/s)    =  N/A
# P''_bary (s/s^2) =  N/A
# P_orb (s)        =  N/A
# asin(i)/c (s)    =  N/A
# eccentricity     =  N/A
# w (rad)          =  N/A
# T_peri           =  N/A
######################################################
   0  835.4263
   1  798.3748
   2  570.9604
   3  365.6416
   4  345.7241
   5  257.4265
   6  167.0001
   7  302.6689
   8  336.39
   9  267.9607
  10  221.4904
  11  216.3085
  12  112.4715
  13  144.143
  14  240.0883
  15  303.3177
  16  253.5883
  17  202.7408
  18  277.1908
  19  246.7329
  20  236.5412
  21  289.355
  22  288.4188
  23  232.7543
  24  201.0397
  25  193.9758
  26  245.3628
  27  169.6442
  28  78.22517
  29  166.7856
  30  438.1323
  31  403.5621
  32  256.1105
  33  131.6972
  34  253.8978
  35  250.2644
  36  325.1414
  37  302.3222
  38  243.5902
  39  244.3451
  40  194.4853
  41  270.9944
  42  304.4219
  43  241.2904
  44  218.027
  45  261.7412
  46  289.3741
  47  304.5793
  48  307.4759
  49  272.3209
  50  355.1356
  51  274.35
  52  180.3699
  53  95.93374
  54  145.1818
  55  270.2125
  56  295.0369
  57  241.9199
  58  203.3621
  59  307.8904
  60  163.3793
  61  177.4273
  62  192.6075
  63  170.1286
  64  207.5074
  65  173.6029
  66  162.4699
  67  220.2048
  68  268.1328
  69  189.9253
  70  148.5139
  71  219.3168
  72  231.8202
  73  135.0546
  74  276.5468
  75  161.5807
  76  111.453
  77  93.59878
  78  173.5025
  79  225.0885
  80  179.4951
  81  236.7014
  82  189.9959
  83  61.09327
  84  -11.42375
  85  97.88498
  86  317.8462
  87  321.775
  88  216.9202
  89  314.0699
  90  230.0342
  91  155.5427
  92  163.6159
  93  165.4662
  94  203.2166
  95  164.459
  96  202.8173
  97  213.0958
  98  -48.7342
  99  116.623
 100  134.8053
 101  80.50817
 102  96.04426
 103  229.0027
 104  304.3526
 105  268.8902
 106  306.5596
 107  204.1275
 108  268.8447
 109  145.7369
 110  45.6282
 111  76.22045
 112  166.7063
 113  153.4751
 114  143.9666
 115  125.8131
 116  278.9602
 117  206.2074
 118  227.659
 119  224.4988
 120  198.6065
 121  231.4465
 122  259.7737
 123  304.9019
 124  280.4774
 125  171.0438
 126  194.4917
 127  174.8555
 128  170.3742
 129  234.382
 130  211.4093
 131  248.9586
 132  137.2001
 133  134.0641
 134  231.1042
 135  207.9671
 136  237.9409
 137  267.2213
 138  227.5785
 139  254.0449
 140  168.2533
 141  161.4784
 142  120.084
 143  211.1621
 144  105.6259
 145  158.9015
 146  198.4784
 147  101.2013
 148  136.6825
 149  213.1842
 150  162.5458
 151  163.6714
 152  156.3335
 153  152.5662
 154  142.8383
 155  205.0896
 156  244.4544
 157  256.4299
 158  202.2605
 159  279.7472
 160  361.3753
 161  205.0477
 162  296.3322
 163  367.6237
 164  325.1096
 165  327.9948
 166  416.9948
 167  384.4905
 168  290.326
 169  321.6002
 170  293.3135
 171  385.8538
 172  439.42
 173  341.2729
 174  215.1059
 175  196.6946
 176  263.4626
 177  285.8828
 178  289.775
 179  292.0546
 180  193.8711
 181  146.9675
 182  192.8935
 183  286.7142
 184  181.6552
 185  130.5164
 186  184.3764
 187  179.9673
 188  236.7132
 189  221.9443
 190  235.6486
 191  237.5698
 192  215.5785
 193  339.3633
 194  457.751
 195  412.328
 196  283.8121
 197  345.4754
 198  280.0338
 199  276.2808
 200  207.8845
 201  288.2721
 202  199.4051
 203  215.0091
 204  301.9348
 205  310.3452
 206  257.3461
 207  308.7939
 208  301.2909
 209  284.5419
 210  283.7029
 211  268.9534
 212  204.4267
 213  194.9088
 214  262.1393
 215  345.3866
 216  415.4378
 217  392.6298
 218  258.1893
 219  143.9564
 220  153.7563
 221  239.6989
 222  184.7119
 223  152.5401
 224  154.9655
 225  190.6856
 226  197.7123
 227  283.652
 228  249.5962
 229  280.2321
 230  114.0877
 231  236.0177
 232  279.3046
 233  104.7897
 234  93.64989
 235  257.7297
 236  335.7221
 237  261.4194
 238  356.6889
 239  284.6979
 240  208.2532
 241  134.039
 242  157.7726
 243  39.19354
 244  174.2154
 245  279.0666
 246  220.9713
 247  224.1554
 248  175.3237
 249  102.8407
 250  195.0354
 251  137.9681
 252  145.4144
 253  139.4908
 254  102.9189
 255  128.5939
 256  199.1324
 257  126.7515
 258  99.97897
 259  114.9344
 260  246.9352
 261  218.4317
 262  103.3939
 263  167.3903
 264  226.729
 265  228.9085
 266  130.4099
 267  154.8772
 268  211.149
 269  225.2807
 270  278.5956
 271  234.5571
 272  264.5623
 273  212.6109
 274  216.1978
 275  216.1342
 276  162.9318
 277  188.1964
 278  119.1311
 279  70.0946
 280  158.7544
 281  252.7271
 282  189.0154
 283  202.0535
 284  177.7378
 285  94.94386
 286  23.9323
 287  44.16864
 288  88.6478
 289  214.4793
 290  178.3556
 291  93.93253
 292  182.5393
 293  103.4529
 294  57.03629
 295  41.59966
 296  51.25319
 297  115.9867
 298  275.3826
 299  361.0505
 300  219.3831
 301  67.84515
 302  90.6547
 303  131.0729
 304  100.5753
 305  216.3925
 306  222.9895
 307  244.4245
 308  125.7948
 309  191.3427
 310  121.2676
 311  44.49522
 312  107.5195
 313  141.7122
 314  214.1887
 315  131.5096
 316  235.0343
 317  278.2479
 318  225.6457
 319  169.9582
 320  123.6833
 321  159.2631
 322  233.5112
 323  200.8005
 324  195.2954
 325  161.8037
 326  176.7744
 327  209.1263
 328  167.9444
 329  332.7987
 330  355.1533
 331  209.2563
 332  274.2706
 333  232.4732
 334  155.1799
 335  274.8237
 336  180.1995
 337  140.7048
 338  235.9497
 339  255.244
 340  452.1266
 341  241.0849
 342  200.2721
 343  149.5789
 344  157.1387
 345  233.5368
 346  232.5159
 347  229.8307
 348  244.4409
 349  134.0311
 350  51.55742
 351  179.4018
 352  274.2328
 353  256.9338
 354  237.2008
 355  132.6108
 356  181.6236
 357  209.1943
 358  145.6111
 359  172.2964
 360  212.2531
 361  273.1189
 362  231.2803
 363  265.1801
 364  266.8745
 365  280.5972
 366  282.5836
 367  214.7089
 368  262.4192
 369  293.1823
 370  275.8201
 371  229.5288
 372  264.3654
 373  318.6701
 374  227.549
 375  250.3051
 376  302.5124
 377  299.8408
 378  274.2382
 379  314.7119
 380  276.8885
 381  342.2751
 382  296.2042
 383  162.2625
 384  263.0977
 385  319.7217
 386  232.86
 387  279.2858
 388  307.5927
 389  240.6346
 390  278.6227
 391  197.8659
 392  121.732
 393  114.4514
 394  267.7974
 395  379.1792
 396  347.0688
 397  256.8639
 398  227.56
 399  274.9577
 400  213.1626
 401  245.6722
 402  370.4777
 403  248.1981
 404  153.2966
 405  129.0673
 406  147.7498
 407  183.7377
 408  314.4046
 409  371.6346
 410  165.3349
 411  228.1145
 412  197.6021
 413  198.4917
 414  300.0059
 415  335.1435
 416  301.3145
 417  332.0283
 418  251.0117
 419  226.8041
 420  235.6188
 421  323.6708
 422  382.2032
 423  308.1156
 424  183.7255
 425  119.9773
 426  304.3017
 427  334.9243
 428  242.7172
 429  220.442
 430  142.7011
 431  127.2272
 432  299.4928
 433  324.2555
 434  265.3329
 435  223.8424
 436  245.9663
 437  249.4212
 438  265.6174
 439  324.4015
 440  346.9592
 441  233.5508
 442  192.3262
 443  247.0107
 444  243.7528
 445  175.6825
 446  146.2133
 447  220.209
 448  283.7884
 449  252.2335
 450  217.8438
 451  224.4675
 452  253.7187
 453  297.9879
 454  245.5706
 455  196.9304
 456  155.0638
 457  119.9909
 458  190.081
 459  249.0768
 460  240.8299
 461  230.4573
 462  155.684
 463  134.9231
 464  129.2866
 465  200.9925
 466  184.1537
 467  160.6796
 468  346.0645
 469  314.6706
 470  216.9075
 471  179.5995
 472  328.698
 473  143.0927
 474  136.8919
 475  224.3758
 476  144.7553
 477  192.6582
 478  240.5313
 479  242.4956
 480  231.8002
 481  66.48149
 482  190.029
 483  400.4934
 484  340.8112
 485  150.5655
 486  165.0168
 487  192.7778
 488  160.6882
 489  244.7534
 490  175.7375
 491  236.9988
 492  247.0349
 493  312.915
 494  339.5874
 495  309.2099
 496  235.9432
 497  241.7654
 498  317.3946
 499  354.485
 500  311.7051
 501  227.9814
 502  242.7454
 503  182.4909
 504  273.2359
 505  257.5878
 506  247.811
 507  318.0031
 508  392.8785
 509  629.1683
 510  921.7665
 511  885.3611
