# Input file       =  1200829442.095395_cleaned.dat
# Candidate        =  PSR_0332+5434
# Telescope        =  AR
# Epoch_topo       =  58142.489133048555
# Epoch_bary       =  N/A
# T_sample         =  0.002
# Data Folded      =  7405568
# Data Avg         =  0.0106891153941909
# Data StdDev      =  1.00007021084605 
# Profile Bins     =  512
# Profile Avg      =  154.617022787624 
# Profile StdDev   =  120.274815030644 
# Reduced chi-sqr  =  1.660
# Prob(Noise)      <  3.81e-19   (~8.9 sigma)
# P_topo (ms)      =  714.572351485492  +/- 0.000147
# P'_topo (s/s)    =  -0                +/- 7.68e-11
# P''_topo (s/s^2) =  0                 +/- 3.36e-14
# P_bary (ms)      =  N/A
# P'_bary (s/s)    =  N/A
# P''_bary (s/s^2) =  N/A
# P_orb (s)        =  N/A
# asin(i)/c (s)    =  N/A
# eccentricity     =  N/A
# w (rad)          =  N/A
# T_peri           =  N/A
######################################################
   0  99.08997
   1  114.6377
   2  18.1415
   3  109.4345
   4  231.3478
   5  76.39141
   6  71.27299
   7  42.62941
   8  141.7374
   9  173.1431
  10  236.9272
  11  150.1998
  12  68.72186
  13  136.8076
  14  86.83898
  15  183.7311
  16  234.0489
  17  125.3867
  18  106.18
  19  184.9721
  20  179.9861
  21  83.65082
  22  -20.51698
  23  122.4145
  24  180.5628
  25  84.72396
  26  -21.46229
  27  -20.0847
  28  80.4272
  29  194.3333
  30  350.7497
  31  187.9315
  32  170.5558
  33  285.3069
  34  268.6701
  35  279.6412
  36  144.4781
  37  184.1749
  38  102.2286
  39  133.116
  40  162.3903
  41  78.52864
  42  74.97694
  43  99.33485
  44  143.3388
  45  204.9487
  46  88.82452
  47  134.0647
  48  143.8979
  49  69.13802
  50  58.77293
  51  141.2506
  52  208.8138
  53  201.5799
  54  159.9275
  55  66.85959
  56  97.06509
  57  205.5811
  58  47.36308
  59  53.19139
  60  19.0937
  61  84.79217
  62  198.4159
  63  38.88428
  64  -72.89873
  65  112.4826
  66  36.59102
  67  85.42129
  68  47.63959
  69  49.68631
  70  42.2167
  71  -26.53882
  72  126.0926
  73  185.8878
  74  118.4886
  75  130.4658
  76  43.24345
  77  132.9883
  78  304.0999
  79  225.5756
  80  346.1257
  81  260.0981
  82  234.6737
  83  78.15807
  84  117.428
  85  158.9499
  86  84.49228
  87  110.4125
  88  152.6558
  89  254.5868
  90  154.457
  91  132.7814
  92  201.7211
  93  152.0085
  94  185.0967
  95  211.881
  96  151.9446
  97  262.7245
  98  203.6536
  99  128.3108
 100  209.4634
 101  245.4856
 102  165.3545
 103  160.7572
 104  56.27356
 105  -12.45331
 106  75.20118
 107  146.6732
 108  109.763
 109  78.45645
 110  161.0007
 111  264.45
 112  293.5814
 113  111.008
 114  -13.86961
 115  139.0279
 116  160.1734
 117  139.8532
 118  188.7478
 119  339.4658
 120  155.6732
 121  52.6587
 122  135.2237
 123  152.3834
 124  147.575
 125  99.71694
 126  101.4116
 127  230.9595
 128  262.7154
 129  181.0415
 130  178.0379
 131  157.6471
 132  137.1429
 133  167.3177
 134  25.16931
 135  10.08717
 136  49.19773
 137  49.35763
 138  53.98214
 139  96.86855
 140  110.8717
 141  166.7922
 142  226.6032
 143  214.4766
 144  214.1421
 145  118.1365
 146  306.0808
 147  300.5599
 148  230.0018
 149  236.0257
 150  206.5745
 151  177.7008
 152  121.1041
 153  161.0003
 154  92.28823
 155  61.79824
 156  95.44002
 157  69.14214
 158  49.29752
 159  294.1101
 160  298.7281
 161  197.2606
 162  127.755
 163  83.42962
 164  315.0112
 165  235.9633
 166  103.1942
 167  91.72901
 168  -32.20324
 169  85.88891
 170  121.5437
 171  184.2606
 172  159.0548
 173  15.89407
 174  -22.92422
 175  135.1739
 176  79.20197
 177  183.4572
 178  210.3915
 179  193.0076
 180  328.0444
 181  282.0783
 182  194.3044
 183  45.10015
 184  49.62345
 185  297.0866
 186  358.4261
 187  328.133
 188  261.6089
 189  127.7237
 190  136.853
 191  111.4816
 192  -32.04091
 193  -58.73385
 194  221.2418
 195  157.2783
 196  2.504825
 197  95.03655
 198  139.1494
 199  69.74947
 200  67.41309
 201  168.6828
 202  212.8924
 203  79.70151
 204  104.5808
 205  110.6067
 206  152.4452
 207  235.2858
 208  64.87827
 209  36.85284
 210  110.2669
 211  92.43192
 212  170.5536
 213  168.5059
 214  205.2141
 215  310.3057
 216  167.4439
 217  66.62076
 218  95.5393
 219  149.1115
 220  137.558
 221  14.39114
 222  81.29391
 223  128.1435
 224  112.4525
 225  -36.52264
 226  13.22913
 227  57.90486
 228  66.16704
 229  181.7675
 230  135.2644
 231  137.3158
 232  226.9204
 233  222.9832
 234  93.61921
 235  6.163772
 236  160.1197
 237  260.1462
 238  161.1294
 239  75.96275
 240  154.2678
 241  173.0456
 242  136.8737
 243  216.4692
 244  212.0562
 245  209.9371
 246  162.0343
 247  276.4247
 248  250.3585
 249  116.566
 250  74.28616
 251  209.4899
 252  295.2591
 253  236.4069
 254  103.5501
 255  61.98268
 256  13.68596
 257  48.18624
 258  102.8529
 259  14.40219
 260  131.0146
 261  189.9186
 262  361.0139
 263  241.2022
 264  79.05903
 265  100.4282
 266  176.2293
 267  281.9342
 268  191.229
 269  77.59221
 270  79.37321
 271  231.5303
 272  357.8772
 273  162.7789
 274  154.1756
 275  264.0995
 276  237.7341
 277  191.0555
 278  272.3889
 279  320.5193
 280  214.4974
 281  193.7047
 282  190.0939
 283  260.9666
 284  242.346
 285  311.8647
 286  236.3421
 287  221.111
 288  292.0139
 289  268.9821
 290  478.5386
 291  681.9233
 292  857.4559
 293  887.736
 294  779.7582
 295  693.6918
 296  601.1816
 297  453.4443
 298  276.2829
 299  305.2701
 300  318.5824
 301  352.1262
 302  268.8988
 303  144.1059
 304  377.3088
 305  294.7389
 306  246.7922
 307  197.5512
 308  256.8547
 309  223.6265
 310  305.1685
 311  365.8682
 312  288.6714
 313  123.6465
 314  233.8721
 315  287.6927
 316  132.095
 317  232.3932
 318  228.3936
 319  119.4721
 320  93.45376
 321  226.086
 322  265.9985
 323  217.5146
 324  198.7112
 325  210.5498
 326  162.5464
 327  127.2843
 328  162.2177
 329  139.3158
 330  151.2621
 331  149.8626
 332  160.5779
 333  219.8555
 334  196.393
 335  89.09695
 336  181.3784
 337  188.4446
 338  104.0482
 339  182.4206
 340  240.3777
 341  400.0122
 342  272.5932
 343  136.9743
 344  160.0983
 345  190.0154
 346  143.444
 347  100.0267
 348  194.0278
 349  208.8036
 350  282.1893
 351  135.9511
 352  117.9982
 353  146.0872
 354  103.1701
 355  70.78776
 356  -5.871603
 357  92.84576
 358  232.8263
 359  177.9327
 360  128.2972
 361  241.1576
 362  270.6051
 363  224.3911
 364  190.9784
 365  239.1479
 366  95.19859
 367  21.87816
 368  -101.3132
 369  -29.54894
 370  44.95628
 371  3.057625
 372  157.3434
 373  109.0244
 374  102.8225
 375  216.0721
 376  253.6125
 377  158.9841
 378  89.35798
 379  133.9508
 380  92.90276
 381  191.3824
 382  245.1777
 383  175.8045
 384  49.37483
 385  216.2977
 386  223.3712
 387  53.15419
 388  -85.11496
 389  28.80072
 390  46.58245
 391  77.98491
 392  176.8412
 393  207.2335
 394  120.4438
 395  84.55818
 396  56.49243
 397  121.9713
 398  180.5606
 399  38.06322
 400  -23.44639
 401  32.57745
 402  19.72631
 403  136.0812
 404  64.39303
 405  99.10874
 406  115.3517
 407  71.29044
 408  204.1731
 409  118.0583
 410  104.1822
 411  194.987
 412  215.5218
 413  262.0736
 414  108.4421
 415  38.73311
 416  72.04979
 417  4.326376
 418  67.34034
 419  241.1669
 420  98.81904
 421  164.2983
 422  188.1524
 423  105.352
 424  140.2177
 425  252.3639
 426  220.287
 427  231.2262
 428  192.927
 429  191.1024
 430  172.69
 431  82.88412
 432  32.4641
 433  50.22932
 434  106.7442
 435  205.5951
 436  112.9772
 437  44.24056
 438  134.8807
 439  164.1256
 440  26.68218
 441  40.224
 442  92.24441
 443  267.5999
 444  171.6608
 445  118.8778
 446  160.4268
 447  155.3211
 448  73.68894
 449  -21.25262
 450  -6.475366
 451  -24.51564
 452  -63.20778
 453  113.2678
 454  160.9326
 455  96.45061
 456  79.82821
 457  65.27534
 458  30.90655
 459  58.21585
 460  107.607
 461  168.799
 462  178.237
 463  170.2821
 464  214.3519
 465  192.3992
 466  165.4821
 467  45.51114
 468  16.05496
 469  155.7717
 470  110.5113
 471  117.3899
 472  211.7107
 473  210.0451
 474  173.605
 475  198.4386
 476  236.5759
 477  53.01194
 478  78.11794
 479  319.0294
 480  185.7696
 481  58.17458
 482  181.3038
 483  31.42601
 484  113.6696
 485  111.6699
 486  31.12137
 487  45.95277
 488  38.7971
 489  -48.69838
 490  51.45278
 491  137.4374
 492  53.71805
 493  16.94923
 494  -46.81002
 495  -13.68189
 496  230.2456
 497  192.7553
 498  34.40085
 499  -69.04375
 500  155.9039
 501  275.0276
 502  204.0052
 503  205.9265
 504  107.1359
 505  95.27747
 506  299.6158
 507  160.509
 508  202.6364
 509  342.7598
 510  218.5807
 511  241.9122
