# Input file       =  1200154712.110376-PSRB0329-2ms-sampling-dd.dat
# Candidate        =  PSR_0332+5434
# Telescope        =  AR
# Epoch_topo       =  58134.679758221944
# Epoch_bary       =  N/A
# T_sample         =  0.002
# Data Folded      =  7340032
# Data Avg         =  -7.63936281018768e-09
# Data StdDev      =  264.274518454421 
# Profile Bins     =  512
# Profile Avg      =  2.49739695635092 
# Profile StdDev   =  31642.3905315556 
# Reduced chi-sqr  =  1.262
# Prob(Noise)      <  5.03e-05   (~3.9 sigma)
# P_topo (ms)      =  714.56770546189   +/- 0.000564
# P'_topo (s/s)    =  -0                +/- 2.97e-10
# P''_topo (s/s^2) =  0                 +/- 1.31e-13
# P_bary (ms)      =  N/A
# P'_bary (s/s)    =  N/A
# P''_bary (s/s^2) =  N/A
# P_orb (s)        =  N/A
# asin(i)/c (s)    =  N/A
# eccentricity     =  N/A
# w (rad)          =  N/A
# T_peri           =  N/A
######################################################
   0  -4759.083
   1  -4760.752
   2  -6225.071
   3  -5754.494
   4  -5285.885
   5  -4899.229
   6  -5082.345
   7  -5116.258
   8  -5535.785
   9  -6166.602
  10  -5987.101
  11  -6165.6
  12  -6385.641
  13  -5971.496
  14  -5948.3
  15  -6024.735
  16  -6200.011
  17  -6082.965
  18  -6244.878
  19  -6072.752
  20  -6226.599
  21  -6390.565
  22  -6395.391
  23  -6461.688
  24  -6377.705
  25  -6119.254
  26  -6624.278
  27  -6796.782
  28  -6488.708
  29  -6296.702
  30  -6344.371
  31  -5925.225
  32  -6465.632
  33  -6185.745
  34  -5545
  35  -5896.27
  36  -2371.619
  37  3414.253
  38  28591.05
  39  53059.62
  40  71652.59
  41  89698.14
  42  94572.34
  43  99278.9
  44  105103.8
  45  129199.4
  46  158803.7
  47  189030.7
  48  202232.3
  49  189951.4
  50  176021.7
  51  147539.6
  52  132296.8
  53  120895
  54  107122.5
  55  92082.7
  56  84802.2
  57  77553.1
  58  58233.67
  59  49205.44
  60  40462.28
  61  28976.15
  62  19922.48
  63  14669.57
  64  10176.73
  65  6762.395
  66  4533.478
  67  2911.67
  68  704.6461
  69  -515.6205
  70  -1388.926
  71  -2371.935
  72  -2921.456
  73  -3350.26
  74  -3664.587
  75  -4208.427
  76  -4662.153
  77  -5319.218
  78  -5692.83
  79  -5880.052
  80  -5940.296
  81  -5879.789
  82  -5623.967
  83  -5491.241
  84  -5466.98
  85  -5333.241
  86  -5031.715
  87  -4502.764
  88  -4035.115
  89  -4027.26
  90  -3902.002
  91  -3796.507
  92  -4180.824
  93  -4526.576
  94  -4951.25
  95  -5134.005
  96  -5113.896
  97  -5100.077
  98  -5150.982
  99  -5171.738
 100  -5516.146
 101  -5467.499
 102  -4304.103
 103  -4267.892
 104  -4484.143
 105  -4303.484
 106  -4715.938
 107  -5086.829
 108  -5180.711
 109  -4860.358
 110  -4819.968
 111  -4958.232
 112  -5325.744
 113  -5467.396
 114  -5775.857
 115  -5892.447
 116  -5920.254
 117  -6021.327
 118  -5979.175
 119  -5746.555
 120  -5744.464
 121  -5697.654
 122  -5821.625
 123  -6008.529
 124  -5886.093
 125  -5796.892
 126  -5881.979
 127  -6067.003
 128  -5917.091
 129  -5766.238
 130  -5939.366
 131  -5687.254
 132  -5861.284
 133  -6184.726
 134  -5894.456
 135  -5856.193
 136  -5966.859
 137  -6131.066
 138  -6050.44
 139  -5828.717
 140  -5940.556
 141  -5918.528
 142  -5994.81
 143  -6234.969
 144  -6215.297
 145  -6387.288
 146  -6259.041
 147  -6123.641
 148  -5839.609
 149  -5681.532
 150  -5521.543
 151  -5509.296
 152  -5788.375
 153  -5673.849
 154  -5625.152
 155  -5502.13
 156  -5556.073
 157  -5426.095
 158  -5229.841
 159  -5276.196
 160  -5297.619
 161  -6072.145
 162  -5979.345
 163  -5828.326
 164  -5809.668
 165  -5984.258
 166  -5994.424
 167  -5778.006
 168  -6035.407
 169  -6130.565
 170  -6033.466
 171  -5974.469
 172  -5823.5
 173  -5803.622
 174  -5888.565
 175  -6136.288
 176  -5979.404
 177  -6062.06
 178  -6146.898
 179  -6179.146
 180  -5776.59
 181  -5679.021
 182  -5584.98
 183  -5456.86
 184  -5777.428
 185  -5924.705
 186  -5877.292
 187  -5954.93
 188  -5958.122
 189  -5683.452
 190  -5441.913
 191  -5878.997
 192  -6310.598
 193  -5885.152
 194  -5853.95
 195  -5947.438
 196  -5862.991
 197  -6012.212
 198  -5854.365
 199  -5912.242
 200  -5995.575
 201  -6009.773
 202  -5755.089
 203  -5753.352
 204  -6192.088
 205  -6447.652
 206  -6457.782
 207  -6044.223
 208  -5867.222
 209  -6186.729
 210  -6051.472
 211  -6478.464
 212  -6707.269
 213  -6659.082
 214  -6537.612
 215  -6074.744
 216  -6033.846
 217  -6063.678
 218  -6015.135
 219  -6091.163
 220  -6138.457
 221  -5896.542
 222  -5912.046
 223  -6009.929
 224  -6033.542
 225  -5987.553
 226  -5992.461
 227  -6153.909
 228  -6168.727
 229  -5895.431
 230  -5988.884
 231  -6212.044
 232  -6047.452
 233  -5566.485
 234  -5647.952
 235  -5569.311
 236  -5699.453
 237  -5719.604
 238  -5990.543
 239  -5954.925
 240  -5585.441
 241  -5497.175
 242  -5387.77
 243  -5393.893
 244  -5641.666
 245  -5868.082
 246  -5922.676
 247  -5883.49
 248  -5823.378
 249  -5671.111
 250  -5701.204
 251  -5695.129
 252  -5634.343
 253  -5732.314
 254  -5914.36
 255  -5186.948
 256  -3610.146
 257  -3547.45
 258  -3655.382
 259  -3873.639
 260  -3972.483
 261  -3841.359
 262  -3826.66
 263  -3941.652
 264  -3666.114
 265  -3808.97
 266  -3970.85
 267  -3935.742
 268  -3444.517
 269  -3428.353
 270  -3531.184
 271  -3767.442
 272  -3984.337
 273  -3985.43
 274  -3871.5
 275  -3557.695
 276  -3451.181
 277  -3614.242
 278  -3664.826
 279  -3859.124
 280  -3652.942
 281  -3692.949
 282  -3744.135
 283  -3915.892
 284  -3864.098
 285  -3460.059
 286  -3728.365
 287  -3751.745
 288  -3936.008
 289  -3819.572
 290  -3979.195
 291  -3837.193
 292  -3920.644
 293  -3664.55
 294  -3626.935
 295  -3777.365
 296  -3768.786
 297  -3681.897
 298  -3655.51
 299  -3638.743
 300  -3938.625
 301  -4044.407
 302  -4073.04
 303  -3900.677
 304  -3787.581
 305  -3796.918
 306  -3856.337
 307  -3975.497
 308  -4069.321
 309  -3672.866
 310  -3523.867
 311  -3345.391
 312  -3132.766
 313  -3593.851
 314  -3790.449
 315  -3608.488
 316  -3220.668
 317  -3380.848
 318  -3402.367
 319  -3893.113
 320  -4136.848
 321  -4295.557
 322  -3956.409
 323  -3996.364
 324  -5374.123
 325  -5833.443
 326  -6053.671
 327  -6118.463
 328  -5996.542
 329  -6003.617
 330  -6120.153
 331  -6158.107
 332  -5809.621
 333  -5726.493
 334  -5817.991
 335  -5817.635
 336  -5876.989
 337  -5898.621
 338  -5884.867
 339  -5998.489
 340  -5720.241
 341  -5796.167
 342  -5810.082
 343  -5729.663
 344  -5974.786
 345  -5675.789
 346  -5286.56
 347  -5424.22
 348  -5730.631
 349  -5649.673
 350  -5077.186
 351  -5090.875
 352  -5312.403
 353  -5457.173
 354  -5412.133
 355  -5573.212
 356  -5618.813
 357  -5735.462
 358  -5739.952
 359  -5321.869
 360  -5307.372
 361  -5670.111
 362  -6042.134
 363  -5894.959
 364  -5782.72
 365  -6033.765
 366  -5932.158
 367  -5641.62
 368  -5581.938
 369  -5877.7
 370  -6245.879
 371  -6249.083
 372  -5801.245
 373  -5779.923
 374  -6074.927
 375  -5806.499
 376  -5661.592
 377  -6165.745
 378  -6333.44
 379  -6235.925
 380  -5738.34
 381  -6015.493
 382  -5947.946
 383  -5864.069
 384  -5907.3
 385  -5872.194
 386  -6117.738
 387  -6022.42
 388  -5872.423
 389  -5559.227
 390  -5527.219
 391  -5772.077
 392  -5707.978
 393  -5854.622
 394  -5653.96
 395  -5836.211
 396  -5591.819
 397  -5154.235
 398  -5700.791
 399  -5922.295
 400  -6049.504
 401  -5756.201
 402  -5728.835
 403  -5678.61
 404  -5889.408
 405  -6003.735
 406  -5967.901
 407  -5961.507
 408  -6169.515
 409  -5953.908
 410  -6114.218
 411  -6065.081
 412  -6182.888
 413  -6318.76
 414  -6185.723
 415  -6169.51
 416  -6080.771
 417  -5717.256
 418  -5529.987
 419  -5548.755
 420  -6016.809
 421  -5935.47
 422  -5744.39
 423  -5936.781
 424  -5912.304
 425  -5709.033
 426  -5675.596
 427  -5763.327
 428  -5682.623
 429  -5492.01
 430  -5857.52
 431  -5574.728
 432  -5411.409
 433  -5721.901
 434  -5623.438
 435  -5802.161
 436  -5765.417
 437  -5960.584
 438  -5704.742
 439  -5835.131
 440  -5969.979
 441  -5896.243
 442  -5771.827
 443  -5729.119
 444  -5434.941
 445  -5652.265
 446  -5542.775
 447  -5399.039
 448  -4856.873
 449  -4676.958
 450  -4866.04
 451  -4602.243
 452  -5015.808
 453  -5442.693
 454  -5227.038
 455  -4739.078
 456  -4762.736
 457  -4736.714
 458  -4901.887
 459  -5042.737
 460  -5342.775
 461  -5220.111
 462  -5107.621
 463  -4975.063
 464  -5157.268
 465  -5353.913
 466  -5530.004
 467  -5804.343
 468  -5581.177
 469  -5202.148
 470  -4713.94
 471  -4945.116
 472  -5027.925
 473  -5145.609
 474  -6067.829
 475  -5932.336
 476  -5529.954
 477  -5014.872
 478  -4616.584
 479  -5159.611
 480  -5484.708
 481  -5698.009
 482  -5752.429
 483  -5878.836
 484  -6005.253
 485  -5729.671
 486  -5794.308
 487  -6095.505
 488  -6078.809
 489  -6188.524
 490  -6102.886
 491  -6052.62
 492  -5506.55
 493  -5631.794
 494  -5727.067
 495  -5741.991
 496  -5728.784
 497  -5968.722
 498  -6027.883
 499  -5982.507
 500  -5887.327
 501  -5879.29
 502  -5976.834
 503  -6005.021
 504  -6375.451
 505  -6345.783
 506  -6451.237
 507  -6352.772
 508  -5986.196
 509  -5596.474
 510  -4955.532
 511  -4779.542
