# Input file       =  1200053887.114777_cleaned.dat
# Candidate        =  PSR_0332+5434
# Telescope        =  AR
# Epoch_topo       =  58133.512802254365
# Epoch_bary       =  N/A
# T_sample         =  0.002
# Data Folded      =  7208960
# Data Avg         =  0.0170631048850858
# Data StdDev      =  1.00014692583873 
# Profile Bins     =  512
# Profile Avg      =  240.29003031544  
# Profile StdDev   =  118.676609892457 
# Reduced chi-sqr  =  1.595
# Prob(Noise)      <  2.41e-16   (~8.1 sigma)
# P_topo (ms)      =  714.566911524014  +/- 0.000173
# P'_topo (s/s)    =  -0                +/- 9.28e-11
# P''_topo (s/s^2) =  0                 +/- 4.17e-14
# P_bary (ms)      =  N/A
# P'_bary (s/s)    =  N/A
# P''_bary (s/s^2) =  N/A
# P_orb (s)        =  N/A
# asin(i)/c (s)    =  N/A
# eccentricity     =  N/A
# w (rad)          =  N/A
# T_peri           =  N/A
######################################################
   0  -9.040869
   1  107.9775
   2  297.0306
   3  365.3969
   4  253.4073
   5  233.3995
   6  287.7549
   7  306.1323
   8  370.1989
   9  217.2984
  10  269.995
  11  314.9456
  12  313.6518
  13  305.8608
  14  374.0538
  15  436.6169
  16  228.9229
  17  262.7083
  18  369.5599
  19  344.9762
  20  233.4439
  21  147.7558
  22  107.9862
  23  67.06828
  24  184.5511
  25  88.96024
  26  227.4919
  27  292.5403
  28  284.9128
  29  336.5374
  30  315.5769
  31  340.5584
  32  378.3926
  33  255.192
  34  195.8983
  35  147.185
  36  96.62039
  37  129.6474
  38  124.7055
  39  129.0648
  40  355.8704
  41  306.1097
  42  90.86609
  43  28.51486
  44  102.4102
  45  219.1226
  46  389.6072
  47  219.305
  48  76.71622
  49  110.0409
  50  116.9546
  51  -6.257349
  52  113.3372
  53  177.7579
  54  195.6526
  55  198.0443
  56  255.0832
  57  156.7953
  58  74.51733
  59  141.1303
  60  207.1908
  61  203.5238
  62  288.2083
  63  278.036
  64  189.3582
  65  62.46804
  66  87.37923
  67  135.0471
  68  199.0721
  69  141.7769
  70  284.093
  71  438.0268
  72  269.7313
  73  134.8053
  74  216.2764
  75  223.6248
  76  211.3231
  77  171.0828
  78  263.7612
  79  276.8058
  80  192.7939
  81  225.8112
  82  343.0951
  83  201.4481
  84  252.8277
  85  350.9446
  86  221.0481
  87  231.5345
  88  256.0834
  89  286.1407
  90  216.8335
  91  75.75088
  92  267.8216
  93  385.4019
  94  273.9886
  95  224.3134
  96  253.4765
  97  361.5475
  98  346.0022
  99  383.6491
 100  254.3334
 101  361.7758
 102  334.5223
 103  215.5993
 104  208.119
 105  343.5427
 106  295.0961
 107  166.5654
 108  210.051
 109  282.0024
 110  99.68209
 111  195.5105
 112  215.3171
 113  182.1957
 114  274.3011
 115  210.7908
 116  160.5001
 117  220.8919
 118  271.0459
 119  225.824
 120  156.839
 121  100.5299
 122  199.4382
 123  123.9806
 124  86.56289
 125  31.18241
 126  170.7497
 127  187.1764
 128  270.9721
 129  228.759
 130  219.3233
 131  188.204
 132  278.0429
 133  103.6522
 134  91.62075
 135  266.4347
 136  353.0581
 137  231.5497
 138  262.9458
 139  233.7609
 140  245.5494
 141  277.0031
 142  194.7436
 143  198.0702
 144  325.6423
 145  308.3715
 146  292.1604
 147  288.1418
 148  401.8857
 149  401.5803
 150  284.9055
 151  208.3758
 152  114.4565
 153  207.9495
 154  297.0063
 155  406.9607
 156  386.9731
 157  411.8227
 158  333.9935
 159  272.1702
 160  274.3375
 161  262.4808
 162  252.5341
 163  215.2019
 164  134.4789
 165  102.0162
 166  229.4728
 167  236.7005
 168  181.7769
 169  171.8357
 170  174.0641
 171  223.879
 172  251.5455
 173  170.7121
 174  92.03847
 175  200.8149
 176  207.9682
 177  284.0401
 178  426.6302
 179  216.2101
 180  213.1739
 181  235.417
 182  225.4527
 183  139.2486
 184  275.0124
 185  418.1239
 186  278.1768
 187  172.1925
 188  186.0208
 189  222.0592
 190  183.3409
 191  186.8938
 192  258.3609
 193  235.7647
 194  292.7238
 195  185.7018
 196  122.4937
 197  301.6575
 198  206.518
 199  -11.83772
 200  71.41795
 201  173.0828
 202  153.0818
 203  144.7176
 204  204.707
 205  208.1295
 206  247.0881
 207  325.0645
 208  226.5383
 209  266.9924
 210  320.7103
 211  269.239
 212  321.4893
 213  303.6776
 214  266.6582
 215  313.7826
 216  195.9181
 217  349.132
 218  352.423
 219  290.4034
 220  288.7958
 221  229.0078
 222  255.9729
 223  220.8949
 224  410.105
 225  295.3364
 226  220.1292
 227  271.51
 228  308.0663
 229  355.1224
 230  405.9615
 231  443.9605
 232  307.3528
 233  185.3645
 234  165.1578
 235  267.6501
 236  398.1188
 237  254.2537
 238  290.5362
 239  259.8171
 240  276.5626
 241  239.3885
 242  240.325
 243  313.3586
 244  357.5954
 245  345.6525
 246  498.3532
 247  438.3062
 248  478.8777
 249  464.1618
 250  525.2957
 251  747.1945
 252  844.8873
 253  902.0352
 254  896.4961
 255  654.8023
 256  566.7571
 257  401.4012
 258  247.3241
 259  244.4213
 260  193.965
 261  182.6872
 262  236.9993
 263  258.0045
 264  168.0755
 265  179.6714
 266  240.98
 267  259.3116
 268  214.2348
 269  133.8213
 270  105.9877
 271  100.6878
 272  161.5478
 273  244.2103
 274  107.7816
 275  143.0468
 276  220.2835
 277  80.51208
 278  178.01
 279  146.3609
 280  164.3346
 281  210.6267
 282  227.1592
 283  197.1806
 284  154.8244
 285  198.4858
 286  234.2244
 287  173.1465
 288  127.8566
 289  179.9045
 290  275.7375
 291  246.0995
 292  246.1151
 293  342.0085
 294  348.1565
 295  295.8227
 296  128.0937
 297  111.9131
 298  152.6037
 299  83.80033
 300  120.5401
 301  159.8656
 302  139.6785
 303  149.9887
 304  122.8913
 305  40.75061
 306  258.7917
 307  184.7069
 308  243.2061
 309  254.2365
 310  188.8464
 311  300.899
 312  338.3379
 313  202.0685
 314  170.0786
 315  273.4967
 316  292.272
 317  248.453
 318  195.1431
 319  341.3799
 320  355.0315
 321  302.7061
 322  304.0489
 323  262.8962
 324  206.1328
 325  231.2581
 326  200.4695
 327  359.04
 328  380.4766
 329  189.8538
 330  167.1269
 331  206.6098
 332  199.5064
 333  185.4545
 334  134.6641
 335  88.93848
 336  135.5306
 337  122.1067
 338  264.3679
 339  160.2861
 340  196.7429
 341  289.7711
 342  277.3751
 343  236.4882
 344  162.2847
 345  215.8369
 346  195.0434
 347  159.3846
 348  168.0331
 349  309.3959
 350  199.6392
 351  113.0573
 352  182.5212
 353  192.8906
 354  233.4849
 355  179.0427
 356  138.8518
 357  245.1006
 358  235.5227
 359  192.6055
 360  293.43
 361  368.9336
 362  362.8151
 363  330.4325
 364  174.5528
 365  -18.95102
 366  181.2
 367  372.5359
 368  313.9062
 369  295.3422
 370  158.6481
 371  213.9553
 372  271.5235
 373  280.5666
 374  352.7451
 375  203.3631
 376  315.0458
 377  297.7412
 378  201.651
 379  178.8076
 380  319.1463
 381  296.7742
 382  275.981
 383  354.967
 384  309.3073
 385  296.9236
 386  194.4389
 387  157.8189
 388  121.035
 389  88.52208
 390  277.5358
 391  405.7896
 392  280.4399
 393  296.0256
 394  337.1619
 395  311.1119
 396  332.4778
 397  199.362
 398  285.2638
 399  269.6316
 400  254.7112
 401  379.7963
 402  344.3199
 403  285.2789
 404  108.7565
 405  4.670843
 406  47.22338
 407  124.382
 408  89.93189
 409  166.9897
 410  247.8712
 411  202.4993
 412  328.5543
 413  354.2754
 414  324.3706
 415  254.9661
 416  104.6917
 417  217.034
 418  251.2109
 419  67.45118
 420  98.74327
 421  180.0471
 422  284.2234
 423  264.292
 424  216.5015
 425  188.1045
 426  396.4421
 427  360.4077
 428  284.5631
 429  381.4564
 430  394.8767
 431  237.7246
 432  175.0351
 433  178.9684
 434  290.8738
 435  238.3621
 436  117.523
 437  153.6093
 438  340.8985
 439  372.9441
 440  270.1078
 441  252.235
 442  170.3132
 443  236.2593
 444  225.4079
 445  233.9872
 446  242.9077
 447  263.6901
 448  222.656
 449  284.9528
 450  261.0807
 451  356.9226
 452  242.4893
 453  231.6289
 454  196.1878
 455  170.7133
 456  156.826
 457  239.9836
 458  259.8147
 459  360.1415
 460  497.4305
 461  417.3013
 462  260.674
 463  312.8656
 464  290.856
 465  304.0105
 466  166.1431
 467  28.35558
 468  93.90416
 469  95.18526
 470  180.7804
 471  274.4109
 472  312.4382
 473  214.9977
 474  177.8404
 475  338.613
 476  322.2889
 477  222.7692
 478  164.6275
 479  157.9053
 480  276.7047
 481  118.2612
 482  153.5318
 483  100.1122
 484  94.60741
 485  245.1138
 486  292.3664
 487  258.8863
 488  103.289
 489  17.77511
 490  202.6972
 491  340.3891
 492  288.0019
 493  134.3718
 494  188.5127
 495  226.0123
 496  101.9084
 497  134.6332
 498  250.3638
 499  156.951
 500  118.9255
 501  184.3222
 502  138.1272
 503  235.9971
 504  317.4424
 505  300.4824
 506  164.43
 507  191.72
 508  346.5238
 509  421.2835
 510  384.9326
 511  281.4691
