# Input file       =  1200327044.107096_cleaned.dat
# Candidate        =  PSR_0332+5434
# Telescope        =  AR
# Epoch_topo       =  58136.674341517311
# Epoch_bary       =  N/A
# T_sample         =  0.002
# Data Folded      =  7340032
# Data Avg         =  0.810744762063095
# Data StdDev      =  6.44118384168076 
# Profile Bins     =  512
# Profile Avg      =  11622.8432386437 
# Profile StdDev   =  771.222499225401 
# Reduced chi-sqr  =  0.559
# Prob(Noise)      <  1   (~0.0 sigma)
# P_topo (ms)      =  714.568989544578  +/- 0.000142
# P'_topo (s/s)    =  -0                +/- 7.52e-11
# P''_topo (s/s^2) =  0                 +/- 3.32e-14
# P_bary (ms)      =  N/A
# P'_bary (s/s)    =  N/A
# P''_bary (s/s^2) =  N/A
# P_orb (s)        =  N/A
# asin(i)/c (s)    =  N/A
# eccentricity     =  N/A
# w (rad)          =  N/A
# T_peri           =  N/A
######################################################
   0  11765.17
   1  11861.9
   2  12090.22
   3  11746.99
   4  11495.43
   5  11500.54
   6  11674.35
   7  11639.92
   8  11387.69
   9  11528.26
  10  11572.34
  11  12379.31
  12  12439.1
  13  11745.7
  14  11477
  15  11493.13
  16  11781.27
  17  12231.84
  18  12345.29
  19  12808.6
  20  12737.23
  21  12144.47
  22  11762.07
  23  11887.89
  24  12163.3
  25  11932.64
  26  12059.89
  27  12280.07
  28  12368.71
  29  12072.43
  30  11774.83
  31  12112.85
  32  12179.62
  33  12459.53
  34  12486.85
  35  12735.01
  36  12300.98
  37  12039.47
  38  12069.9
  39  11597.51
  40  12057.18
  41  12166.96
  42  12104.67
  43  12100.8
  44  12368.88
  45  11640.19
  46  11893.91
  47  12070.45
  48  11787.39
  49  11416.16
  50  11638.42
  51  12081.29
  52  12167.69
  53  11547.54
  54  11138.17
  55  11039.86
  56  11425.9
  57  11644.1
  58  11888.85
  59  11609.69
  60  12203.53
  61  12182.25
  62  11509.51
  63  11164.55
  64  11393.07
  65  11408.31
  66  11859.72
  67  12333.31
  68  12353.78
  69  11606.36
  70  10958.8
  71  10949.3
  72  11353.39
  73  11597.05
  74  11816.94
  75  11778.62
  76  12055.27
  77  12101.28
  78  11228.69
  79  10785.39
  80  10937.07
  81  11137.3
  82  11611.6
  83  11628.06
  84  11000.74
  85  11413.46
  86  11327.16
  87  11609.87
  88  11669.69
  89  11698.2
  90  11694.3
  91  12050.67
  92  11511.5
  93  11775.87
  94  12119.82
  95  11627.55
  96  11682.23
  97  11749.97
  98  11739.67
  99  11652.57
 100  11205.88
 101  11227.05
 102  11444.88
 103  11625.85
 104  12066.1
 105  11942.01
 106  12293
 107  11791.01
 108  11707.71
 109  11836.11
 110  11515.16
 111  11331.61
 112  11032.39
 113  11029.38
 114  10746.54
 115  10571.05
 116  11180.43
 117  11720.47
 118  11459.45
 119  11049.27
 120  11312.67
 121  11419.52
 122  11682.62
 123  11629.55
 124  11495.9
 125  11593.98
 126  11562.71
 127  11491.3
 128  11571.12
 129  11755.64
 130  11412.18
 131  11408.21
 132  12134.76
 133  12030.23
 134  11927.23
 135  11933.36
 136  11910.29
 137  11802.91
 138  11858.28
 139  11967.85
 140  11986.33
 141  11207.45
 142  11304.94
 143  11580.66
 144  11601.15
 145  11997.13
 146  12109.33
 147  11949.23
 148  11446.37
 149  12022.33
 150  11942.51
 151  11359.78
 152  11581.17
 153  11752.55
 154  11374.52
 155  10774.7
 156  10951.72
 157  10891.97
 158  11342.3
 159  11247.5
 160  11298.16
 161  11175.68
 162  11159.21
 163  11873.99
 164  11583.35
 165  11629.76
 166  11476.1
 167  11758.21
 168  11438.55
 169  11985.83
 170  11984.6
 171  11853.6
 172  11751.37
 173  12357.27
 174  12194.42
 175  11685.75
 176  11571.12
 177  11810.14
 178  11544.97
 179  11634.5
 180  11552.53
 181  11526.56
 182  11311.51
 183  11431.75
 184  11523.49
 185  12413.6
 186  12336.04
 187  12441.99
 188  12083.39
 189  11598.33
 190  11141.52
 191  11818.42
 192  11624.25
 193  11909.74
 194  12378.36
 195  12406.8
 196  11322.54
 197  10930.76
 198  11032.26
 199  11031
 200  11291.34
 201  11292
 202  11969.53
 203  12187.97
 204  12267.27
 205  12189.97
 206  12010.04
 207  11684.61
 208  11880.42
 209  11988.04
 210  11983.76
 211  11521.54
 212  11597.74
 213  11291.78
 214  11488.39
 215  11537.51
 216  11569.29
 217  11299.01
 218  11529.62
 219  11563.29
 220  12257.64
 221  11963.24
 222  12096.27
 223  12091.96
 224  11520.63
 225  11269.22
 226  12014.04
 227  12190.62
 228  11651.24
 229  11279.73
 230  11720.85
 231  11998.6
 232  12057.12
 233  12195.19
 234  12204.73
 235  12152.6
 236  11797.62
 237  10970.98
 238  10853.69
 239  11162.95
 240  11009.58
 241  11826.22
 242  11702.56
 243  11796.17
 244  11113.15
 245  11443.17
 246  11294.13
 247  10949.4
 248  11184.48
 249  11569.19
 250  11195.02
 251  11494.56
 252  11470.09
 253  11386.09
 254  11176.59
 255  11223.26
 256  11517.21
 257  12012.23
 258  11946.71
 259  12023.54
 260  12052.01
 261  11533.06
 262  11443.95
 263  11536.31
 264  11983.77
 265  11911.23
 266  11722.1
 267  11810.91
 268  11512.05
 269  11376.59
 270  11411.97
 271  11762.38
 272  11342.61
 273  11879.08
 274  11509.8
 275  11428.14
 276  11456.37
 277  11785.45
 278  11492.12
 279  11205.02
 280  10942.99
 281  10949.25
 282  11234.92
 283  11901.49
 284  11730.01
 285  11625.25
 286  11810.93
 287  11687.18
 288  11771.13
 289  11419.21
 290  11736.07
 291  11885.21
 292  11597.14
 293  11715.14
 294  12055.58
 295  12098.68
 296  12228.23
 297  11516.67
 298  11424.54
 299  11955.98
 300  11843.26
 301  11582.47
 302  11475.48
 303  11788.69
 304  11808.63
 305  11524.57
 306  12449.09
 307  12693.67
 308  12778.25
 309  12364.24
 310  12134.74
 311  11652.06
 312  11505.91
 313  11107.8
 314  10722.48
 315  10489.42
 316  11460.51
 317  11952.89
 318  11697.84
 319  11689.89
 320  11288.54
 321  11234.98
 322  11251.03
 323  11318.89
 324  11503.31
 325  11507.77
 326  11579.08
 327  12006.26
 328  11837.34
 329  11322.04
 330  11105.38
 331  11457.51
 332  12100.89
 333  12220.84
 334  12373.02
 335  11899.32
 336  11275.34
 337  12088.81
 338  11674.37
 339  11705.08
 340  11392.94
 341  11694.64
 342  11710.94
 343  11320.16
 344  11937
 345  12086.8
 346  12051.6
 347  11509.51
 348  11266.88
 349  11808.35
 350  11498.47
 351  12075.64
 352  12113.08
 353  11760.18
 354  11513.54
 355  11672.01
 356  11461.52
 357  11714.1
 358  11349.83
 359  11704.63
 360  12254.75
 361  11692.85
 362  11649.81
 363  11304.14
 364  11370.39
 365  11757.99
 366  11405.19
 367  10868.26
 368  11212.17
 369  11343.51
 370  12041.48
 371  11542.67
 372  10962.28
 373  11003.57
 374  10627.22
 375  11254.02
 376  11437.81
 377  11379.89
 378  11082.06
 379  10872.16
 380  11336.47
 381  11436.43
 382  11849.81
 383  11363.74
 384  11758.04
 385  11654.34
 386  11642.91
 387  11432.84
 388  11339.34
 389  11574.21
 390  11509.06
 391  11949.68
 392  11576.46
 393  11792.61
 394  12165.8
 395  11367.72
 396  11562.04
 397  10994.42
 398  10747.25
 399  10593.47
 400  10999.01
 401  10945.3
 402  10728.96
 403  11293.64
 404  11656.83
 405  11322.86
 406  10762.07
 407  10696.12
 408  10919.87
 409  10876.81
 410  10913.56
 411  11421.59
 412  11688.3
 413  11239.56
 414  10941.17
 415  11264.67
 416  10941.01
 417  11138.96
 418  11126.54
 419  10590.87
 420  10647.45
 421  11203.58
 422  11412.56
 423  11494.03
 424  11220.47
 425  11324.19
 426  11442.76
 427  11602.51
 428  11207.77
 429  10730.32
 430  10957.25
 431  11525.5
 432  11417.22
 433  11706.69
 434  11742.51
 435  11547.26
 436  10808.69
 437  11463.45
 438  11577.18
 439  11522.53
 440  11484.15
 441  11328.15
 442  11424.47
 443  11322.22
 444  10949.17
 445  11214.2
 446  11177.45
 447  11006.25
 448  11365.87
 449  11814.62
 450  11955.75
 451  11775.84
 452  11471.59
 453  11397.21
 454  11568.18
 455  11076.91
 456  11362.28
 457  11824.94
 458  11839.99
 459  11688.13
 460  11550.67
 461  11111.87
 462  11342.97
 463  11581.92
 464  11673.68
 465  11887.17
 466  12199.59
 467  11502.75
 468  11743.14
 469  11834.98
 470  12023.97
 471  11642.83
 472  11979.48
 473  11733.63
 474  11338.01
 475  11518.78
 476  11362.36
 477  11348.73
 478  11302.87
 479  11562.96
 480  11927.9
 481  12263.01
 482  12309.88
 483  11692.29
 484  11849.68
 485  11661.04
 486  11189.74
 487  11449.21
 488  11632.77
 489  12137.15
 490  11920.46
 491  11572.72
 492  11528.92
 493  11475.56
 494  11790.94
 495  12197.58
 496  11739.54
 497  11839.06
 498  11494.02
 499  11769.63
 500  11492.41
 501  11449.22
 502  11785.19
 503  11446.18
 504  11991.96
 505  12956
 506  12670.49
 507  12780.72
 508  12549.02
 509  11689.53
 510  10960.28
 511  11309.4
