# Input file       =  1200053887.114777_cleaned.dat
# Candidate        =  PSR_0332+5434
# Telescope        =  AR
# Epoch_topo       =  58133.512802254365
# Epoch_bary       =  N/A
# T_sample         =  0.002
# Data Folded      =  7208960
# Data Avg         =  0.0170631048850858
# Data StdDev      =  1.00014692583873 
# Profile Bins     =  512
# Profile Avg      =  240.290072436269 
# Profile StdDev   =  118.676609892457 
# Reduced chi-sqr  =  1.598
# Prob(Noise)      <  1.78e-16   (~8.2 sigma)
# P_topo (ms)      =  714.566910556726  +/- 0.000174
# P'_topo (s/s)    =  -0                +/- 9.33e-11
# P''_topo (s/s^2) =  0                 +/- 4.19e-14
# P_bary (ms)      =  N/A
# P'_bary (s/s)    =  N/A
# P''_bary (s/s^2) =  N/A
# P_orb (s)        =  N/A
# asin(i)/c (s)    =  N/A
# eccentricity     =  N/A
# w (rad)          =  N/A
# T_peri           =  N/A
######################################################
   0  892.7664
   1  912.2312
   2  658.3609
   3  573.688
   4  411.6408
   5  252.4529
   6  242.0601
   7  195.1198
   8  184.9722
   9  234.0533
  10  259.8553
  11  171.7212
  12  176.4546
  13  241.2159
  14  255.9758
  15  219.7723
  16  136.7205
  17  104.9753
  18  103.1761
  19  152.7702
  20  246.0552
  21  116.0086
  22  135.4311
  23  221.1676
  24  81.92125
  25  176.2634
  26  149.0062
  27  161.9043
  28  207.4707
  29  231.0022
  30  195.1836
  31  159.6074
  32  186.5186
  33  241.3218
  34  175.6149
  35  128.3107
  36  172.3123
  37  275.9208
  38  248.4465
  39  243.3267
  40  337.0751
  41  351.4072
  42  303.193
  43  133.7345
  44  108.2626
  45  154.106
  46  85.07222
  47  116.0613
  48  158.6955
  49  142.2537
  50  149.3566
  51  131.1409
  52  34.18983
  53  251.5123
  54  190.1506
  55  236.1411
  56  262.9663
  57  182.787
  58  295.8884
  59  338.8934
  60  214.3133
  61  164.1826
  62  268.2675
  63  290.9351
  64  256.1491
  65  192.2535
  66  334.6096
  67  359.8133
  68  300.8175
  69  303.3494
  70  267.8255
  71  206.9718
  72  231.606
  73  197.583
  74  350.7551
  75  390.7391
  76  192.3778
  77  165.8165
  78  204.657
  79  201.241
  80  186.3035
  81  141.5041
  82  84.91119
  83  135.9128
  84  120.4285
  85  259.5531
  86  169.2269
  87  186.6133
  88  291.8924
  89  273.8326
  90  242.5993
  91  161.4165
  92  215.9474
  93  198.2923
  94  158.5265
  95  163.9398
  96  306.8927
  97  207.4838
  98  111.0054
  99  180.4397
 100  191.8008
 101  234.8629
 102  185.3651
 103  132.5195
 104  242.9935
 105  239.5169
 106  189.2695
 107  288.1703
 108  366.3218
 109  365.2679
 110  333.4089
 111  189.408
 112  -21.41953
 113  168.8989
 114  369.932
 115  316.0547
 116  296.8217
 117  167.6802
 118  203.6708
 119  275.289
 120  271.585
 121  355.5988
 122  207.6421
 123  308.2803
 124  304.0392
 125  206.7316
 126  173.0097
 127  314.7226
 128  306.2308
 129  268.2524
 130  355.2507
 131  308.0738
 132  299.194
 133  202.5847
 134  154.3617
 135  129.9876
 136  80.33179
 137  267.5814
 138  404.7866
 139  290.9969
 140  287.5026
 141  340.4414
 142  309.931
 143  332.9543
 144  206.3671
 145  278.4023
 146  274.6015
 147  250.379
 148  372.4568
 149  353.0752
 150  289.7255
 151  116.2553
 152  7.431102
 153  38.34571
 154  126.1806
 155  91.33424
 156  161.0051
 157  247.4183
 158  204.1805
 159  319.455
 160  358.5803
 161  322.2605
 162  265.3018
 163  105.1557
 164  205.9719
 165  260.5904
 166  72.42605
 167  95.6646
 168  172.4913
 169  281.003
 170  265.8632
 171  223.6561
 172  182.3876
 173  389.1387
 174  367.0631
 175  282.6982
 176  374.6867
 177  401.2556
 178  245.5317
 179  178.4807
 180  173.5101
 181  283.5824
 182  246.0877
 183  123.1588
 184  146.542
 185  331.4005
 186  379.084
 187  272.1364
 188  257.1648
 189  167.8395
 190  233.5941
 191  224.0935
 192  239.8529
 193  234.4511
 194  274.0696
 195  216.9153
 196  286.1122
 197  255.8831
 198  357.5651
 199  246.3764
 200  233.287
 201  198.0181
 202  172.7637
 203  152.5443
 204  236.0699
 205  256.5216
 206  355.7957
 207  492.8963
 208  430.3299
 209  260.1656
 210  309.0564
 211  295.8574
 212  302.5477
 213  179.3416
 214  25.72816
 215  92.19277
 216  94.20382
 217  175.8819
 218  269.1444
 219  315.2164
 220  222.1139
 221  175.1734
 222  330.2491
 223  327.6859
 224  226.8749
 225  165.7421
 226  153.8924
 227  278.4081
 228  121.0073
 229  152.7487
 230  105.7721
 231  90.18989
 232  239.1374
 233  287.7758
 234  265.9641
 235  113.3692
 236  12.74967
 237  189.7355
 238  341.6136
 239  295.2465
 240  136.5498
 241  182.2711
 242  229.8525
 243  107.6704
 244  125.5658
 245  251.5891
 246  161.2897
 247  117.5912
 248  184.4924
 249  136.442
 250  231.8582
 251  310.3453
 252  310.6078
 253  167.0606
 254  190.3499
 255  336.0345
 256  423.9204
 257  383.3531
 258  299.1603
 259  -4.867731
 260  95.2692
 261  291.5351
 262  363.2586
 263  261.1957
 264  228.9097
 265  287.9065
 266  302.0919
 267  372.4269
 268  219.2595
 269  266.8642
 270  315.8329
 271  316.291
 272  302.0612
 273  368.4225
 274  440.958
 275  234.4306
 276  258.3723
 277  368.9572
 278  346.6781
 279  242.4666
 280  147.1879
 281  110.9242
 282  64.9945
 283  181.7628
 284  95.65043
 285  212.8033
 286  298.3665
 287  281.7855
 288  333.6609
 289  318.9915
 290  335.3471
 291  383.6471
 292  255.6242
 293  203.4748
 294  143.3187
 295  101.2657
 296  124.1798
 297  131.7565
 298  118.8268
 299  350.4361
 300  318.1512
 301  97.01758
 302  26.2718
 303  98.91153
 304  209.1388
 305  389.0568
 306  233.0587
 307  80.0042
 308  107.0208
 309  119.6719
 310  -6.122903
 311  109.4181
 312  173.7909
 313  195.3059
 314  191.9715
 315  260.0993
 316  161.472
 317  78.46582
 318  133.8163
 319  207.1678
 320  198.8008
 321  288.9253
 322  277.0264
 323  199.5725
 324  60.40384
 325  93.55681
 326  121.9195
 327  205.1366
 328  140.8644
 329  273.1506
 330  440.159
 331  279.6103
 332  133.3412
 333  213.6381
 334  226.3582
 335  209.7951
 336  170.7556
 337  258.0957
 338  280.0551
 339  194.7145
 340  222.2112
 341  342.9424
 342  208.7905
 343  242.604
 344  351.4365
 345  227.6441
 346  230.6723
 347  252.8964
 348  285.0839
 349  223.3827
 350  78.62366
 351  251.9804
 352  391.0912
 353  275.7545
 354  233.9799
 355  243.4071
 356  359.5858
 357  342.2895
 358  386.1637
 359  260.1761
 360  351.0401
 361  343.752
 362  221.5869
 363  204.605
 364  340.25
 365  298.4841
 366  168.8544
 367  202.3398
 368  287.3459
 369  106.7889
 370  186.041
 371  221.1096
 372  176.682
 373  275.259
 374  214.745
 375  161.3429
 376  215.5574
 377  271.3607
 378  229.0556
 379  160.6633
 380  99.83769
 381  196.2342
 382  130.8191
 383  87.65055
 384  28.37199
 385  166.6328
 386  186.236
 387  268.3304
 388  230.3589
 389  221.2984
 390  183.1579
 391  280.1078
 392  116.1487
 393  80.13721
 394  260.3395
 395  355.3941
 396  235.7554
 397  260.4178
 398  233.4487
 399  244.0152
 400  276.338
 401  202.2473
 402  189.679
 403  323.8875
 404  309.2216
 405  296.4232
 406  282.5291
 407  400.629
 408  401.0816
 409  291.6052
 410  213.56
 411  116.1445
 412  201.7472
 413  290.6868
 414  406.75
 415  384.7307
 416  415.4189
 417  334.2158
 418  273.6411
 419  274.4036
 420  265.1434
 421  254.9454
 422  216.222
 423  142.9291
 424  90.7547
 425  230.3531
 426  240.1277
 427  182.6764
 428  169.831
 429  174.9855
 430  221.5931
 431  252.9145
 432  174.705
 433  92.82899
 434  190.7715
 435  212.2267
 436  270.9371
 437  431.8386
 438  223.9993
 439  211.1117
 440  234.1976
 441  230.4336
 442  140.9813
 443  260.8138
 444  421.5435
 445  285.7062
 446  172.7872
 447  183.4931
 448  222.5136
 449  188.2841
 450  181.9567
 451  258.3665
 452  230.1923
 453  295.6695
 454  193.3483
 455  119.8856
 456  293.8778
 457  216.9018
 458  -0.6533858
 459  60.88734
 460  172.3862
 461  154.5464
 462  142.0076
 463  199.5123
 464  209.2304
 465  243.3938
 466  324.1222
 467  237.4313
 468  253.6872
 469  323.4073
 470  268.5729
 471  317.9307
 472  307.4414
 473  265.5849
 474  314.5842
 475  201.2337
 476  337.6662
 477  358.1647
 478  294.3464
 479  291.2473
 480  229.4785
 481  258.2054
 482  211.096
 483  407.8394
 484  306.0452
 485  219.2148
 486  268.3749
 487  305.3175
 488  353.9888
 489  402.128
 490  442.5291
 491  317.2225
 492  192.079
 493  165.0206
 494  255.6626
 495  399.3311
 496  258.1841
 497  290.8492
 498  258.4604
 499  278.6128
 500  238.8351
 501  237.7788
 502  311.4767
 503  356.8622
 504  342.0396
 505  492.5808
 506  443.6459
 507  477.2913
 508  464.1866
 509  516.6535
 510  734.0519
 511  847.9824
