# Input file       =  1200930286.110481_cleaned.dat
# Candidate        =  PSR_0332+5434
# Telescope        =  AR
# Epoch_topo       =  58143.656309149083
# Epoch_bary       =  N/A
# T_sample         =  0.002
# Data Folded      =  7340032
# Data Avg         =  0.0634893130991259
# Data StdDev      =  4.32887170741592 
# Profile Bins     =  256
# Profile Avg      =  1821.08260259245 
# Profile StdDev   =  732.999551700869 
# Reduced chi-sqr  =  0.887
# Prob(Noise)      <  0.902   (~0.0 sigma)
# P_topo (ms)      =  714.57297818937   +/- 0.000557
# P'_topo (s/s)    =  -0                +/- 2.94e-10
# P''_topo (s/s^2) =  0                 +/- 1.3e-13
# P_bary (ms)      =  N/A
# P'_bary (s/s)    =  N/A
# P''_bary (s/s^2) =  N/A
# P_orb (s)        =  N/A
# asin(i)/c (s)    =  N/A
# eccentricity     =  N/A
# w (rad)          =  N/A
# T_peri           =  N/A
######################################################
   0  2248.438
   1  1962.127
   2  2387.738
   3  2703.51
   4  1229.161
   5  1408.828
   6  3016.224
   7  2274.066
   8  1245.635
   9  1823.812
  10  2232.158
  11  1786.441
  12  2022.454
  13  1989.318
  14  2300.737
  15  1239.282
  16  2104.208
  17  2709.529
  18  1840.164
  19  829.3913
  20  1461.729
  21  1744.503
  22  1696.478
  23  2005.321
  24  1656.347
  25  1391.574
  26  1633.538
  27  1193.681
  28  2012.702
  29  1834.652
  30  1808.46
  31  1643.349
  32  1908.438
  33  2267.412
  34  2508.873
  35  1567.599
  36  2270.045
  37  1130.096
  38  1959.907
  39  1635.36
  40  1046.546
  41  559.2942
  42  642.5025
  43  1070.419
  44  1231.844
  45  802.962
  46  777.7667
  47  1821.533
  48  989.2808
  49  809.4876
  50  2012.276
  51  1912.005
  52  977.8984
  53  1339.25
  54  1173.095
  55  1553.642
  56  1213.535
  57  1112.672
  58  1334.06
  59  1593.044
  60  1180.28
  61  1772.382
  62  1824.167
  63  2119.131
  64  2020.361
  65  2334.955
  66  1597.816
  67  1164.898
  68  2231.318
  69  1200.134
  70  1027.246
  71  1724.375
  72  2194.716
  73  1200.181
  74  1943.103
  75  1659.166
  76  1681.893
  77  1333.715
  78  1629.385
  79  2625.875
  80  2263.112
  81  2231.416
  82  2333.193
  83  2182.413
  84  2406.243
  85  2685.936
  86  2366.142
  87  2747.088
  88  2631.117
  89  1633.02
  90  2100.63
  91  2586.168
  92  2193.581
  93  2018.522
  94  1319.882
  95  1692.352
  96  2305.27
  97  1827.746
  98  1743.473
  99  2083.312
 100  1825.691
 101  1291.34
 102  2221.654
 103  1746.926
 104  2154.928
 105  2150.32
 106  2628.649
 107  2591.71
 108  2420.233
 109  2857.522
 110  2054.822
 111  2579.745
 112  2842.224
 113  1978.824
 114  2381.772
 115  2878.052
 116  2311.225
 117  1643.239
 118  2172.377
 119  1326.043
 120  1411.387
 121  1545.036
 122  2352.295
 123  1677.523
 124  1866.945
 125  1527.138
 126  1581.096
 127  929.4598
 128  1248.283
 129  843.4734
 130  743.938
 131  992.0859
 132  1700.152
 133  1190.169
 134  1156.599
 135  1124.428
 136  1174.326
 137  1705.601
 138  1638.704
 139  2532.33
 140  2485.405
 141  1611.37
 142  1738.557
 143  1763.871
 144  1661.68
 145  2346.695
 146  1880.919
 147  2025.019
 148  1938.631
 149  1417.278
 150  1652.427
 151  1797.845
 152  2997.022
 153  4845.963
 154  4633.186
 155  2616.06
 156  1778.459
 157  1342.724
 158  2187.719
 159  1668.1
 160  1368.869
 161  2204.968
 162  1901.903
 163  1721.14
 164  1986.421
 165  2119.979
 166  1755.911
 167  1827.088
 168  1063.926
 169  2864.115
 170  1567.206
 171  1732.753
 172  3035.532
 173  2385.701
 174  2074.595
 175  2445.804
 176  1971.728
 177  2543.959
 178  1999.818
 179  2084.266
 180  1511.558
 181  1569.202
 182  2056.86
 183  1802.092
 184  1768.762
 185  1847.764
 186  2067.916
 187  1646.491
 188  1603.956
 189  967.035
 190  1240.489
 191  1204.798
 192  943.465
 193  753.2649
 194  686.8641
 195  1253.137
 196  368.5867
 197  1557.346
 198  1422.6
 199  1691.806
 200  1799.522
 201  1627.252
 202  1518.376
 203  1317.043
 204  2178.703
 205  2124.157
 206  2489.817
 207  2281.673
 208  2323.405
 209  1163.996
 210  1176.853
 211  1338.517
 212  1874.077
 213  1082.093
 214  1402.158
 215  1794.513
 216  1808.6
 217  991.6093
 218  950.7201
 219  1884.478
 220  1841.932
 221  1832.66
 222  2075.086
 223  2165.979
 224  1629.729
 225  1714.561
 226  1594.856
 227  1807.737
 228  1912.982
 229  2009.39
 230  1600.842
 231  1582.2
 232  1844.736
 233  2079.135
 234  2930.131
 235  2627.58
 236  2607.657
 237  3295.63
 238  3104.795
 239  2337.792
 240  2653.332
 241  1627.935
 242  1718.289
 243  2301.954
 244  1536.145
 245  1318.613
 246  1208.996
 247  1413.776
 248  1152.444
 249  1175.641
 250  1448.252
 251  2207.385
 252  1621.651
 253  2106.683
 254  2102.442
 255  2401.651
