# Input file       =  1200226254.109845_cleaned.dat
# Candidate        =  PSR_0332+5434
# Telescope        =  AR
# Epoch_topo       =  58135.507790623204
# Epoch_bary       =  N/A
# T_sample         =  0.002
# Data Folded      =  7208960
# Data Avg         =  0.016994952684631
# Data StdDev      =  0.999997426434775
# Profile Bins     =  512
# Profile Avg      =  239.292902219369 
# Profile StdDev   =  118.658870416402 
# Reduced chi-sqr  =  1.454
# Prob(Noise)      <  7.54e-11   (~6.4 sigma)
# P_topo (ms)      =  714.568229901831  +/- 0.000198
# P'_topo (s/s)    =  -0                +/- 1.06e-10
# P''_topo (s/s^2) =  0                 +/- 4.78e-14
# P_bary (ms)      =  N/A
# P'_bary (s/s)    =  N/A
# P''_bary (s/s^2) =  N/A
# P_orb (s)        =  N/A
# asin(i)/c (s)    =  N/A
# eccentricity     =  N/A
# w (rad)          =  N/A
# T_peri           =  N/A
######################################################
   0  973.8364
   1  852.9927
   2  706.876
   3  480.2439
   4  268.5208
   5  205.9723
   6  352.3165
   7  353.5562
   8  358.7399
   9  283.5371
  10  312.6591
  11  377.981
  12  239.3517
  13  240.1317
  14  320.4833
  15  278.4962
  16  315.3
  17  176.0399
  18  358.1982
  19  315.4593
  20  175.5542
  21  282.3343
  22  250.6788
  23  277.8988
  24  310.3607
  25  291.5977
  26  194.0352
  27  348.3941
  28  270.0017
  29  181.2674
  30  309.3232
  31  265.5277
  32  121.3919
  33  145.9527
  34  311.532
  35  369.4634
  36  247.7175
  37  342.4353
  38  279.3027
  39  139.6636
  40  195.327
  41  135.9519
  42  165.685
  43  212.9814
  44  376.4238
  45  406.1088
  46  321.1712
  47  224.5753
  48  364.2686
  49  277.2061
  50  205.9193
  51  198.6792
  52  154.6709
  53  178.4041
  54  211.2172
  55  266.9724
  56  289.1331
  57  282.7368
  58  314.4901
  59  213.7111
  60  332.0425
  61  336.3514
  62  349.1111
  63  321.3339
  64  263.6685
  65  224.512
  66  232.4113
  67  225.7502
  68  252.8998
  69  60.6115
  70  234.4679
  71  376.9787
  72  293.6767
  73  165.7984
  74  167.23
  75  298.0706
  76  381.0094
  77  301.7064
  78  182.56
  79  99.20818
  80  144.8927
  81  181.1766
  82  149.9896
  83  179.835
  84  347.5022
  85  364.6547
  86  63.23931
  87  179.2778
  88  333.036
  89  338.3466
  90  260.7397
  91  153.9797
  92  186.0318
  93  238.1328
  94  204.4905
  95  160.9522
  96  186.575
  97  310.6667
  98  431.9511
  99  202.5634
 100  300.0922
 101  311.7691
 102  305.8578
 103  195.2271
 104  134.0089
 105  50.67048
 106  116.4927
 107  112.9163
 108  152.5313
 109  232.877
 110  110.919
 111  175.2842
 112  43.41813
 113  35.56019
 114  145.9444
 115  57.9862
 116  190.1717
 117  101.0214
 118  -57.26395
 119  34.94426
 120  206.0427
 121  213.3309
 122  102.0892
 123  123.5747
 124  142.9123
 125  116.2739
 126  37.30974
 127  224.5573
 128  80.74641
 129  192.5952
 130  322.0104
 131  308.376
 132  161.2518
 133  186.8232
 134  234.2335
 135  254.7343
 136  281.3611
 137  279.4894
 138  263.9244
 139  301.0654
 140  275.3932
 141  156.2444
 142  136.772
 143  164.6974
 144  121.2597
 145  212.4389
 146  284.6103
 147  298.5869
 148  244.9507
 149  306.9589
 150  343.2358
 151  367.0768
 152  343.2145
 153  167.6965
 154  157.477
 155  90.52679
 156  58.23961
 157  236.6732
 158  186.326
 159  207.0644
 160  167.4706
 161  184.3084
 162  214.9641
 163  229.5743
 164  134.5489
 165  125.3031
 166  115.6476
 167  216.5771
 168  332.1161
 169  197.8899
 170  144.4064
 171  181.3871
 172  121.9497
 173  255.4329
 174  207.7316
 175  290.5146
 176  243.7514
 177  122.3827
 178  138.8204
 179  175.2829
 180  306.9062
 181  327.3125
 182  192.2834
 183  182.6913
 184  260.0808
 185  447.2446
 186  339.591
 187  192.7008
 188  232.8075
 189  192.3545
 190  45.03713
 191  148.6947
 192  196.0056
 193  162.7084
 194  215.1679
 195  174.9722
 196  230.2756
 197  292.4121
 198  295.5774
 199  162.4258
 200  146.2082
 201  151.011
 202  188.8065
 203  311.735
 204  282.2288
 205  194.0551
 206  103.2879
 207  199.2407
 208  391.1645
 209  340.7974
 210  215.5672
 211  367.9607
 212  110.7134
 213  158.3474
 214  303.2836
 215  246.8919
 216  200.3014
 217  162.6313
 218  321.7063
 219  401.3911
 220  273.0282
 221  262.5374
 222  307.4647
 223  274.2133
 224  351.5697
 225  194.2781
 226  257.4025
 227  185.6277
 228  207.5653
 229  322.9204
 230  305.7576
 231  253.1508
 232  405.467
 233  286.6112
 234  267.4823
 235  281.0007
 236  328.2902
 237  151.9526
 238  186.6882
 239  218.7359
 240  309.9723
 241  313.5395
 242  143.3404
 243  218.0708
 244  314.7023
 245  142.8138
 246  138.2985
 247  117.6007
 248  227.1644
 249  236.2988
 250  86.47842
 251  184.8096
 252  264.2775
 253  247.2249
 254  274.0507
 255  235.6111
 256  175.6533
 257  198.2648
 258  201.5298
 259  176.0647
 260  263.7937
 261  82.00645
 262  80.199
 263  162.5506
 264  254.5826
 265  236.0057
 266  187.1958
 267  196.0012
 268  360.0698
 269  227.2019
 270  286.456
 271  213.1263
 272  191.7772
 273  118.1851
 274  242.3891
 275  258.5212
 276  242.7677
 277  154.7812
 278  226.0687
 279  294.0462
 280  204.9297
 281  123.1605
 282  163.2924
 283  171.9237
 284  196.5578
 285  116.8852
 286  135.153
 287  274.606
 288  187.9994
 289  61.4782
 290  48.32327
 291  147.3195
 292  203.2141
 293  214.4793
 294  265.6926
 295  243.2199
 296  240.6537
 297  324.1016
 298  154.8129
 299  218.8348
 300  244.7757
 301  284.7429
 302  380.0006
 303  89.98331
 304  34.86584
 305  143.112
 306  187.896
 307  388.2581
 308  192.0647
 309  35.18843
 310  238.2353
 311  298.6401
 312  238.1969
 313  339.4309
 314  361.0598
 315  267.7381
 316  299.205
 317  367.9858
 318  220.4958
 319  185.0065
 320  290.6127
 321  292.3898
 322  205.4059
 323  114.5379
 324  63.16294
 325  112.0875
 326  274.715
 327  287.9572
 328  268.8445
 329  156.7229
 330  149.5486
 331  279.2921
 332  329.5964
 333  368.9341
 334  278.7306
 335  247.4055
 336  175.9496
 337  139.7166
 338  237.8352
 339  282.9562
 340  351.9662
 341  232.0231
 342  210.5906
 343  196.8391
 344  137.7748
 345  195.9436
 346  173.4826
 347  146.2918
 348  196.8526
 349  265.9234
 350  208.0102
 351  252.3387
 352  311.0495
 353  203.5561
 354  226.431
 355  146.6235
 356  227.0719
 357  197.1691
 358  242.9346
 359  243.0131
 360  279.1464
 361  229.5264
 362  305.495
 363  218.6952
 364  261.9526
 365  457.2905
 366  389.7294
 367  207.7782
 368  113.8018
 369  296.9634
 370  307.7816
 371  299.856
 372  283.8925
 373  272.6692
 374  273.4007
 375  340.5433
 376  407.0483
 377  350.9732
 378  281.4861
 379  275.9971
 380  208.3167
 381  183.2555
 382  240.3084
 383  198.2573
 384  248.3442
 385  274.9973
 386  336.128
 387  387.6766
 388  218.4067
 389  243.5916
 390  233.7587
 391  221.0189
 392  172.4054
 393  195.7795
 394  132.2758
 395  198.5726
 396  233.662
 397  231.7688
 398  170.6439
 399  294.6351
 400  271.7699
 401  313.4281
 402  277.9358
 403  136.7439
 404  117.4703
 405  207.0802
 406  304.0832
 407  241.4619
 408  257.2127
 409  188.4641
 410  286.7141
 411  269.865
 412  190.7233
 413  213.6989
 414  237.0794
 415  224.2825
 416  217.4791
 417  227.3602
 418  170.3989
 419  140.7773
 420  286.805
 421  268.4128
 422  281.5876
 423  346.2118
 424  186.0435
 425  79.98849
 426  168.9792
 427  214.0102
 428  159.4778
 429  103.7733
 430  229.7421
 431  111.8517
 432  221.7645
 433  157.9555
 434  288.2484
 435  212.4562
 436  235.5298
 437  239.8076
 438  155.7642
 439  185.3293
 440  275.3749
 441  174.824
 442  163.9396
 443  231.9745
 444  320.7621
 445  181.2234
 446  274.4828
 447  197.1862
 448  113.8515
 449  248.9648
 450  256.691
 451  251.0367
 452  233.7013
 453  212.3996
 454  168.2197
 455  295.108
 456  336.3485
 457  98.58646
 458  -35.55369
 459  176.8373
 460  263.4533
 461  306.9682
 462  264.0217
 463  270.2129
 464  337.6389
 465  277.5465
 466  272.8067
 467  153.1349
 468  192.2192
 469  257.9048
 470  262.2766
 471  279.1744
 472  300.7004
 473  303.4103
 474  351.1623
 475  272.516
 476  162.6133
 477  58.67589
 478  241.6272
 479  312.8754
 480  95.89899
 481  182.3333
 482  210.6314
 483  354.6223
 484  374.0713
 485  264.7312
 486  291.4915
 487  247.0814
 488  358.4515
 489  302.1642
 490  256.6347
 491  202.9067
 492  293.1781
 493  426.6964
 494  501.0746
 495  412.3429
 496  429.5815
 497  520.1492
 498  355.7385
 499  304.6165
 500  225.0849
 501  110.5512
 502  101.5295
 503  299.7767
 504  335.8769
 505  454.1785
 506  384.9084
 507  385.8775
 508  361.6145
 509  430.7469
 510  597.6279
 511  866.8581
