# Input file       =  1200656871.114483_cleaned.dat
# Candidate        =  PSR_0332+5434
# Telescope        =  AR
# Epoch_topo       =  58140.491783732446
# Epoch_bary       =  N/A
# T_sample         =  0.002
# Data Folded      =  7274496
# Data Avg         =  0.0204814072485531
# Data StdDev      =  1.00011032782771 
# Profile Bins     =  512
# Profile Avg      =  291.090791070327 
# Profile StdDev   =  119.210466186888 
# Reduced chi-sqr  =  1.592
# Prob(Noise)      <  3.19e-16   (~8.1 sigma)
# P_topo (ms)      =  714.571256566335  +/- 0.000165
# P'_topo (s/s)    =  -0                +/- 8.78e-11
# P''_topo (s/s^2) =  0                 +/- 3.91e-14
# P_bary (ms)      =  N/A
# P'_bary (s/s)    =  N/A
# P''_bary (s/s^2) =  N/A
# P_orb (s)        =  N/A
# asin(i)/c (s)    =  N/A
# eccentricity     =  N/A
# w (rad)          =  N/A
# T_peri           =  N/A
######################################################
   0  1087.381
   1  909.0121
   2  711.4337
   3  490.3976
   4  264.1596
   5  320.1692
   6  327.1349
   7  401.8145
   8  409.226
   9  350.8673
  10  427.3313
  11  390.8614
  12  314.9617
  13  464.9428
  14  568.165
  15  417.9777
  16  271.3574
  17  194.0058
  18  217.9165
  19  271.9725
  20  198.7945
  21  321.7081
  22  164.3862
  23  183.2753
  24  230.8243
  25  167.187
  26  119.5056
  27  196.5435
  28  322.6787
  29  360.1242
  30  229.1783
  31  313.1567
  32  314.4754
  33  214.163
  34  275.4579
  35  478.9511
  36  309.5706
  37  166.0481
  38  260.3668
  39  362.4528
  40  341.7201
  41  331.1568
  42  374.5919
  43  243.6792
  44  250.7722
  45  292.0047
  46  359.6028
  47  263.4564
  48  270.6232
  49  352.0198
  50  357.1738
  51  283.2341
  52  255.0429
  53  258.4849
  54  257.4082
  55  415.2017
  56  361.8044
  57  270.5427
  58  341.9745
  59  389.6949
  60  314.4782
  61  255.1241
  62  217.4648
  63  192.4407
  64  171.6475
  65  229.8777
  66  190.7682
  67  229.5897
  68  282.5133
  69  338.4314
  70  285.1426
  71  384.776
  72  334.67
  73  348.0165
  74  274.4742
  75  260.5746
  76  290.241
  77  353.5323
  78  392.4721
  79  345.9623
  80  304.0432
  81  423.696
  82  515.9926
  83  326.2764
  84  358.7877
  85  347.4176
  86  372.3022
  87  367.3197
  88  357.4927
  89  281.2296
  90  295.6306
  91  232.9745
  92  309.5953
  93  390.2637
  94  428.6641
  95  373.0936
  96  374.3009
  97  349.087
  98  273.4234
  99  293.4948
 100  265.8042
 101  184.5537
 102  177.9038
 103  268.9055
 104  278.7943
 105  211.6261
 106  368.4146
 107  353.9374
 108  212.1525
 109  227.026
 110  100.7496
 111  181.4248
 112  321.0452
 113  388.757
 114  238.2323
 115  279.4977
 116  248.3796
 117  279.4978
 118  143.4131
 119  286.4997
 120  398.4565
 121  406.8958
 122  339.0286
 123  373.1049
 124  349.8756
 125  215.2419
 126  78.12154
 127  103.9456
 128  196.0303
 129  150.981
 130  266.4118
 131  278.705
 132  362.5056
 133  312.7864
 134  206.4862
 135  204.8072
 136  226.6411
 137  231.0172
 138  329.5052
 139  281.5331
 140  224.299
 141  260.2776
 142  242.3194
 143  333.4079
 144  359.0222
 145  321.2071
 146  302.6637
 147  216.7589
 148  235.1836
 149  335.4055
 150  235.4908
 151  297.9185
 152  435.8851
 153  385.4208
 154  320.694
 155  351.0094
 156  395.5167
 157  391.5724
 158  276.2725
 159  267.0457
 160  362.9354
 161  394.6673
 162  320.1572
 163  318.7739
 164  337.9634
 165  221.2112
 166  341.05
 167  297.6332
 168  202.5849
 169  196.7622
 170  332.2909
 171  270.7626
 172  328.3792
 173  382.278
 174  216.7361
 175  214.7651
 176  244.642
 177  257.9807
 178  474.4052
 179  400.5698
 180  319.1046
 181  255.3076
 182  316.8429
 183  360.6174
 184  349.9052
 185  414.8674
 186  408.9098
 187  331.828
 188  356.3869
 189  418.1261
 190  326.6306
 191  309.2648
 192  326.6183
 193  341.0065
 194  144.4537
 195  168.2925
 196  352.194
 197  314.7433
 198  324.2487
 199  244.1972
 200  235.9201
 201  282.4651
 202  107.7764
 203  115.5581
 204  289.8054
 205  244.8108
 206  274.6968
 207  108.9459
 208  187.3335
 209  184.3569
 210  139.9495
 211  177.6136
 212  221.313
 213  192.0651
 214  251.3079
 215  109.9019
 216  120.6247
 217  208.3361
 218  249.6936
 219  349.2533
 220  284.7886
 221  349.4723
 222  299.7233
 223  147.5564
 224  200.9378
 225  233.1963
 226  303.8017
 227  264.8478
 228  247.8701
 229  241.176
 230  346.1203
 231  259.9619
 232  290.5252
 233  386.7681
 234  381.8681
 235  279.5561
 236  303.2498
 237  384.8248
 238  497.7842
 239  442.7692
 240  380.0451
 241  313.0103
 242  311.2594
 243  492.9062
 244  355.725
 245  275.344
 246  266.1646
 247  276.515
 248  206.1935
 249  185.4475
 250  212.8924
 251  252.9466
 252  278.5074
 253  400.7408
 254  359.15
 255  249.3387
 256  380.2436
 257  233.001
 258  190.1605
 259  163.2913
 260  211.6465
 261  248.275
 262  273.0728
 263  221.8288
 264  367.2785
 265  157.3737
 266  224.4906
 267  208.7154
 268  184.7943
 269  218.1729
 270  233.8289
 271  145.3055
 272  222.341
 273  240.0412
 274  245.1696
 275  205.6409
 276  248.6921
 277  160.6603
 278  340.4962
 279  308.2525
 280  243.6384
 281  293.1777
 282  276.3115
 283  273.1231
 284  366.7851
 285  347.376
 286  297.3149
 287  291.4086
 288  374.4667
 289  470.8778
 290  337.6036
 291  343.2718
 292  284.4531
 293  230.9792
 294  146.0058
 295  282.2354
 296  346.0289
 297  300.4434
 298  222.9253
 299  204.3899
 300  185.2877
 301  217.2649
 302  246.9507
 303  221.5414
 304  206.7324
 305  227.3197
 306  243.5247
 307  308.0482
 308  364.338
 309  293.4287
 310  74.46361
 311  80.39612
 312  211.5671
 313  301.2244
 314  286.1505
 315  182.3476
 316  117.9823
 317  113.829
 318  159.5041
 319  260.3401
 320  329.9302
 321  328.0803
 322  232.7328
 323  108.0908
 324  161.7462
 325  164.8176
 326  262.1933
 327  247.1925
 328  208.0657
 329  252.3022
 330  243.1952
 331  192.0879
 332  131.4586
 333  135.2602
 334  235.5628
 335  267.5353
 336  286.0215
 337  351.6904
 338  243.0481
 339  249.4518
 340  295.341
 341  283.9612
 342  142.8548
 343  98.3492
 344  111.4018
 345  263.9972
 346  357.549
 347  172.8312
 348  188.7645
 349  208.2445
 350  330.3694
 351  200.9775
 352  227.0491
 353  266.819
 354  166.4029
 355  63.50275
 356  323.5514
 357  253.4743
 358  183.9962
 359  237.8511
 360  311.0549
 361  389.0273
 362  401.7851
 363  352.5482
 364  270.0138
 365  195.1335
 366  339.6202
 367  338.2803
 368  397.859
 369  340.8864
 370  261.7483
 371  321.7888
 372  251.7309
 373  252.6819
 374  337.6162
 375  297.6752
 376  304.353
 377  205.2155
 378  355.9292
 379  276.2839
 380  259.3168
 381  359.0399
 382  236.4279
 383  183.997
 384  290.7389
 385  264.2889
 386  285.2652
 387  283.9643
 388  224.4102
 389  288.1035
 390  362.3838
 391  349.2326
 392  307.6279
 393  202.4976
 394  434.7117
 395  261.5055
 396  372.468
 397  240.2432
 398  200.0798
 399  251.1736
 400  341.0544
 401  388.2375
 402  333.4867
 403  386.5164
 404  504.8426
 405  359.8818
 406  150.3903
 407  169.1749
 408  178.1438
 409  1.245041
 410  108.2255
 411  255.6414
 412  309.5791
 413  411.1628
 414  226.0964
 415  236.9129
 416  224.6479
 417  186.9406
 418  378.5058
 419  281.6915
 420  159.4267
 421  228.6962
 422  334.179
 423  214.3007
 424  203.8627
 425  294.8458
 426  407.7304
 427  408.2521
 428  328.3818
 429  321.0437
 430  260.3681
 431  245.1293
 432  305.5099
 433  233.155
 434  223.0104
 435  239.2146
 436  272.1587
 437  246.9885
 438  228.1765
 439  273.5036
 440  188.5903
 441  200.1759
 442  150.1043
 443  371.3492
 444  393.4562
 445  347.1855
 446  332.3091
 447  350.5897
 448  341.6454
 449  258.2547
 450  303.9728
 451  449.2867
 452  338.109
 453  418.2422
 454  417.1794
 455  422.2749
 456  477.1044
 457  336.2354
 458  371.7921
 459  358.7859
 460  398.6774
 461  261.877
 462  281.1897
 463  481.5306
 464  405.9121
 465  348.1856
 466  160.9314
 467  283.4012
 468  318.3868
 469  407.9774
 470  328.4388
 471  252.7069
 472  278.9794
 473  181.8388
 474  227.1283
 475  281.0284
 476  266.3512
 477  249.0772
 478  177.2425
 479  313.6922
 480  306.2906
 481  265.8766
 482  347.2909
 483  413.0536
 484  422.0749
 485  282.3987
 486  335.3066
 487  333.2217
 488  303.7751
 489  222.3658
 490  252.3716
 491  311.8108
 492  370.1987
 493  244.964
 494  386.3696
 495  455.6362
 496  284.9196
 497  177.7207
 498  190.1173
 499  342.6066
 500  309.3615
 501  356.0338
 502  354.0019
 503  191.2712
 504  235.6953
 505  239.2684
 506  203.8866
 507  325.9472
 508  578.5598
 509  730.797
 510  925.9308
 511  1045.284
