# Input file       =  1200570921.112577_cleaned.dat
# Candidate        =  PSR_0332+5434
# Telescope        =  AR
# Epoch_topo       =  58139.496992043714
# Epoch_bary       =  N/A
# T_sample         =  0.002
# Data Folded      =  7143424
# Data Avg         =  0.0146525164036007
# Data StdDev      =  1.00005661615117 
# Profile Bins     =  512
# Profile Avg      =  204.657140580657 
# Profile StdDev   =  118.125271901502 
# Reduced chi-sqr  =  1.366
# Prob(Noise)      <  6.5e-08   (~5.3 sigma)
# P_topo (ms)      =  714.570682759008  +/- 5.68e-05
# P'_topo (s/s)    =  -0                +/- 3.08e-11
# P''_topo (s/s^2) =  0                 +/- 1.4e-14
# P_bary (ms)      =  N/A
# P'_bary (s/s)    =  N/A
# P''_bary (s/s^2) =  N/A
# P_orb (s)        =  N/A
# asin(i)/c (s)    =  N/A
# eccentricity     =  N/A
# w (rad)          =  N/A
# T_peri           =  N/A
######################################################
   0  737.7454
   1  867.3486
   2  690.3386
   3  376.8962
   4  188.2863
   5  107.9678
   6  111.5431
   7  186.7232
   8  230.2981
   9  255.4928
  10  286.3937
  11  242.2531
  12  213.6136
  13  170.7359
  14  109.5973
  15  57.07227
  16  162.208
  17  252.0304
  18  342.7995
  19  347.761
  20  173.628
  21  134.4801
  22  121.0694
  23  292.5105
  24  220.4237
  25  262.601
  26  326.1878
  27  219.3918
  28  226.8068
  29  231.4957
  30  118.8875
  31  91.67966
  32  22.02455
  33  233.8045
  34  259.9945
  35  295.1794
  36  227.2238
  37  187.3394
  38  193.0692
  39  169.3881
  40  168.9509
  41  156.7409
  42  217.7879
  43  252.6378
  44  281.1155
  45  75.42509
  46  91.3111
  47  95.40569
  48  81.85595
  49  147.9321
  50  283.7138
  51  193.2873
  52  214.8676
  53  231.266
  54  141.7868
  55  118.3191
  56  17.83771
  57  93.84338
  58  113.1761
  59  324.493
  60  268.3006
  61  147.874
  62  92.25256
  63  111.0417
  64  14.72685
  65  236.9861
  66  327.6894
  67  276.2715
  68  281.5566
  69  264.327
  70  194.4692
  71  167.7856
  72  51.93292
  73  58.95908
  74  197.0572
  75  275.1387
  76  119.3297
  77  128.5731
  78  174.1314
  79  199.0953
  80  101.4399
  81  230.9784
  82  126.838
  83  155.0466
  84  309.4376
  85  244.5682
  86  282.8658
  87  143.9444
  88  140.6539
  89  104.731
  90  164.2673
  91  220.6409
  92  138.8127
  93  169.8495
  94  191.8257
  95  73.12374
  96  123.1426
  97  138.1114
  98  101.2617
  99  217.5199
 100  154.7127
 101  252.7847
 102  309.2745
 103  271.4806
 104  106.6453
 105  111.7187
 106  283.7755
 107  263.365
 108  331.6949
 109  211.8097
 110  88.17487
 111  197.0443
 112  282.8128
 113  212.5514
 114  194.7755
 115  227.4459
 116  251.4451
 117  313.6823
 118  294.6722
 119  293.8872
 120  129.3667
 121  89.74675
 122  144.2973
 123  178.4128
 124  241.5194
 125  227.7449
 126  192.1546
 127  173.6555
 128  178.5216
 129  305.5556
 130  404.5286
 131  356.6519
 132  388.277
 133  296.0764
 134  202.435
 135  324.0429
 136  154.6717
 137  132.3506
 138  234.4548
 139  290.4319
 140  222.0967
 141  344.0547
 142  184.5017
 143  279.5314
 144  246.6443
 145  208.9206
 146  246.7689
 147  260.8459
 148  382.1777
 149  345.55
 150  271.4389
 151  398.9313
 152  432.8494
 153  249.3469
 154  184.4409
 155  115.9575
 156  70.20456
 157  71.09555
 158  281.4559
 159  310.2343
 160  311.6359
 161  203.5974
 162  242.0617
 163  222.7897
 164  212.0625
 165  333.2638
 166  444.0285
 167  418.8175
 168  255.3424
 169  178.3317
 170  266.3858
 171  175.889
 172  56.02751
 173  291.7189
 174  285.2335
 175  160.7586
 176  126.3601
 177  146.3958
 178  247.9906
 179  283.5124
 180  233.829
 181  300.4753
 182  265.9341
 183  88.04798
 184  129.0152
 185  218.1376
 186  256.8842
 187  182.3018
 188  85.29758
 189  179.0982
 190  256.2588
 191  206.3241
 192  167.5692
 193  175.2275
 194  194.4009
 195  230.6207
 196  141.3955
 197  236.9771
 198  280.1706
 199  159.6268
 200  159.2889
 201  174.3104
 202  257.4878
 203  240.9805
 204  79.88129
 205  150.3306
 206  173.4891
 207  165.2675
 208  304.6091
 209  152.0324
 210  208.4532
 211  294.5475
 212  222.7527
 213  131.8779
 214  213.2341
 215  256.6654
 216  349.9494
 217  426.3197
 218  410.4362
 219  151.3601
 220  104.7381
 221  108.7398
 222  181.9374
 223  221.9117
 224  152.6098
 225  157.4174
 226  89.12875
 227  123.1352
 228  52.89812
 229  104.0313
 230  100.7258
 231  257.9181
 232  494.1773
 233  375.546
 234  279.0948
 235  215.3995
 236  176.8579
 237  83.52837
 238  144.844
 239  179.4946
 240  327.9679
 241  348.7501
 242  283.7475
 243  311.8642
 244  212.321
 245  262.8026
 246  191.6464
 247  138.6573
 248  157.5875
 249  270.1183
 250  340.7233
 251  338.8552
 252  107.2062
 253  161.8946
 254  193.8911
 255  62.89325
 256  193.8458
 257  220.1967
 258  48.37236
 259  64.72797
 260  116.5505
 261  150.0692
 262  142.6999
 263  146.1834
 264  185.2004
 265  73.35004
 266  301.0404
 267  298.1761
 268  77.04689
 269  33.78376
 270  115.7723
 271  120.5859
 272  245.352
 273  252.4665
 274  142.1708
 275  212.1348
 276  149.667
 277  34.63283
 278  131.1973
 279  109.194
 280  162.3761
 281  256.2716
 282  220.867
 283  154.6698
 284  7.016372
 285  0.6345301
 286  183.9795
 287  239.0725
 288  227.1622
 289  183.4802
 290  246.6644
 291  193.1548
 292  146.7988
 293  125.5411
 294  126.5859
 295  254.7953
 296  215.9146
 297  75.02512
 298  189.3511
 299  251.7876
 300  141.1782
 301  201.0845
 302  128.4854
 303  210.0779
 304  176.3133
 305  183.798
 306  219.6907
 307  312.9787
 308  271.6027
 309  228.3498
 310  231.5136
 311  215.8601
 312  168.4016
 313  292.9649
 314  196.3739
 315  177.1496
 316  213.2198
 317  169.276
 318  160.8689
 319  236.6135
 320  122.287
 321  145.7307
 322  236.4669
 323  240.2643
 324  143.1616
 325  181.6155
 326  38.49038
 327  35.03274
 328  163.1759
 329  134.5542
 330  181.0084
 331  197.064
 332  245.156
 333  331.4236
 334  296.5883
 335  194.386
 336  56.28343
 337  78.68372
 338  204.3575
 339  186.9721
 340  268.1279
 341  201.1978
 342  169.0077
 343  189.5221
 344  223.7202
 345  146.0108
 346  162.9599
 347  292.1297
 348  257.3572
 349  253.1529
 350  143.192
 351  237.6488
 352  187.0786
 353  215.3343
 354  202.2936
 355  162.9145
 356  265.7163
 357  156.1123
 358  292.9482
 359  258.0611
 360  137.4032
 361  165.3382
 362  183.6273
 363  123.0196
 364  110.9756
 365  163.9624
 366  239.4774
 367  201.9311
 368  163.1375
 369  191.5592
 370  142.0139
 371  156.652
 372  127.274
 373  185.1519
 374  265.3079
 375  245.1877
 376  223.5899
 377  126.7872
 378  148.3124
 379  197.3873
 380  285.9649
 381  206.9402
 382  281.2455
 383  162.2985
 384  14.06995
 385  167.6834
 386  125.0277
 387  156.0952
 388  231.1047
 389  69.31788
 390  129.3588
 391  172.5783
 392  148.8443
 393  66.03492
 394  3.464355
 395  129.921
 396  305.557
 397  403.9637
 398  183.2348
 399  198.4358
 400  62.83564
 401  7.588931
 402  118.8595
 403  233.0787
 404  109.9347
 405  177.2661
 406  208.5184
 407  181.9283
 408  50.62165
 409  111.0959
 410  154.1763
 411  120.951
 412  206.2811
 413  61.25659
 414  163.0789
 415  181.9834
 416  192.3639
 417  186.7486
 418  245.3222
 419  325.957
 420  137.703
 421  167.8259
 422  316.2395
 423  344.9915
 424  221.9123
 425  260.7964
 426  185.1121
 427  243.9579
 428  111.1432
 429  200.1103
 430  250.0192
 431  313.39
 432  331.8034
 433  329.4634
 434  130.2441
 435  138.7207
 436  73.98026
 437  151.5186
 438  73.7102
 439  225.956
 440  277.9073
 441  232.117
 442  81.16947
 443  34.02118
 444  250.0466
 445  197.0296
 446  147.7287
 447  236.6085
 448  269.5999
 449  155.6784
 450  125.134
 451  82.675
 452  27.3054
 453  129.8031
 454  269.3602
 455  278.804
 456  206.7207
 457  238.5644
 458  214.5134
 459  228.6889
 460  179.5738
 461  131.562
 462  337.7601
 463  385.7746
 464  251.3915
 465  235.9088
 466  217.1612
 467  232.393
 468  146.4983
 469  223.9028
 470  267.2204
 471  331.5556
 472  259.292
 473  249.5006
 474  293.5942
 475  143.5799
 476  30.11223
 477  65.63914
 478  216.4259
 479  219.297
 480  133.8918
 481  165.0238
 482  263.5318
 483  209.9769
 484  203.9229
 485  160.1883
 486  48.6686
 487  102.0481
 488  190.4476
 489  152.0675
 490  68.34083
 491  105.8872
 492  229.9259
 493  232.2077
 494  143.5139
 495  268.7265
 496  357.3052
 497  283.4235
 498  231.7268
 499  246.2265
 500  221.1221
 501  164.5515
 502  129.469
 503  246.3367
 504  413.9918
 505  389.5014
 506  223.438
 507  455.4831
 508  545.5771
 509  479.9081
 510  548.1809
 511  655.5619
