# Input file       =  1200930286.110481_cleaned.dat
# Candidate        =  PSR_0332+5434
# Telescope        =  AR
# Epoch_topo       =  58143.656309149083
# Epoch_bary       =  N/A
# T_sample         =  0.002
# Data Folded      =  7340032
# Data Avg         =  0.0159301739583522
# Data StdDev      =  1.00005718525943 
# Profile Bins     =  512
# Profile Avg      =  228.54291984272  
# Profile StdDev   =  119.739883341513 
# Reduced chi-sqr  =  1.296
# Prob(Noise)      <  6.77e-06   (~4.4 sigma)
# P_topo (ms)      =  714.572978268553  +/- 0.000187
# P'_topo (s/s)    =  -0                +/- 9.88e-11
# P''_topo (s/s^2) =  0                 +/- 4.36e-14
# P_bary (ms)      =  N/A
# P'_bary (s/s)    =  N/A
# P''_bary (s/s^2) =  N/A
# P_orb (s)        =  N/A
# asin(i)/c (s)    =  N/A
# eccentricity     =  N/A
# w (rad)          =  N/A
# T_peri           =  N/A
######################################################
   0  137.7206
   1  243.2607
   2  240.6222
   3  249.6174
   4  187.5335
   5  356.2571
   6  302.9172
   7  226.9534
   8  315.8732
   9  374.2104
  10  297.9655
  11  352.8292
  12  431.7891
  13  346.6647
  14  304.7048
  15  293.2069
  16  314.5765
  17  420.3857
  18  423.8558
  19  298.7281
  20  182.3102
  21  228.182
  22  275.7718
  23  291.9328
  24  291.9901
  25  283.365
  26  158.7373
  27  150.7281
  28  220.0262
  29  271.4961
  30  147.4485
  31  147.9824
  32  175.5209
  33  200.6716
  34  232.2894
  35  220.6657
  36  249.0864
  37  230.6034
  38  232.0061
  39  396.0026
  40  464.7409
  41  357.9969
  42  305.0557
  43  324.7102
  44  277.5449
  45  244.7311
  46  238.3898
  47  279.5699
  48  168.966
  49  253.5928
  50  305.7385
  51  298.7901
  52  271.4532
  53  309.0936
  54  302.662
  55  268.9232
  56  304.5911
  57  236.9106
  58  195.9756
  59  204.8732
  60  290.7677
  61  381.3044
  62  405.7988
  63  361.3613
  64  209.3473
  65  138.0862
  66  180.5051
  67  229.312
  68  172.667
  69  152.5126
  70  167.4879
  71  195.1199
  72  212.9947
  73  287.6421
  74  257.2217
  75  237.781
  76  114.5003
  77  278.2895
  78  236.6429
  79  73.6404
  80  144.5686
  81  310.6161
  82  297.8739
  83  278.5285
  84  370.5777
  85  245.568
  86  178.6103
  87  134.8588
  88  138.6357
  89  36.72752
  90  242.5499
  91  254.3549
  92  232.9035
  93  209.5312
  94  149.7104
  95  118.1844
  96  205.4642
  97  121.5206
  98  145.8702
  99  125.1043
 100  107.32
 101  155.1486
 102  189.9679
 103  101.9616
 104  101.6569
 105  138.1869
 106  271.6829
 107  170.0974
 108  107.788
 109  192.975
 110  238.2563
 111  210.3716
 112  112.5344
 113  199.2101
 114  193.3703
 115  248.1713
 116  251.9029
 117  259.1547
 118  247.8764
 119  212.0419
 120  214.4618
 121  205.1699
 122  172.8921
 123  168.1063
 124  102.8022
 125  70.17094
 126  209.9673
 127  235.1948
 128  180.9722
 129  197.8776
 130  176.6801
 131  52.23993
 132  32.14226
 133  48.22802
 134  131.181
 135  223.8339
 136  138.8108
 137  104.3723
 138  192.5873
 139  79.73814
 140  44.97274
 141  37.10709
 142  69.01196
 143  152.6158
 144  332.4272
 145  328.8125
 146  161.6605
 147  53.80662
 148  125.4332
 149  108.2992
 150  135.4202
 151  220.8383
 152  238.3029
 153  205.2897
 154  124.4231
 155  207.9839
 156  68.59176
 157  65.63561
 158  117.0703
 159  178.6264
 160  198.1892
 161  125.6216
 162  273.0851
 163  256.7421
 164  211.2812
 165  148.1895
 166  124.5866
 167  195.8782
 168  222.7502
 169  209.5668
 170  169.7041
 171  164.2471
 172  192.4401
 173  203.9595
 174  204.5298
 175  367.1825
 176  308.8919
 177  204.4941
 178  291.0391
 179  187.0197
 180  170.3156
 181  287.6555
 182  122.9595
 183  196.6967
 184  227.4892
 185  326.5432
 186  421.9268
 187  202.4279
 188  180.2265
 189  142.5099
 190  182.5064
 191  248.3976
 192  222.5313
 193  239.9231
 194  221.4668
 195  95.64645
 196  63.53666
 197  239.0442
 198  259.3186
 199  265.941
 200  189.4858
 201  148.0753
 202  195.8058
 203  196.3479
 204  138.733
 205  179.6862
 206  245.6452
 207  263.269
 208  226.8702
 209  275.058
 210  265.3724
 211  279.5251
 212  271.8729
 213  209.1127
 214  289.6915
 215  294.161
 216  256.988
 217  228.2372
 218  290.0223
 219  286.8154
 220  235.84
 221  260.5601
 222  310.0341
 223  281.4466
 224  308.734
 225  303.2303
 226  290.4697
 227  348.9011
 228  233.6929
 229  173.8858
 230  291.9791
 231  301.8118
 232  213.1222
 233  331.4464
 234  265.5454
 235  263.3105
 236  257.844
 237  164.0995
 238  110.6242
 239  147.4126
 240  322.8412
 241  369.6017
 242  335.6371
 243  232.2762
 244  244.8382
 245  268.1136
 246  202.9549
 247  295.4468
 248  340.2521
 249  205.787
 250  136.8922
 251  146.6107
 252  159.6997
 253  213.918
 254  348.9189
 255  315.1066
 256  147.852
 257  260.0492
 258  157.8959
 259  254.3112
 260  316.9049
 261  318.2809
 262  310.4134
 263  307.4656
 264  241.1368
 265  222.4196
 266  252.6107
 267  360.6948
 268  364.6365
 269  280.5533
 270  127.2923
 271  178.3593
 272  333.5419
 273  322.7008
 274  205.9474
 275  223.5258
 276  112.0051
 277  166.2668
 278  329.6164
 279  301.927
 280  245.3024
 281  242.3794
 282  248.2066
 283  245.4247
 284  294.2105
 285  335.698
 286  327.7423
 287  189.8593
 288  208.6163
 289  270.3082
 290  215.9944
 291  162.5549
 292  152.2279
 293  249.736
 294  278.6621
 295  238.6436
 296  218.012
 297  238.6499
 298  268.1928
 299  294.6526
 300  213.8818
 301  194.0407
 302  128.5656
 303  134.7199
 304  212.6859
 305  254.0684
 306  245.925
 307  203.8154
 308  150.947
 309  118.594
 310  165.5876
 311  193.0003
 312  166.9966
 313  202.022
 314  373.5247
 315  287.9144
 316  180.7912
 317  224.7036
 318  300.33
 319  101.1781
 320  190.1073
 321  199.9574
 322  138.4226
 323  230.9334
 324  230.3995
 325  254.3332
 326  168.0485
 327  75.00591
 328  274.4518
 329  413.2098
 330  264.5205
 331  126.433
 332  215.0909
 333  144.1893
 334  215.7423
 335  205.698
 336  213.2015
 337  218.3056
 338  273.8107
 339  321.0626
 340  345.1819
 341  287.7014
 342  221.8336
 343  263.1006
 344  335.2556
 345  354.284
 346  283.1915
 347  222.0329
 348  233.2769
 349  189.2664
 350  294.1113
 351  243.5834
 352  266.0709
 353  344.1497
 354  429.9677
 355  745.5957
 356  933.5745
 357  863.6161
 358  832.2705
 359  763.1295
 360  466.7392
 361  356.9757
 362  330.5471
 363  216.0845
 364  189.8023
 365  336.5246
 366  316.6488
 367  252.4942
 368  222.2287
 369  176.9358
 370  111.3041
 371  184.4541
 372  253.494
 373  304.781
 374  220.3937
 375  223.4511
 376  266.9921
 377  241.5182
 378  245.1079
 379  312.6186
 380  265.5746
 381  217.254
 382  199.9737
 383  204.2702
 384  244.1066
 385  131.6822
 386  66.58019
 387  263.2319
 388  471.0232
 389  350.221
 390  208.3272
 391  152.9514
 392  266.0975
 393  257.1548
 394  336.6739
 395  283.0469
 396  232.4762
 397  229.5915
 398  206.9625
 399  303.2047
 400  292.563
 401  213.3878
 402  236.0411
 403  281.801
 404  295.4702
 405  313.609
 406  276.6845
 407  300.0484
 408  339.6769
 409  251.9233
 410  154.7069
 411  84.77631
 412  183.7496
 413  292.6279
 414  287.5064
 415  210.4738
 416  249.5993
 417  269.4733
 418  148.2762
 419  190.7771
 420  192.3652
 421  167.4089
 422  219.7146
 423  152.7788
 424  175.5521
 425  238.597
 426  246.7613
 427  182.9944
 428  146.1742
 429  267.399
 430  164.2232
 431  194.7344
 432  239.0611
 433  158.9426
 434  85.71497
 435  125.3215
 436  201.3358
 437  192.141
 438  193.7308
 439  244.1819
 440  156.8666
 441  20.78954
 442  -12.63015
 443  176.5775
 444  350.5219
 445  281.8637
 446  225.4265
 447  330.1558
 448  185.9432
 449  163.4941
 450  153.0605
 451  183.1219
 452  188.4011
 453  161.0176
 454  233.2938
 455  132.1588
 456  -31.24967
 457  153.3373
 458  112.1914
 459  69.54401
 460  135.2633
 461  269.727
 462  296.8669
 463  271.9445
 464  282.3547
 465  212.2891
 466  252.079
 467  90.27174
 468  47.93392
 469  118.1229
 470  167.8237
 471  156.6893
 472  111.8877
 473  183.3823
 474  275.2678
 475  194.7694
 476  241.057
 477  200.7162
 478  208.8999
 479  242.1588
 480  274.601
 481  315.2621
 482  236.8991
 483  172.7095
 484  194.0473
 485  159.4324
 486  198.93
 487  226.1246
 488  222.358
 489  233.923
 490  120.0368
 491  164.288
 492  234.8797
 493  195.8255
 494  266.6875
 495  246.862
 496  247.7406
 497  212.1793
 498  161.8803
 499  149.4468
 500  154.2864
 501  193.1541
 502  94.48734
 503  200.9719
 504  167.3654
 505  92.74783
 506  165.5106
 507  211.8681
 508  140.8973
 509  167.0181
 510  144.0683
 511  164.305
