# Input file       =  1200327044.107096-PSRB0329-2ms-sampling-dd.dat
# Candidate        =  PSR_0332+5434
# Telescope        =  AR
# Epoch_topo       =  58136.674341517311
# Epoch_bary       =  N/A
# T_sample         =  0.002
# Data Folded      =  7340032
# Data Avg         =  7.3667925204702e-09
# Data StdDev      =  148.726165508882 
# Profile Bins     =  512
# Profile Avg      =  0.223191093791425
# Profile StdDev   =  17807.4353850519 
# Reduced chi-sqr  =  1.210
# Prob(Noise)      <  0.000768   (~3.2 sigma)
# P_topo (ms)      =  714.56898962011   +/- 0.000313
# P'_topo (s/s)    =  -0                +/- 1.65e-10
# P''_topo (s/s^2) =  0                 +/- 7.3e-14
# P_bary (ms)      =  N/A
# P'_bary (s/s)    =  N/A
# P''_bary (s/s^2) =  N/A
# P_orb (s)        =  N/A
# asin(i)/c (s)    =  N/A
# eccentricity     =  N/A
# w (rad)          =  N/A
# T_peri           =  N/A
######################################################
   0  -11434.01
   1  -12325.47
   2  -11865.9
   3  -10650.69
   4  -6561.754
   5  -4339.445
   6  -3368.715
   7  -5443.128
   8  -4628.169
   9  -4291.917
  10  -3936.081
  11  -3885.148
  12  -5319.55
  13  -7924.425
  14  -9266.259
  15  -8916.337
  16  -8455.739
  17  -8266.145
  18  -8042.285
  19  -9012.914
  20  -9790.147
  21  -11017.68
  22  -11033.48
  23  -11465.63
  24  -11141.35
  25  -11674.78
  26  -11524.56
  27  -11631.13
  28  -11768.07
  29  -6984.942
  30  -5514.697
  31  -1192.072
  32  624.9634
  33  5227.319
  34  2802.064
  35  -3697.103
  36  -6354.627
  37  -7653.206
  38  -8951.477
  39  981.4682
  40  11661.98
  41  18760.52
  42  17532.65
  43  17704.3
  44  13267.67
  45  2321.903
  46  -917.0866
  47  8142.608
  48  221.884
  49  -1476.562
  50  -2329.678
  51  -6335.407
  52  -8544.683
  53  -9906.037
  54  -9279.165
  55  -7002.497
  56  -5520.682
  57  -3545.835
  58  -2405.378
  59  -9432.919
  60  -9141.755
  61  2493.584
  62  18256.77
  63  26202.52
  64  34683.65
  65  24938.86
  66  1682.191
  67  -2803.189
  68  1880.291
  69  12936.83
  70  19831.97
  71  15817.75
  72  12734.54
  73  -2374.504
  74  1630.647
  75  2241.915
  76  2624.477
  77  -917.8714
  78  -5739.661
  79  -6361.79
  80  6022.614
  81  14424.52
  82  24494.18
  83  18815.59
  84  4224.158
  85  135.2297
  86  -4545.461
  87  -6851.062
  88  -3492.961
  89  -3720.03
  90  -6632.25
  91  -7968.287
  92  -7438.989
  93  -7060.153
  94  -6230.368
  95  -6639.69
  96  -7509.978
  97  -8240.266
  98  -9208.225
  99  -9910.294
 100  -8052.363
 101  -7776.262
 102  -8105.483
 103  -5741.599
 104  -578.4299
 105  4268.254
 106  2572.651
 107  -1255.553
 108  -4026.298
 109  -8899.57
 110  -9528.546
 111  -7499.169
 112  -5209.844
 113  -5817.158
 114  -5739.925
 115  -7468.157
 116  -8649.609
 117  -9134.516
 118  -8559.848
 119  -8672.928
 120  -10469.19
 121  -6902.154
 122  7516.661
 123  8613.495
 124  8510.658
 125  3715.251
 126  1691.141
 127  -91.38996
 128  4131.971
 129  25293.2
 130  41467.91
 131  48002.04
 132  49140.11
 133  38420.11
 134  944.6416
 135  9457.848
 136  23856.46
 137  54519.35
 138  50988.78
 139  39894.76
 140  24773.71
 141  -6360.386
 142  -1950.644
 143  -252.9813
 144  -2106.784
 145  1366.242
 146  1396.05
 147  -9948.028
 148  -4338.131
 149  5434.497
 150  10442.9
 151  15542.81
 152  11567.19
 153  10734.86
 154  2435.607
 155  5435.354
 156  1943.193
 157  -3669.848
 158  -10607.55
 159  -10261.74
 160  -8848.954
 161  -8771.816
 162  -7712.204
 163  -7195.303
 164  -9177.013
 165  -9613.06
 166  -10510.97
 167  -9914.401
 168  -8783.436
 169  -8657.651
 170  -7163.577
 171  -8330.434
 172  -9166.587
 173  -9339.681
 174  -8728.843
 175  -5232.27
 176  2846.86
 177  8516.604
 178  10967.96
 179  13599.88
 180  6740.08
 181  -11523.91
 182  135.4737
 183  11205.55
 184  31560.66
 185  45116.93
 186  42040.16
 187  32162.88
 188  5011.77
 189  1586.184
 190  -5136.556
 191  -959.0576
 192  6896.131
 193  11010.14
 194  14191.73
 195  15145.32
 196  15958.37
 197  12390.93
 198  11643.95
 199  8725.715
 200  4614.178
 201  -10352.31
 202  -2736.151
 203  6181.569
 204  13661.27
 205  11490.56
 206  7700.272
 207  -1962.229
 208  -9088
 209  -9806.814
 210  -7430.646
 211  -8222.897
 212  -8113.713
 213  -9173.162
 214  -8846.559
 215  -8959.751
 216  -9942.512
 217  -9359.001
 218  -8710.767
 219  -6958.995
 220  -7641.896
 221  -5387.785
 222  5186.144
 223  8225.855
 224  9561.899
 225  12428.58
 226  4109.145
 227  1339.702
 228  6003.641
 229  11139.12
 230  18395.15
 231  18829.28
 232  25916.96
 233  23092.28
 234  12692.37
 235  9239.495
 236  -2381.827
 237  -5040.732
 238  -7814.231
 239  -5755.801
 240  -3958.294
 241  -6712.272
 242  -7597.762
 243  -9382.706
 244  -10623.61
 245  -10243.51
 246  -8053.363
 247  -6449.88
 248  -3728.047
 249  -8861.775
 250  956.3221
 251  15914.38
 252  35186.57
 253  30762
 254  23815.19
 255  13303.9
 256  -2319.998
 257  -5986.308
 258  8185.788
 259  6666.687
 260  8833.597
 261  4557.422
 262  298.6883
 263  -5347.732
 264  -7575.767
 265  -8971.284
 266  -10827.08
 267  -9443.364
 268  -9247.344
 269  -9378.542
 270  -10185.19
 271  -9927.562
 272  -9932.181
 273  -10063.86
 274  -8918.722
 275  -6642.011
 276  -6577.921
 277  -8091.467
 278  -8078.159
 279  -9227.896
 280  -9244.763
 281  -3237.8
 282  -2600.601
 283  -2890.139
 284  -3716.962
 285  -5388.542
 286  -7483.401
 287  -7298.443
 288  -5192.086
 289  -2119.373
 290  -1606.642
 291  241.7011
 292  566.1287
 293  -2224.468
 294  -4467.653
 295  -6989.643
 296  -7499.773
 297  -7471.423
 298  -6855.912
 299  -7404.122
 300  -8767.143
 301  -9378.996
 302  -10741.7
 303  -9238.439
 304  -6154.096
 305  -697.024
 306  -2991.048
 307  -3592.475
 308  -4436.558
 309  -6299.44
 310  -2019.009
 311  -625.3962
 312  -1240.161
 313  2192.353
 314  -956.7872
 315  -2860.495
 316  -6074.054
 317  -7445.931
 318  -8397.794
 319  -5613.546
 320  -2462.78
 321  218.7372
 322  383.5231
 323  2701.461
 324  -1045.108
 325  -14.73673
 326  294.5837
 327  -1106.414
 328  -669.8558
 329  -766.4926
 330  -3045.43
 331  -4360.914
 332  -719.7284
 333  1997.521
 334  3473.834
 335  3041.662
 336  1409.488
 337  -6630.213
 338  -6267.838
 339  -6443.884
 340  -6828.938
 341  -7890.901
 342  -9561.248
 343  -9951.928
 344  -10068.51
 345  -8823.688
 346  -8981.016
 347  -7739.238
 348  -3627.838
 349  -970.8154
 350  -735.2007
 351  -1344.205
 352  -307.6781
 353  990.7748
 354  1440.631
 355  -2471.438
 356  -2416.67
 357  -566.659
 358  -235.9129
 359  4167.802
 360  5777.098
 361  1690.688
 362  3597.111
 363  7245.011
 364  18045.34
 365  36813.09
 366  42849.93
 367  42411.11
 368  30165.96
 369  16356.68
 370  4604.196
 371  -5291.674
 372  28805.6
 373  34802.91
 374  36100.34
 375  42552.52
 376  20700.97
 377  1658.604
 378  -9857.162
 379  -9353.992
 380  -10532.24
 381  -12154.12
 382  -11624.76
 383  -12145.11
 384  -12676.69
 385  -11564.41
 386  -11985.23
 387  -12176.89
 388  -12432.89
 389  -12428.82
 390  -12230.32
 391  -11509.8
 392  -11714.44
 393  -11398.17
 394  -11126.16
 395  -12365.98
 396  -12466.42
 397  -12645.41
 398  -12719.15
 399  -10998.23
 400  -10559.06
 401  -11153.85
 402  -10810.46
 403  -11548.47
 404  -11277.29
 405  -7821.822
 406  -7061.126
 407  943.2131
 408  18633.26
 409  30775.81
 410  42159.79
 411  58520.15
 412  21180.01
 413  12674.98
 414  13132.26
 415  61093.37
 416  75957.77
 417  79950.02
 418  74374.16
 419  24415.04
 420  4765.294
 421  -4643.719
 422  -6963.123
 423  -6145.746
 424  -6664.786
 425  -6520.07
 426  -5312.177
 427  -7631.498
 428  -10911.65
 429  -11183.85
 430  -12183.37
 431  -12502.57
 432  -12477.51
 433  -12703.02
 434  -12782.57
 435  -12387.07
 436  -12099.3
 437  -12243.18
 438  -12158.7
 439  -11406.76
 440  -9801.511
 441  -7216.838
 442  -6395.972
 443  -6927.966
 444  -7017.226
 445  -11337.56
 446  -8860.488
 447  -6213.416
 448  460.9543
 449  -128.4767
 450  -2074.61
 451  -7039.952
 452  -7759.963
 453  -6731.275
 454  -4615.642
 455  -4249.529
 456  -7037.392
 457  -9709.973
 458  -8867.269
 459  -9277.378
 460  -9020.242
 461  -5812.402
 462  -5294.756
 463  -4298.922
 464  549.6428
 465  11092.29
 466  16599
 467  21970.01
 468  17361.73
 469  8259.174
 470  -7352.852
 471  7236.207
 472  5224.049
 473  6619.031
 474  5020.97
 475  -1218.226
 476  -5787.111
 477  -12618.31
 478  -11551.62
 479  -10117.01
 480  -9309.322
 481  -8339.365
 482  -9542.155
 483  -9917.588
 484  -10686.62
 485  -11246.46
 486  -10075.2
 487  -9568.609
 488  -9697.66
 489  -9189.685
 490  -9848.292
 491  -9999.043
 492  -9818.771
 493  -8952.492
 494  -9578.938
 495  -8865.507
 496  -8138.679
 497  -9124.393
 498  -10101.91
 499  -10430.99
 500  -10581.35
 501  -9124.167
 502  -6960.436
 503  -4677.185
 504  -6322.015
 505  -8042.443
 506  -10769.45
 507  -10971.63
 508  -10475.19
 509  -9419.055
 510  -9905.824
 511  -10158.69
