# Input file       =  1200757855.109703_cleaned.dat
# Candidate        =  PSR_0332+5434
# Telescope        =  AR
# Epoch_topo       =  58141.660579973417
# Epoch_bary       =  N/A
# T_sample         =  0.002
# Data Folded      =  7340032
# Data Avg         =  0.272708692338451
# Data StdDev      =  4.61267415281823 
# Profile Bins     =  512
# Profile Avg      =  3909.56296735275 
# Profile StdDev   =  552.289482133554 
# Reduced chi-sqr  =  0.787
# Prob(Noise)      <  1   (~0.0 sigma)
# P_topo (ms)      =  714.571919744673  +/- 6.47e-05
# P'_topo (s/s)    =  -0                +/- 3.41e-11
# P''_topo (s/s^2) =  0                 +/- 1.51e-14
# P_bary (ms)      =  N/A
# P'_bary (s/s)    =  N/A
# P''_bary (s/s^2) =  N/A
# P_orb (s)        =  N/A
# asin(i)/c (s)    =  N/A
# eccentricity     =  N/A
# w (rad)          =  N/A
# T_peri           =  N/A
######################################################
   0  3972.626
   1  4205.997
   2  4163.4
   3  3845.252
   4  3658.395
   5  4120.027
   6  3817.35
   7  3581.642
   8  3924.07
   9  4106.598
  10  4312.669
  11  4381.4
  12  4350.394
  13  4470.457
  14  3855.946
  15  3763.598
  16  3811.261
  17  3338.439
  18  3406.1
  19  3692.59
  20  3462.269
  21  3205.833
  22  3505.571
  23  4011.247
  24  3694.945
  25  3552.057
  26  3726.457
  27  3870.58
  28  3517.499
  29  3554.859
  30  4057.659
  31  3431.655
  32  3346.323
  33  3868.424
  34  3729.911
  35  3929.728
  36  3897.313
  37  3696.615
  38  3547.461
  39  3668.441
  40  3796.566
  41  3540.686
  42  3814.704
  43  3789.381
  44  3612.832
  45  3706.945
  46  4158.679
  47  4431.749
  48  4271.864
  49  4305.544
  50  4060.444
  51  4208.156
  52  4289.917
  53  4408.486
  54  4406.771
  55  4500.964
  56  4578.81
  57  3988.167
  58  3976.646
  59  4252.282
  60  3593.744
  61  3469.963
  62  3647.17
  63  3803.831
  64  3435.272
  65  4221.912
  66  4605.03
  67  4037.788
  68  3675.593
  69  4207.848
  70  4208.298
  71  4038.28
  72  4475.728
  73  4548.933
  74  4628.851
  75  4427.136
  76  4415.293
  77  4251.862
  78  4218.884
  79  4510.802
  80  4731.853
  81  4217.626
  82  3963.758
  83  3936.762
  84  4590.504
  85  4651.46
  86  3668.374
  87  4080.974
  88  3747.833
  89  3902.189
  90  4100.515
  91  4336.349
  92  4416.419
  93  4374.329
  94  4400.758
  95  4155.235
  96  3839.146
  97  3852.655
  98  4046.198
  99  4226.363
 100  3823.21
 101  4104.924
 102  4260.006
 103  3728.232
 104  4224.216
 105  4064.2
 106  3609.786
 107  3664.181
 108  4115.731
 109  4416.931
 110  4193.366
 111  4110.126
 112  4092.706
 113  4211.655
 114  3802.961
 115  3955.225
 116  3528.181
 117  3593.316
 118  3671.618
 119  4278.946
 120  4444.447
 121  4567.18
 122  4163.366
 123  4270.822
 124  4081.077
 125  3893.215
 126  4028.085
 127  3938.598
 128  3665.166
 129  3724.142
 130  3709.638
 131  3407.092
 132  3576.564
 133  3564.554
 134  3659.157
 135  3433.187
 136  3776.99
 137  3796.156
 138  3955.168
 139  3568.85
 140  3397.772
 141  3574.985
 142  3543.299
 143  3547.03
 144  3882.176
 145  3747.703
 146  3895.369
 147  4004.329
 148  4085.254
 149  3876.867
 150  3742.309
 151  4321.795
 152  4632.146
 153  4673.814
 154  4317.247
 155  4368.904
 156  4059.288
 157  3964.41
 158  4338.376
 159  3953.939
 160  3868.182
 161  3869.229
 162  4107.618
 163  4020.894
 164  3621.219
 165  3523.423
 166  3661.772
 167  3569.856
 168  3704.655
 169  3869.254
 170  3714.87
 171  3434.806
 172  3731.618
 173  4012.588
 174  3862.935
 175  3452.729
 176  3515.494
 177  3858.308
 178  3765.902
 179  4294.123
 180  4580.546
 181  4289.939
 182  3725.308
 183  3821.378
 184  3972.309
 185  3877.414
 186  4270.639
 187  4302.93
 188  4094.617
 189  3738.424
 190  3719.428
 191  3504.021
 192  3487.146
 193  3836.598
 194  4033.231
 195  3954.83
 196  3953.098
 197  3731.132
 198  4200.272
 199  4182.168
 200  4279.956
 201  3900.687
 202  4018.628
 203  3761.825
 204  3549.968
 205  3751.123
 206  3955.287
 207  4081.208
 208  4364.842
 209  4487.173
 210  4264.015
 211  4053.695
 212  3774.265
 213  3660.501
 214  3900.69
 215  3866.309
 216  3906.877
 217  3608.5
 218  3415.937
 219  3407.341
 220  3530.04
 221  3195.957
 222  3307.405
 223  3823.411
 224  3458.648
 225  3317.936
 226  3846.772
 227  3507.034
 228  3428.507
 229  3119.885
 230  3206.167
 231  3258.617
 232  3504.017
 233  3401.474
 234  3484.065
 235  3679.4
 236  3491.835
 237  3752.25
 238  3558.476
 239  3088.01
 240  3304.835
 241  3913.017
 242  3614.989
 243  3499.772
 244  3845.989
 245  3724.454
 246  3500.565
 247  3504.239
 248  3812.502
 249  4093.609
 250  4005.747
 251  3468.768
 252  3599.269
 253  4152.303
 254  3971.979
 255  3922.696
 256  3591.08
 257  3696.901
 258  3716.986
 259  4383.807
 260  3939.619
 261  3647.895
 262  4052.76
 263  4422.786
 264  3669.459
 265  3711.196
 266  4066.527
 267  4079.167
 268  3796.266
 269  3526.373
 270  3591.015
 271  3516.986
 272  3447.587
 273  3763.753
 274  4111.301
 275  3851.365
 276  4368.712
 277  4439.135
 278  3861.092
 279  3265.554
 280  3982.74
 281  4238.595
 282  4188.967
 283  3843.799
 284  3971.534
 285  4030.62
 286  3515.62
 287  3989.051
 288  3764.546
 289  4055.9
 290  3931.776
 291  3966.631
 292  3574.835
 293  3420.109
 294  3617.011
 295  3843.109
 296  3844.438
 297  3270.649
 298  3233.682
 299  3477.61
 300  3599.699
 301  3841.754
 302  3923.376
 303  3692.51
 304  3873.312
 305  4242.295
 306  4843.478
 307  5293.195
 308  5104.985
 309  5394.678
 310  4901.269
 311  4267.489
 312  4166.42
 313  4221.308
 314  4030.372
 315  3979.489
 316  3882.618
 317  4060.782
 318  4058.238
 319  4292.285
 320  4374.113
 321  4354.881
 322  4463.765
 323  4215.491
 324  3867.749
 325  3863.696
 326  3596.128
 327  3718.683
 328  3717.653
 329  3580.468
 330  3635.581
 331  3304.054
 332  3489.718
 333  3602.065
 334  3761.31
 335  3904.061
 336  3758.771
 337  4029.46
 338  4126.376
 339  4018.138
 340  3738.219
 341  4043.883
 342  4026.726
 343  3739.427
 344  3433.041
 345  3877.821
 346  3635.026
 347  3566.019
 348  3667.414
 349  3904.321
 350  4072.918
 351  4232.279
 352  4076.612
 353  3969.07
 354  3892.12
 355  4101.023
 356  3938.289
 357  4134.592
 358  4000.145
 359  4403.272
 360  4603.081
 361  4146.093
 362  3725.483
 363  3353.036
 364  3969.348
 365  4113.419
 366  4478.571
 367  4280.297
 368  4044.695
 369  3477.689
 370  3604.861
 371  3803.216
 372  3250.459
 373  3582.152
 374  3745.304
 375  3800.424
 376  3767.958
 377  4138.688
 378  4042.268
 379  4262.863
 380  4522.746
 381  4257.921
 382  3975.395
 383  4265.411
 384  4341.123
 385  4357.658
 386  4199.534
 387  3489.708
 388  3713.764
 389  3827.369
 390  3728.993
 391  3594.486
 392  4088.366
 393  3931.186
 394  3929.62
 395  3793.31
 396  3740.905
 397  3465.925
 398  3566.343
 399  3673.642
 400  3820.557
 401  3889.046
 402  3878.759
 403  3747.411
 404  3653.053
 405  3959.986
 406  3917.391
 407  3955.867
 408  3954.689
 409  4073.736
 410  3588.726
 411  3164.215
 412  3281.281
 413  3622.027
 414  3897.07
 415  3740.322
 416  3480.752
 417  3724.796
 418  3820.2
 419  3586.931
 420  3976.944
 421  4165.38
 422  4004.385
 423  4114.185
 424  4234.888
 425  3805.865
 426  3443.252
 427  3957.651
 428  4348.083
 429  3937.797
 430  4098.506
 431  4435.059
 432  4097.947
 433  3990.762
 434  3972.738
 435  4087.639
 436  3777.417
 437  3959.238
 438  4163.343
 439  3617.226
 440  3408.29
 441  3618.603
 442  4020.903
 443  3956.285
 444  3549.43
 445  3620.3
 446  3586.208
 447  3539.456
 448  3473.801
 449  3747.469
 450  3776.313
 451  3553.2
 452  4094.107
 453  3980.103
 454  3597.08
 455  3451.078
 456  4013.786
 457  3672.038
 458  3509.229
 459  3659.591
 460  3937.66
 461  3908.254
 462  3660.936
 463  4013.849
 464  3864.114
 465  3734.669
 466  3795.745
 467  3788.663
 468  3634.589
 469  3394.752
 470  3651.146
 471  3617.64
 472  3318.347
 473  3285.68
 474  3738.189
 475  3567.408
 476  3986.87
 477  3897.114
 478  3832.996
 479  3662.489
 480  3657.555
 481  3817.851
 482  3622.771
 483  3612.969
 484  3588.33
 485  3632.607
 486  3706.452
 487  3850.266
 488  4040.104
 489  4236.592
 490  4618.832
 491  4788.341
 492  5203.925
 493  4643.287
 494  4479.927
 495  4250.214
 496  3923.939
 497  3707.882
 498  3968.417
 499  4478.771
 500  4397.524
 501  3996.403
 502  4568.58
 503  4233.747
 504  3981.159
 505  4153.513
 506  4621.361
 507  4670.709
 508  4342.092
 509  4663.286
 510  4544.688
 511  4142.351
