# Input file       =  1200169617.116321-PSRB0329-2ms-sampling-dd.dat
# Candidate        =  PSR_0332+5434
# Telescope        =  AR
# Epoch_topo       =  58134.852269864830
# Epoch_bary       =  N/A
# T_sample         =  0.002
# Data Folded      =  7340032
# Data Avg         =  1.41686583937512e-09
# Data StdDev      =  147.080130214835 
# Profile Bins     =  512
# Profile Avg      =  0.162244576194936
# Profile StdDev   =  17610.3505813123 
# Reduced chi-sqr  =  1.147
# Prob(Noise)      <  0.0119   (~2.3 sigma)
# P_topo (ms)      =  714.568154074856  +/- 0.000327
# P'_topo (s/s)    =  -0                +/- 1.73e-10
# P''_topo (s/s^2) =  0                 +/- 7.63e-14
# P_bary (ms)      =  N/A
# P'_bary (s/s)    =  N/A
# P''_bary (s/s^2) =  N/A
# P_orb (s)        =  N/A
# asin(i)/c (s)    =  N/A
# eccentricity     =  N/A
# w (rad)          =  N/A
# T_peri           =  N/A
######################################################
   0  -4922.075
   1  -3405.93
   2  -2740.631
   3  -2852.74
   4  -4331.581
   5  -6127.044
   6  -7210.476
   7  -5611.687
   8  -5756.734
   9  -5039.248
  10  -4021.543
  11  -4017.694
  12  -5787.666
  13  -6355.02
  14  -5461.402
  15  -4352.125
  16  -3492.011
  17  -2907.334
  18  -3221.258
  19  -4000.387
  20  -4770.346
  21  -5254.916
  22  -5176.395
  23  -4688.543
  24  -4576.691
  25  -3499.365
  26  -3246.71
  27  -3075.343
  28  -3539.964
  29  -2783.542
  30  -2372.309
  31  -2133.474
  32  -2761.569
  33  -4255.266
  34  -4297.86
  35  -3891.768
  36  -2324.795
  37  -2334.67
  38  -2531.229
  39  -3074.052
  40  -1804.451
  41  -1342.191
  42  -1766.575
  43  -1669.36
  44  -2367.284
  45  -3652.664
  46  -4669.497
  47  -3924.182
  48  -3970.047
  49  -4912.385
  50  -5755.232
  51  -4982.979
  52  -4731.732
  53  -5591.778
  54  -5127.363
  55  -4801.598
  56  -5118.446
  57  -4664.51
  58  -4668.12
  59  -4701.776
  60  -3890.267
  61  -3852.569
  62  -3649.863
  63  -3622.788
  64  -4372.137
  65  -4317.556
  66  -4404.108
  67  -4728.434
  68  -4646.049
  69  -5164.241
  70  -5185.718
  71  -5635.329
  72  -5007.743
  73  -3157.593
  74  -3553.64
  75  -3060.871
  76  -3727.06
  77  -4814.036
  78  -5496.215
  79  -4654.455
  80  -4358.978
  81  -4242.858
  82  -3613.508
  83  -3698.533
  84  -4070.277
  85  -4981.166
  86  -5680.9
  87  -4015.87
  88  -4318.408
  89  -5275.176
  90  -3278.082
  91  -2373.324
  92  -3399.841
  93  -3328.317
  94  -3288.315
  95  -4882.442
  96  -5409.251
  97  -5233.168
  98  -5305.883
  99  -6057.486
 100  -5918.334
 101  -5560.625
 102  -5281.713
 103  -4474.079
 104  -3884.12
 105  -3940.359
 106  -4216.044
 107  -5437.159
 108  -6360.599
 109  -5735.547
 110  -5414.045
 111  -4930.204
 112  -5649.288
 113  -6773.029
 114  -5638.602
 115  -5687.327
 116  -4538.385
 117  -4469.359
 118  -4372.355
 119  -4267.866
 120  -4796.167
 121  -6063.769
 122  -6300.488
 123  -5326.568
 124  -3248.203
 125  -1036.832
 126  -1034.883
 127  -2264.575
 128  -2020.902
 129  -2926.216
 130  -2220.593
 131  -2292.668
 132  -3163.979
 133  -3829.394
 134  -2969.099
 135  -5594.149
 136  -7005.933
 137  -5640.127
 138  -6860.95
 139  -5437.3
 140  -5017.817
 141  -7494.58
 142  -5677.368
 143  -3430.72
 144  -680.1487
 145  38718.47
 146  48574.72
 147  55080.62
 148  48539.55
 149  26513.28
 150  10196.87
 151  6545.547
 152  35614.91
 153  44046.13
 154  32886.16
 155  24571.55
 156  12013.59
 157  -3829.989
 158  -5950.585
 159  -5456.939
 160  -5955.367
 161  -3937.379
 162  -4685.453
 163  -4166.787
 164  -4738.737
 165  -6385.915
 166  -5450.746
 167  -4621.865
 168  -4862.366
 169  -4756.479
 170  -5548.864
 171  -5856.056
 172  -6203.707
 173  -5171.27
 174  -5218.522
 175  -3800.633
 176  -2816.317
 177  -2479.754
 178  -3657.835
 179  -4709.058
 180  -4504.329
 181  -4830.598
 182  -5224.057
 183  -4901.786
 184  -4735.661
 185  -3965.952
 186  -3558.264
 187  -3809.256
 188  -4560.564
 189  -5026.718
 190  -5476.029
 191  -4523.607
 192  -3885.577
 193  -3474.563
 194  -2077.517
 195  1414.429
 196  1187.227
 197  5065.815
 198  10873
 199  9874.188
 200  12685.45
 201  13613.78
 202  11447.47
 203  6353.739
 204  8980.93
 205  21049.95
 206  15680.15
 207  13271.47
 208  11566.69
 209  1437.662
 210  -687.6031
 211  -2215.985
 212  -2726.923
 213  -4403.351
 214  -5947.629
 215  -6116.275
 216  -5476.941
 217  -5163.755
 218  -5394.152
 219  -5287.869
 220  -5567.815
 221  -6457.878
 222  -6311.725
 223  -5834.396
 224  -4997.932
 225  -6457.977
 226  -5921.353
 227  -5073.555
 228  -6700.577
 229  -6159.195
 230  -4845.067
 231  -6035.493
 232  -6498.018
 233  -4936.153
 234  -180.2456
 235  20611.24
 236  36151.06
 237  38948.84
 238  78629.01
 239  87894.83
 240  74963.45
 241  75249.74
 242  64616.99
 243  51771.05
 244  36669.2
 245  62113.28
 246  76952.66
 247  45829.21
 248  36514.66
 249  24123.99
 250  543.8527
 251  -3402.25
 252  -3775.027
 253  -5301.359
 254  -4433.957
 255  -5211.846
 256  -5888.348
 257  -6031.131
 258  -3274.674
 259  -1263.002
 260  -66.60524
 261  -1468.568
 262  -2286.385
 263  -1718.328
 264  -4671.92
 265  -4567.191
 266  365.6006
 267  5825.589
 268  11849.94
 269  17576.81
 270  22991.15
 271  22080.13
 272  10692.4
 273  13532.91
 274  15159.58
 275  15322.74
 276  27627.96
 277  27856.87
 278  23813.69
 279  9399.809
 280  2402.034
 281  -1227.096
 282  -6385.333
 283  -5318.39
 284  -5762.263
 285  -7178.384
 286  -5706.845
 287  -5235.037
 288  -5351.756
 289  -4441.715
 290  -3351.52
 291  -4271.228
 292  -5067.85
 293  -5654.535
 294  -5334.607
 295  -5542.412
 296  -5676.466
 297  -5563.85
 298  -4508.415
 299  -4767.687
 300  -6461.046
 301  -8237.955
 302  -7629.103
 303  -6552.564
 304  -6372.44
 305  -5134.829
 306  -4496.966
 307  -5388.149
 308  -6125.32
 309  -6244.929
 310  -6786.564
 311  -5426.226
 312  -4757.59
 313  -5206.167
 314  -5975.348
 315  -7010.314
 316  -7251.34
 317  -5861.277
 318  -6561.787
 319  -4991.583
 320  -5189.879
 321  -4933.145
 322  -5276.787
 323  -6068.339
 324  -6229.874
 325  -5874.376
 326  -4781.944
 327  -5029.524
 328  -5514.745
 329  -5571.956
 330  -5468.932
 331  -5623.669
 332  -6031.701
 333  -4789.82
 334  -5043.724
 335  -5016.496
 336  -4325.25
 337  -4914.508
 338  -4808.603
 339  -5536.628
 340  -5065.455
 341  -5187.312
 342  -5988.164
 343  -5729.817
 344  -5213.566
 345  -4888.416
 346  -6870.79
 347  -5942.272
 348  -5364.385
 349  -5163.382
 350  -5444.056
 351  -5553.34
 352  -5811.31
 353  -5337.557
 354  -5383.453
 355  -5482.69
 356  -6060.693
 357  -6109.088
 358  -5999.193
 359  -5725.7
 360  -5999.789
 361  -6257.269
 362  -4356.577
 363  -3325.326
 364  -4457.764
 365  -5088.943
 366  -6300.263
 367  -6354.839
 368  -5481.66
 369  -4188.427
 370  -4035.541
 371  -5263.273
 372  -4522.151
 373  -5423.891
 374  -5289.794
 375  -5556.667
 376  -6147.881
 377  -5875.66
 378  -4617.402
 379  -3243.458
 380  -2702.359
 381  -3824.065
 382  -4509.352
 383  -5122.075
 384  -5381.396
 385  -5218.183
 386  -5081.066
 387  -3539.792
 388  -1661.497
 389  -1928.005
 390  -1799.619
 391  -3128.203
 392  -5584.54
 393  -3452.494
 394  -1513.156
 395  1271.997
 396  -512.9962
 397  -1377.739
 398  -3491.505
 399  -6550.72
 400  -7142.528
 401  -6307.43
 402  -5566.829
 403  -5487.91
 404  -5538.776
 405  -5281.232
 406  -5466.234
 407  -5346.905
 408  -4906.061
 409  -5333.371
 410  -6033.77
 411  -6188.058
 412  -6073.498
 413  -5516.023
 414  -7013.941
 415  -6743.438
 416  -5355.664
 417  -4663.204
 418  -5953.03
 419  -5455.437
 420  -4652.143
 421  -4505.779
 422  -5189.006
 423  -6095.498
 424  -5626.162
 425  -6270.036
 426  -5605.102
 427  -4697.017
 428  -5012.435
 429  -5374.599
 430  -6236.042
 431  -5659.115
 432  -6225.171
 433  -5387.783
 434  -4244.611
 435  -4466.785
 436  -5365.932
 437  -5324.65
 438  -6017.853
 439  -6598.562
 440  -5618.885
 441  -5239.732
 442  -5045.528
 443  -5493.438
 444  -5553.251
 445  -5116.086
 446  -6256.216
 447  -7496.276
 448  -6628.372
 449  -5553.818
 450  -5959.398
 451  -5702.603
 452  -5451.691
 453  -5965.944
 454  -5506.438
 455  -6469.339
 456  -6404.858
 457  -4641.559
 458  -5009.179
 459  -7027.401
 460  7971.899
 461  20242.8
 462  30339.39
 463  37183.08
 464  31468.01
 465  19343.76
 466  -11464.6
 467  21708.97
 468  34762.04
 469  44075.93
 470  35794.86
 471  22797.31
 472  9375.722
 473  -8900.316
 474  -6198.179
 475  -5315.421
 476  -5735.902
 477  -4939.443
 478  -4119.636
 479  -5270.142
 480  -5786.433
 481  -6346.5
 482  -7228.074
 483  -5765.708
 484  -5996.447
 485  -6444.486
 486  -5420.588
 487  -5610.082
 488  -5552.318
 489  -4778.633
 490  -5325.02
 491  -5092.747
 492  -4521.582
 493  -5632.914
 494  -5334.816
 495  -4371.164
 496  -5255.758
 497  -1732.969
 498  7634.813
 499  18007.12
 500  21180.17
 501  21950.87
 502  9440.96
 503  3209.201
 504  2058.079
 505  24619.51
 506  28417.32
 507  27086.91
 508  20799.28
 509  6407.294
 510  143.2863
 511  -4916.826
