# Input file       =  1200585540.105412-PSRB0329-2ms-sampling-dd.dat
# Candidate        =  PSR_0332+5434
# Telescope        =  AR
# Epoch_topo       =  58139.666193349673
# Epoch_bary       =  N/A
# T_sample         =  0.002
# Data Folded      =  7340032
# Data Avg         =  2.27045813162108e-09
# Data StdDev      =  273.964476004475 
# Profile Bins     =  512
# Profile Avg      =  -0.685458504745064
# Profile StdDev   =  32802.5985713854 
# Reduced chi-sqr  =  1.075
# Prob(Noise)      <  0.118   (~1.2 sigma)
# P_topo (ms)      =  714.570797158616  +/- 0.000306
# P'_topo (s/s)    =  -0                +/- 1.62e-10
# P''_topo (s/s^2) =  0                 +/- 7.14e-14
# P_bary (ms)      =  N/A
# P'_bary (s/s)    =  N/A
# P''_bary (s/s^2) =  N/A
# P_orb (s)        =  N/A
# asin(i)/c (s)    =  N/A
# eccentricity     =  N/A
# w (rad)          =  N/A
# T_peri           =  N/A
######################################################
   0  20219.16
   1  29339.18
   2  35687.19
   3  28299.69
   4  14500.1
   5  19158.62
   6  32039.5
   7  68657.49
   8  50211.52
   9  56316.34
  10  68668.31
  11  60849.4
  12  41941.75
  13  30238.13
  14  26410.06
  15  32824.19
  16  34695.52
  17  35795.43
  18  28311.78
  19  -13501.26
  20  -23040.62
  21  -27398.89
  22  -28158.46
  23  -28264.77
  24  -29494.45
  25  -29068.82
  26  -28765.32
  27  -28622.67
  28  -27564.25
  29  -19576.89
  30  -1932.663
  31  6672.317
  32  12621.7
  33  15919.46
  34  -7304.169
  35  -19429.69
  36  5354.126
  37  27391.57
  38  35978.16
  39  38216.89
  40  16719.32
  41  -2377.198
  42  -18993.57
  43  -14987.99
  44  -15526.79
  45  -18583.79
  46  -17877.9
  47  -16145.16
  48  -17150.22
  49  -18397.5
  50  -18772.49
  51  -19154.93
  52  -17731.59
  53  -17515.16
  54  -18923.52
  55  -19618.6
  56  -23447.71
  57  -23158.31
  58  -24339.6
  59  -24912.78
  60  -24021.01
  61  -22703.73
  62  -21833.84
  63  -22042.07
  64  -21538.87
  65  -18434.67
  66  -28052.99
  67  -25919.44
  68  -20829.89
  69  -6024.542
  70  2181.196
  71  4507.555
  72  -889.0027
  73  -23949.06
  74  -28837.3
  75  -26979.72
  76  -29739.22
  77  -29320.51
  78  -28995.51
  79  -30215.31
  80  -28311.48
  81  -26297.44
  82  -24852.81
  83  -23729.8
  84  -21800.41
  85  -22132.91
  86  -29589.28
  87  -25219.59
  88  -21485.16
  89  -17219.84
  90  -18614.12
  91  -19711.58
  92  -19945.48
  93  -22170.14
  94  -20759.19
  95  -20272.82
  96  -13124.62
  97  -13913.72
  98  -15382.07
  99  -11185
 100  -7499.257
 101  -1967.977
 102  1983.374
 103  12303.51
 104  17296.78
 105  8.681797
 106  8064.864
 107  3016.6
 108  20893.75
 109  41796.41
 110  63095.71
 111  71048.46
 112  51117.77
 113  51432.75
 114  38512.96
 115  37157.48
 116  27060.76
 117  -686.254
 118  -2933.673
 119  795.701
 120  11839.49
 121  19336.32
 122  12919.28
 123  2449.703
 124  -15275.25
 125  -21504.3
 126  -19075.83
 127  -15078.11
 128  -2563.32
 129  3590.007
 130  1757.425
 131  -1458.81
 132  -21378.69
 133  -25212.09
 134  -27990.88
 135  -31670.2
 136  -30608.45
 137  -29590.18
 138  -30299.8
 139  -29281.79
 140  -28338.37
 141  -28714.29
 142  -25965.94
 143  -21167.88
 144  -14826.5
 145  -6281.154
 146  -3828.414
 147  -120.1987
 148  -9158.303
 149  -5500.016
 150  5622.294
 151  23124.65
 152  22227.16
 153  11570.09
 154  15294.44
 155  -4042.875
 156  -3784.187
 157  -1813.842
 158  -14666.7
 159  -20556.43
 160  -27496.95
 161  -22531.13
 162  -14951.51
 163  -10558.79
 164  1612.289
 165  9633.269
 166  15718.96
 167  14753.17
 168  3590.796
 169  11746.97
 170  9426.811
 171  23386.44
 172  22592.63
 173  18391.3
 174  -4441.445
 175  -18733.38
 176  -24390.08
 177  -24648.03
 178  -27173.05
 179  -27786.65
 180  -27520.77
 181  -28324.02
 182  -28864.24
 183  -27943.62
 184  -28237.06
 185  -26953.6
 186  -26626.4
 187  -27268.91
 188  -27722.42
 189  -25197.98
 190  -25750.61
 191  -25024.2
 192  -17301.44
 193  -20121.95
 194  -11921.23
 195  2586.21
 196  7129.09
 197  5787.464
 198  -2941.167
 199  -9976.009
 200  -22818.48
 201  -18361.26
 202  4573.781
 203  14694.09
 204  18104.57
 205  20135.55
 206  6985.339
 207  5915.208
 208  -9817.875
 209  524.421
 210  17183.98
 211  24856.9
 212  28017.76
 213  29496.48
 214  33321.75
 215  15594.92
 216  19090.93
 217  33676.81
 218  16037.04
 219  8439.481
 220  17303.32
 221  13573.56
 222  22388.27
 223  27839.5
 224  59743.11
 225  46198.16
 226  41098.61
 227  29430.94
 228  4475.959
 229  -5370.571
 230  -11412.36
 231  -24383.05
 232  -24572.44
 233  -23290.42
 234  -22245.68
 235  -19265.59
 236  -18867.54
 237  -21965.18
 238  -23260.99
 239  -21450.86
 240  -19678.41
 241  -20586.47
 242  -19463.58
 243  -21294.65
 244  -24318.08
 245  -25196.29
 246  -13672.31
 247  -11220.39
 248  -8018.688
 249  -4240.655
 250  -9374.013
 251  -7178.645
 252  8659.45
 253  5629.405
 254  7655.094
 255  15362.9
 256  15283.47
 257  13598.01
 258  20198.92
 259  45856.37
 260  45559.23
 261  40832.21
 262  34951.36
 263  3906.207
 264  -2025.063
 265  -1122.492
 266  1411.173
 267  925.5687
 268  -18198.58
 269  -18707.16
 270  -14155.96
 271  -601.7423
 272  -4082.356
 273  -7740.246
 274  -12024.9
 275  -28212.41
 276  -27232.73
 277  -27102.49
 278  -28772.85
 279  -28900.48
 280  -28917.41
 281  -26522.13
 282  -20561.85
 283  -14923.7
 284  -4962.304
 285  6154.897
 286  -4252.359
 287  -710.7392
 288  1442.16
 289  -8650.739
 290  5363.312
 291  23877.63
 292  48094.23
 293  42552.37
 294  38775.07
 295  31263.37
 296  -12798.95
 297  -30795.2
 298  -856.9827
 299  10404.96
 300  22497.54
 301  28422.87
 302  6801.308
 303  -8871.346
 304  -27550.41
 305  -22117.23
 306  -14615.65
 307  -17719.96
 308  -13991.12
 309  -7915.407
 310  -9755.616
 311  -2037.226
 312  10815.9
 313  24094.38
 314  29764.11
 315  22391.77
 316  16792.37
 317  24968.01
 318  32967.4
 319  83646.52
 320  71004.87
 321  45747.36
 322  19288.64
 323  5453.674
 324  7305.588
 325  1002.802
 326  5628.256
 327  4183.586
 328  -12949.59
 329  -1446.189
 330  21665.39
 331  27970.25
 332  29801.65
 333  26506.98
 334  -13110.85
 335  -23668.35
 336  -29529.6
 337  -27022.48
 338  -27117.04
 339  -28576.51
 340  -27232.97
 341  -26874.98
 342  -26514.81
 343  -26289.81
 344  -25531.09
 345  -23970.16
 346  -20134.33
 347  -20401.58
 348  -21439.53
 349  -21990.63
 350  -26463.08
 351  -28031.72
 352  -22337.76
 353  -17416.88
 354  -17158.52
 355  -11731.12
 356  -11595.93
 357  -16188.55
 358  -13649.63
 359  -14302.13
 360  -15063.48
 361  -19313.81
 362  -9608.41
 363  -4515.509
 364  2428.563
 365  15766.97
 366  12085.02
 367  4243.981
 368  -1148.876
 369  -7915.269
 370  -15393.53
 371  -11703.88
 372  -4526.794
 373  1453.072
 374  4173.191
 375  4602.641
 376  -6860.956
 377  -20049.82
 378  -18450.36
 379  -15606.46
 380  -7318.589
 381  -3096.571
 382  -1518.49
 383  -1068.867
 384  -4918.447
 385  -7639.607
 386  -3991.343
 387  -9385.442
 388  -6918.445
 389  -558.7685
 390  4344.116
 391  11651.62
 392  13148.89
 393  25220.29
 394  24953.08
 395  29064.65
 396  19871.45
 397  2057.445
 398  -16623.65
 399  -7680.252
 400  4604.89
 401  18845.14
 402  34124.06
 403  40336.04
 404  31303.96
 405  14030.23
 406  21748.23
 407  41760.79
 408  64138.71
 409  69259.8
 410  48379.25
 411  32055.64
 412  -4231.322
 413  -6838.283
 414  -21246.16
 415  -25516.68
 416  -28768.83
 417  -29985.78
 418  -29270.58
 419  -27964.72
 420  -17439.52
 421  -8358.147
 422  -750.5843
 423  8618.759
 424  16607.89
 425  5759.917
 426  1002.454
 427  19433.21
 428  28774.17
 429  36302.24
 430  50840.56
 431  73759.01
 432  48804.7
 433  48666.3
 434  33783.39
 435  7250.648
 436  -3613.642
 437  19892.07
 438  40033.82
 439  57572.39
 440  53014.25
 441  36252.58
 442  20034.82
 443  41784.98
 444  64176.04
 445  72752.12
 446  64095.7
 447  44065.31
 448  5580.771
 449  13322.83
 450  36121.27
 451  34382.18
 452  25942.38
 453  13858.79
 454  -25855.08
 455  -27090.29
 456  -28031.89
 457  -29003.28
 458  -28823.98
 459  -28416.94
 460  -29060.19
 461  -29474.02
 462  -27778.44
 463  -27702.55
 464  -28599.43
 465  -17527.75
 466  -11461.55
 467  -5351.579
 468  -182.8148
 469  -3887.093
 470  -10797.74
 471  -25922.93
 472  -4312.164
 473  17219.79
 474  36740.46
 475  28645.27
 476  22245.97
 477  14451.59
 478  20852.69
 479  17496.14
 480  34963.2
 481  25583.15
 482  18905.88
 483  14604.72
 484  34134.99
 485  28081.44
 486  18464.61
 487  23909.12
 488  7565.245
 489  -1402.525
 490  -559.4502
 491  -24150.69
 492  -20364.6
 493  -12391.86
 494  15219.26
 495  20174.99
 496  17661.88
 497  -1682.609
 498  -21751.48
 499  -26152.65
 500  -23836.8
 501  -23159.19
 502  -22724.19
 503  -21447.07
 504  -16481.59
 505  -16192.6
 506  -14332.48
 507  -12955.91
 508  -17944.17
 509  -19271.81
 510  -16979.97
 511  6370.639
