# Input file       =  1200844563.106615_cleaned.dat
# Candidate        =  PSR_0332+5434
# Telescope        =  AR
# Epoch_topo       =  58142.664144752489
# Epoch_bary       =  N/A
# T_sample         =  0.002
# Data Folded      =  7340032
# Data Avg         =  0.020484485301289
# Data StdDev      =  1.00007975353516 
# Profile Bins     =  512
# Profile Avg      =  293.657652256701 
# Profile StdDev   =  119.742585509692 
# Reduced chi-sqr  =  1.380
# Prob(Noise)      <  2.4e-08   (~5.5 sigma)
# P_topo (ms)      =  714.572467714413  +/- 0.000186
# P'_topo (s/s)    =  -0                +/- 9.83e-11
# P''_topo (s/s^2) =  0                 +/- 4.34e-14
# P_bary (ms)      =  N/A
# P'_bary (s/s)    =  N/A
# P''_bary (s/s^2) =  N/A
# P_orb (s)        =  N/A
# asin(i)/c (s)    =  N/A
# eccentricity     =  N/A
# w (rad)          =  N/A
# T_peri           =  N/A
######################################################
   0  389.6484
   1  371.0333
   2  339.0785
   3  314.1534
   4  243.324
   5  328.2708
   6  430.6761
   7  353.3375
   8  339.5482
   9  277.9358
  10  427.0302
  11  401.8425
  12  335.37
  13  251.0921
  14  362.7846
  15  261.6503
  16  184.035
  17  395.3909
  18  386.0721
  19  181.3265
  20  240.9266
  21  332.7441
  22  338.9304
  23  210.0043
  24  353.5889
  25  392.1953
  26  393.221
  27  361.6623
  28  301.6651
  29  209.027
  30  288.4468
  31  349.5102
  32  351.299
  33  309.8302
  34  228.26
  35  303.3852
  36  239.5074
  37  160.0008
  38  194.2027
  39  286.0277
  40  370.6917
  41  323.3422
  42  318.3201
  43  294.7943
  44  322.1461
  45  345.6503
  46  379.0332
  47  239.8485
  48  204.5236
  49  317.0963
  50  230.4519
  51  213.8092
  52  137.1931
  53  213.0264
  54  180.727
  55  186.8318
  56  195.0103
  57  305.4732
  58  256.5388
  59  242.9037
  60  273.0966
  61  272.1381
  62  238.1298
  63  132.3291
  64  149.3141
  65  206.9231
  66  222.7084
  67  259.607
  68  348.8467
  69  311.9073
  70  290.9141
  71  394.2117
  72  410.9371
  73  232.2794
  74  172.2419
  75  161.8329
  76  298.054
  77  334.3804
  78  338.712
  79  350.3491
  80  145.6882
  81  144.4265
  82  271.8445
  83  246.0053
  84  237.4072
  85  251.5904
  86  303.3483
  87  345.9739
  88  293.3799
  89  252.0745
  90  237.0387
  91  235.7596
  92  309.5581
  93  130.6209
  94  147.2391
  95  196.9358
  96  307.4686
  97  293.0337
  98  319.9855
  99  164.169
 100  242.2752
 101  227.3276
 102  185.3754
 103  220.8019
 104  102.6016
 105  199.6039
 106  153.2894
 107  181.2152
 108  145.2616
 109  120.1623
 110  301.7144
 111  383.7528
 112  245.4295
 113  372.6987
 114  303.3362
 115  171.2868
 116  190.0114
 117  327.5027
 118  234.1337
 119  168.8085
 120  193.3268
 121  345.0072
 122  345.7833
 123  351.598
 124  344.7651
 125  370.5735
 126  379.6281
 127  409.6151
 128  371.0059
 129  311.4046
 130  212.4314
 131  317.205
 132  286.879
 133  216.9107
 134  267.969
 135  292.9472
 136  341.1263
 137  260.7639
 138  166.8964
 139  209.1084
 140  152.1857
 141  122.9576
 142  207.8501
 143  315.6391
 144  352.9026
 145  176.9554
 146  187.8209
 147  307.4721
 148  271.8199
 149  300.5643
 150  216.5855
 151  313.2064
 152  254.9635
 153  221.6647
 154  230.2472
 155  219.1145
 156  194.1993
 157  146.408
 158  170.8399
 159  183.5257
 160  196.8676
 161  170.748
 162  180.4705
 163  95.60815
 164  156.8664
 165  69.86767
 166  196.6621
 167  328.9368
 168  363.1198
 169  358.3424
 170  257.7375
 171  276.9214
 172  316.1362
 173  288.4095
 174  240.0846
 175  151.6547
 176  213.5871
 177  239.2179
 178  226.0267
 179  198.9798
 180  202.172
 181  267.8635
 182  277.4418
 183  291.289
 184  346.8058
 185  348.5123
 186  198.0808
 187  211.487
 188  222.9531
 189  215.138
 190  271.1812
 191  310.0469
 192  256.9154
 193  292.6901
 194  189.6188
 195  239.4628
 196  264.547
 197  140.8685
 198  118.5396
 199  282.479
 200  262.5417
 201  220.9635
 202  124.8891
 203  264.7437
 204  124.6842
 205  150.2227
 206  255.4759
 207  348.5263
 208  312.4063
 209  191.9319
 210  250.7433
 211  306.0487
 212  318.2273
 213  276.7637
 214  248.2623
 215  225.554
 216  359.8088
 217  341.4797
 218  219.8903
 219  222.6821
 220  247.919
 221  182.4901
 222  212.6011
 223  256.2826
 224  234.6922
 225  180.4219
 226  239.4715
 227  313.28
 228  369.1903
 229  294.6506
 230  313.5577
 231  274.2794
 232  170.5644
 233  156.2097
 234  118.9286
 235  211.0119
 236  190.145
 237  247.9226
 238  287.9132
 239  227.9992
 240  144.0489
 241  151.9435
 242  247.1908
 243  259.937
 244  192.8409
 245  139.5621
 246  212.1105
 247  252.1156
 248  286.2739
 249  243.5452
 250  250.8626
 251  320.1079
 252  303.9549
 253  219.3802
 254  321.0229
 255  258.6017
 256  153.8574
 257  122.8957
 258  39.06394
 259  155.8486
 260  222.5979
 261  170.241
 262  135.7142
 263  112.9327
 264  155.7691
 265  212.9344
 266  331.9605
 267  290.6592
 268  446.9416
 269  375.8087
 270  277.8594
 271  338.1724
 272  212.2171
 273  260.2372
 274  280.6735
 275  316.5163
 276  357.9569
 277  415.9605
 278  317.2101
 279  296.7483
 280  247.1078
 281  338.6079
 282  413.9102
 283  304.6626
 284  296.2574
 285  316.9141
 286  311.8294
 287  343.8997
 288  225.0317
 289  171.7207
 290  273.6988
 291  345.37
 292  304.6658
 293  221.3374
 294  326.1913
 295  289.8841
 296  359.0392
 297  361.7547
 298  288.0698
 299  143.5566
 300  96.9113
 301  259.1898
 302  355.7893
 303  346.6825
 304  379.1996
 305  280.2966
 306  322.0345
 307  273.2778
 308  283.582
 309  280.6973
 310  244.7491
 311  342.2227
 312  173.3026
 313  196.7691
 314  222.3752
 315  345.478
 316  466.6367
 317  421.1569
 318  416.0656
 319  366.8713
 320  325.514
 321  358.2968
 322  227.9277
 323  279.6136
 324  371.8857
 325  346.1823
 326  325.1527
 327  301.3952
 328  382.7857
 329  465.0229
 330  676.5032
 331  811.7048
 332  876.4883
 333  961.2173
 334  910.4091
 335  660.499
 336  454.0016
 337  289.7021
 338  316.1097
 339  273.5234
 340  290.2077
 341  293.368
 342  222.6614
 343  270.8244
 344  157.4375
 345  199.1491
 346  369.54
 347  413.4896
 348  349.2819
 349  293.0163
 350  301.3812
 351  347.5101
 352  328.3471
 353  324.85
 354  341.2266
 355  347.0134
 356  375.9548
 357  379.9215
 358  247.7003
 359  314.4515
 360  300.7504
 361  264.6929
 362  207.6968
 363  205.4842
 364  151.6123
 365  223.0077
 366  285.3254
 367  229.2612
 368  268.3004
 369  369.1138
 370  287.2965
 371  223.5755
 372  198.1779
 373  308.0389
 374  304.9427
 375  346.3705
 376  354.9699
 377  409.2474
 378  376.4613
 379  358.4279
 380  328.3588
 381  336.7489
 382  353.8878
 383  302.3156
 384  472.8938
 385  447.8065
 386  213.3463
 387  185.8818
 388  271.8524
 389  340.7406
 390  477.792
 391  393.6968
 392  363.1803
 393  402.6057
 394  329.8214
 395  416.9718
 396  369.4992
 397  306.1931
 398  395.0808
 399  369.1501
 400  321.2042
 401  319.8148
 402  269.0858
 403  164.6741
 404  341.9117
 405  454.3737
 406  662.2409
 407  507.2239
 408  336.1093
 409  310.0192
 410  316.8931
 411  352.4853
 412  328.2615
 413  347.2791
 414  475.5054
 415  365.0655
 416  364.8038
 417  394.1304
 418  306.8726
 419  298.9352
 420  340.7314
 421  349.7941
 422  342.1042
 423  324.4592
 424  284.9464
 425  360.2673
 426  455.2993
 427  534.618
 428  455.9467
 429  409.584
 430  491.4973
 431  395.5908
 432  234.2643
 433  229.3325
 434  206.4953
 435  260.3009
 436  431.0389
 437  432.7096
 438  447.0973
 439  412.6129
 440  322.4494
 441  266.9457
 442  368.1013
 443  395.9669
 444  303.7076
 445  294.7558
 446  323.131
 447  356.2751
 448  375.3546
 449  347.4027
 450  309.0641
 451  301.0703
 452  352.4276
 453  331.5515
 454  362.649
 455  336.7246
 456  364.5888
 457  294.801
 458  372.8883
 459  466.0428
 460  490.8774
 461  414.4489
 462  341.0085
 463  458.6184
 464  304.6052
 465  336.0723
 466  281.1521
 467  295.1797
 468  294.5599
 469  242.186
 470  414.3622
 471  352.6279
 472  275.9688
 473  308.4266
 474  420.6817
 475  326.4741
 476  186.1318
 477  218.5695
 478  279.7224
 479  390.1109
 480  321.0467
 481  306.7515
 482  360.59
 483  316.943
 484  302.8389
 485  302.9265
 486  267.5073
 487  407.1627
 488  290.4657
 489  196.7672
 490  330.7029
 491  321.4431
 492  318.4643
 493  356.5471
 494  395.6978
 495  400.9057
 496  219.8293
 497  247.9062
 498  210.4308
 499  278.6457
 500  313.3284
 501  303.1289
 502  246.1889
 503  277.8554
 504  249.5593
 505  320.5178
 506  360.3058
 507  369.1193
 508  287.0345
 509  266.4432
 510  331.2188
 511  292.1877
