# Input file       =  1200743205.114184_cleaned.dat
# Candidate        =  PSR_0332+5434
# Telescope        =  AR
# Epoch_topo       =  58141.491019840090
# Epoch_bary       =  N/A
# T_sample         =  0.002
# Data Folded      =  7208960
# Data Avg         =  0.0694957384860819
# Data StdDev      =  10.6774554277389 
# Profile Bins     =  512
# Profile Avg      =  978.499994692019 
# Profile StdDev   =  1266.97806062766 
# Reduced chi-sqr  =  1.248
# Prob(Noise)      <  0.000112   (~3.7 sigma)
# P_topo (ms)      =  714.571812716638  +/- 7.43e-05
# P'_topo (s/s)    =  -0                +/- 3.99e-11
# P''_topo (s/s^2) =  0                 +/- 1.79e-14
# P_bary (ms)      =  N/A
# P'_bary (s/s)    =  N/A
# P''_bary (s/s^2) =  N/A
# P_orb (s)        =  N/A
# asin(i)/c (s)    =  N/A
# eccentricity     =  N/A
# w (rad)          =  N/A
# T_peri           =  N/A
######################################################
   0  -712.5822
   1  -830.9006
   2  -730.2026
   3  -193.1814
   4  512.9964
   5  1504.432
   6  747.6587
   7  443.6764
   8  -175.7921
   9  -995.8844
  10  -651.499
  11  216.4491
  12  555.8401
  13  614.1553
  14  753.4805
  15  1122.77
  16  -346.1436
  17  -755.0278
  18  354.2051
  19  1614.894
  20  2582.785
  21  3424.662
  22  4469.758
  23  2907.531
  24  1912.84
  25  1893.349
  26  2122.151
  27  3004.517
  28  2531.698
  29  2731.436
  30  1964.516
  31  1439.21
  32  108.5257
  33  46.21324
  34  1737.445
  35  1705.008
  36  490.9213
  37  897.3196
  38  1186.652
  39  909.9173
  40  867.0744
  41  1172.228
  42  1062.561
  43  1069.478
  44  984.0068
  45  135.4937
  46  386.9249
  47  156.0247
  48  1427.104
  49  536.4845
  50  1221.626
  51  -452.8222
  52  -488.9055
  53  -195.5688
  54  -93.02661
  55  -495.0145
  56  -317.2811
  57  -445.9727
  58  -150.8103
  59  59.96329
  60  -508.3165
  61  -313.3132
  62  320.2051
  63  771.3961
  64  640.8435
  65  711.807
  66  541.9257
  67  752.1534
  68  173.2277
  69  125.3037
  70  1857.581
  71  2164.158
  72  1724.264
  73  2214.043
  74  1784.724
  75  759.2993
  76  1122.339
  77  1469.049
  78  1668.849
  79  2243.475
  80  2901.369
  81  2162.74
  82  1967.734
  83  1449.042
  84  1419.53
  85  1528.547
  86  1137.517
  87  185.8674
  88  142.3361
  89  816.8306
  90  1442.086
  91  967.0533
  92  516.9562
  93  797.1494
  94  643.2037
  95  159.7563
  96  805.8135
  97  1684.051
  98  1485.502
  99  1300.929
 100  1539.047
 101  2504.436
 102  3316.993
 103  3004.093
 104  2585.048
 105  2708.038
 106  2740.982
 107  2392.799
 108  1647.799
 109  2121.316
 110  1478.854
 111  2322.787
 112  2302.52
 113  1825.192
 114  1974.034
 115  658.1459
 116  -213.6839
 117  390.0873
 118  1070.553
 119  1698.781
 120  1446.659
 121  1436.674
 122  1808.894
 123  2318.36
 124  2145.156
 125  1542.773
 126  468.5465
 127  214.6158
 128  -328.4201
 129  556.993
 130  1306.609
 131  2614.469
 132  2153.953
 133  188.5581
 134  -365.559
 135  1378.15
 136  2942.395
 137  2628.057
 138  2039.881
 139  1304.629
 140  541.6393
 141  1394.458
 142  1939.418
 143  1188.699
 144  438.8585
 145  779.4915
 146  9.338524
 147  -313.8277
 148  -57.87809
 149  -0.6560616
 150  -348.5126
 151  -1022.8
 152  -836.7112
 153  68.48086
 154  1273.483
 155  1009.598
 156  487.1236
 157  199.9491
 158  34.06971
 159  -384.0485
 160  -1016.234
 161  -283.8167
 162  558.5516
 163  657.2186
 164  384.6841
 165  -545.9277
 166  -889.2587
 167  -470.5922
 168  37.46995
 169  450.8759
 170  752.183
 171  2347.065
 172  1360.888
 173  -645.5981
 174  -384.8969
 175  1181.946
 176  1224.924
 177  445.1024
 178  59.26793
 179  -33.81062
 180  -829.0605
 181  -907.3359
 182  9.222529
 183  662.7739
 184  1658.325
 185  1591.022
 186  1073.979
 187  72.52769
 188  704.516
 189  141.7274
 190  -1078.485
 191  -710.098
 192  39.11093
 193  -302.5146
 194  -644.0687
 195  419.7762
 196  -578.5539
 197  -1893.807
 198  -789.5017
 199  -802.6509
 200  -529.175
 201  67.05297
 202  643.7378
 203  707.6096
 204  19.90264
 205  -797.9191
 206  -1003.37
 207  -869.6216
 208  574.5443
 209  767.4415
 210  968.3002
 211  -299.7718
 212  706.6189
 213  947.9759
 214  644.9269
 215  149.6004
 216  176.4832
 217  684.2124
 218  336.238
 219  1027.124
 220  1654.031
 221  2283.355
 222  1423.753
 223  743.8325
 224  428.8383
 225  -1018.204
 226  -1449.049
 227  -753.6191
 228  1678.279
 229  1456.586
 230  412.0074
 231  -602.7769
 232  -1518.21
 233  -659.4048
 234  -229.3974
 235  -493.2433
 236  451.8418
 237  193.9914
 238  65.44206
 239  23.80689
 240  303.9976
 241  591.5581
 242  1171.886
 243  1194.28
 244  327.9263
 245  170.1623
 246  293.7867
 247  31.42274
 248  694.0121
 249  546.7785
 250  1369.588
 251  1137.976
 252  834.7781
 253  551.7723
 254  355.9153
 255  270.1884
 256  889.6634
 257  264.3434
 258  445.7025
 259  464.7439
 260  991.6189
 261  1038.201
 262  -10.91919
 263  -573.8481
 264  -398.9778
 265  502.5174
 266  350.4351
 267  797.4861
 268  613.4246
 269  1019.721
 270  810.4654
 271  -12.79234
 272  381.5579
 273  93.74564
 274  -555.0458
 275  -856.2728
 276  -454.5148
 277  189.182
 278  751.6833
 279  509.874
 280  -490.5725
 281  -418.3193
 282  116.3337
 283  446.7323
 284  899.8323
 285  772.2458
 286  1727.626
 287  1980.122
 288  1231.284
 289  1235.596
 290  988.9498
 291  954.4412
 292  512.5947
 293  1459.969
 294  2776.611
 295  2309.999
 296  2206.964
 297  1339.152
 298  51.05328
 299  -320.9131
 300  709.8774
 301  1993.104
 302  2204.593
 303  1917.424
 304  1160.824
 305  1918.962
 306  2683.538
 307  2512.043
 308  2290.041
 309  2148.393
 310  1502.21
 311  1954.831
 312  2051.583
 313  1326.986
 314  847.7238
 315  14.51636
 316  -1023.59
 317  321.5964
 318  2065.956
 319  1305.778
 320  -61.80322
 321  -895.0247
 322  -810.2855
 323  154.3126
 324  576.762
 325  488.274
 326  1807.605
 327  1621.34
 328  757.572
 329  750.9901
 330  141.9538
 331  1170.283
 332  1253.842
 333  1649.862
 334  2975.008
 335  2879.286
 336  1849.818
 337  437.1321
 338  755.8267
 339  1530.876
 340  1058.981
 341  1636.04
 342  1812.107
 343  1961.66
 344  898.6165
 345  1347.275
 346  1105.854
 347  530.8612
 348  689.2379
 349  1173.557
 350  1570.947
 351  1701.846
 352  2124.4
 353  1599.578
 354  800.8185
 355  479.0417
 356  1105.45
 357  1231.839
 358  864.118
 359  316.8226
 360  1544.212
 361  2505.888
 362  1619.69
 363  1722.238
 364  370.785
 365  1354.868
 366  2565.478
 367  3033.042
 368  3748.13
 369  2779.21
 370  1760.156
 371  1717.578
 372  2111.688
 373  2343.252
 374  1810.361
 375  1729.343
 376  1070.872
 377  1267.816
 378  580.5947
 379  1146.307
 380  550.1066
 381  839.2223
 382  1562.745
 383  2143.982
 384  1787.777
 385  1908.01
 386  2120.915
 387  1976.946
 388  1237.749
 389  685.4832
 390  1814.29
 391  2447.574
 392  3659.307
 393  2696.16
 394  2030.002
 395  305.6309
 396  -72.57032
 397  -159.1099
 398  -116.3093
 399  897.8222
 400  1446.013
 401  1719.296
 402  1341.691
 403  1351.319
 404  593.3586
 405  561.18
 406  696.7126
 407  805.1185
 408  286.4352
 409  162.1996
 410  284.9453
 411  960.9442
 412  1232.231
 413  1106.965
 414  588.5236
 415  96.62326
 416  1051.833
 417  2474.919
 418  2922.404
 419  2362.5
 420  1599.502
 421  1414.375
 422  1128.377
 423  2078.21
 424  2270.164
 425  2390.407
 426  3312.684
 427  2010.174
 428  550.9095
 429  371.5523
 430  1341.025
 431  1983.225
 432  1492.762
 433  1895.156
 434  1747.215
 435  2149.972
 436  2207.294
 437  2350.166
 438  1535.156
 439  -382.8945
 440  -298.5999
 441  853.244
 442  1909.62
 443  2229.94
 444  1936.535
 445  1467.182
 446  422.121
 447  61.42797
 448  165.8793
 449  987.5515
 450  2128.581
 451  1845.249
 452  775.4736
 453  666.2133
 454  -47.445
 455  181.5149
 456  1374.965
 457  2593.377
 458  2169.233
 459  2120.87
 460  1025.127
 461  1023.692
 462  1831.268
 463  1952.406
 464  2840.438
 465  3097.777
 466  2412.832
 467  1499.171
 468  1704.093
 469  1245.187
 470  2835.819
 471  2289.435
 472  1873.292
 473  427.3092
 474  242.0242
 475  2228.976
 476  2545.204
 477  2542.387
 478  2043.005
 479  904.7709
 480  -792.3497
 481  24.93774
 482  1532.716
 483  2365.573
 484  2717.684
 485  2015.279
 486  1212.382
 487  822.7426
 488  1152.485
 489  1674.021
 490  1921.431
 491  1449.704
 492  1717.396
 493  1970.374
 494  1532.909
 495  504.7664
 496  -26.70614
 497  367.4141
 498  1535.809
 499  1464.121
 500  1050.361
 501  1504.97
 502  1488.849
 503  324.7708
 504  118.7388
 505  558.5923
 506  1645.77
 507  1951.157
 508  1662.662
 509  1295.916
 510  -587.8006
 511  -1309.008
