# Input file       =  1200140058.09837_cleaned.dat
# Candidate        =  PSR_0332+5434
# Telescope        =  AR
# Epoch_topo       =  58134.510151601506
# Epoch_bary       =  N/A
# T_sample         =  0.002
# Data Folded      =  7208960
# Data Avg         =  0.0178616331257948
# Data StdDev      =  0.999534744146343
# Profile Bins     =  512
# Profile Avg      =  251.486080883914 
# Profile StdDev   =  118.603968917403 
# Reduced chi-sqr  =  1.769
# Prob(Noise)      <  2.82e-24   (~10.1 sigma)
# P_topo (ms)      =  714.567579094899  +/- 6.61e-05
# P'_topo (s/s)    =  -0                +/- 3.55e-11
# P''_topo (s/s^2) =  0                 +/- 1.6e-14
# P_bary (ms)      =  N/A
# P'_bary (s/s)    =  N/A
# P''_bary (s/s^2) =  N/A
# P_orb (s)        =  N/A
# asin(i)/c (s)    =  N/A
# eccentricity     =  N/A
# w (rad)          =  N/A
# T_peri           =  N/A
######################################################
   0  275.1338
   1  249.317
   2  232.6312
   3  270.3026
   4  354.6515
   5  328.9734
   6  185.9701
   7  211.0554
   8  159.6503
   9  214.4093
  10  302.3662
  11  354.4723
  12  368.0515
  13  264.568
  14  129.4685
  15  225.9534
  16  125.354
  17  176.7209
  18  200.0949
  19  131.2853
  20  264.5345
  21  229.2547
  22  169.3986
  23  216.0595
  24  341.1789
  25  184.8555
  26  154.4081
  27  241.558
  28  438.1258
  29  489.5251
  30  405.7864
  31  237.4487
  32  298.5628
  33  293.6142
  34  174.4457
  35  104.4101
  36  191.3806
  37  246.5685
  38  223.5932
  39  239.5684
  40  202.5381
  41  271.9696
  42  314.4054
  43  301.3047
  44  407.899
  45  441.0115
  46  251.3802
  47  153.1088
  48  229.5229
  49  207.7919
  50  228.6421
  51  116.4356
  52  273.4447
  53  322.1776
  54  412.152
  55  303.2813
  56  156.6181
  57  250.4803
  58  292.9944
  59  394.644
  60  398.7476
  61  468.5312
  62  410.5882
  63  350.6759
  64  274.0092
  65  388.6909
  66  388.7167
  67  400.4124
  68  284.0283
  69  380.1944
  70  383.3505
  71  281.6143
  72  238.2576
  73  303.6515
  74  285.8364
  75  371.6869
  76  418.6088
  77  425.5957
  78  423.9774
  79  378.6543
  80  370.294
  81  363.2455
  82  270.1736
  83  270.6261
  84  212.4711
  85  225.1751
  86  319.5235
  87  272.4618
  88  280.6843
  89  160.8597
  90  165.8508
  91  264.8138
  92  231.6131
  93  228.5845
  94  289.6043
  95  280.2796
  96  150.8273
  97  144.8305
  98  146.1695
  99  247.5337
 100  306.0255
 101  302.9554
 102  289.6611
 103  280.5912
 104  346.9344
 105  300.7961
 106  133.963
 107  184.0414
 108  221.2637
 109  226.4561
 110  265.7098
 111  346.6625
 112  217.9781
 113  171.3848
 114  126.7375
 115  159.8377
 116  101.7395
 117  245.4961
 118  387.6126
 119  443.2982
 120  448.7179
 121  383.9311
 122  344.4002
 123  278.2888
 124  163.5177
 125  349.3868
 126  442.7264
 127  362.9914
 128  374.6508
 129  335.6611
 130  256.8393
 131  231.5333
 132  265.8974
 133  138.0971
 134  135.4601
 135  202.955
 136  347.2026
 137  259.1579
 138  268.6738
 139  285.5239
 140  255.4605
 141  157.3943
 142  240.4242
 143  382.1192
 144  370.5995
 145  309.1485
 146  359.7814
 147  404.2706
 148  327.7991
 149  274.6564
 150  212.9067
 151  283.3575
 152  376.819
 153  351.3802
 154  373.9355
 155  243.0524
 156  148.1946
 157  140.3639
 158  266.1185
 159  257.1777
 160  389.6727
 161  451.7787
 162  431.0143
 163  295.476
 164  222.4207
 165  197.769
 166  227.3756
 167  308.442
 168  286.5782
 169  308.2576
 170  215.7489
 171  134.6774
 172  176.0858
 173  95.65257
 174  96.07855
 175  188.4927
 176  273.7623
 177  383.7878
 178  268.9367
 179  126.2747
 180  103.4453
 181  264.8516
 182  301.5129
 183  197.6277
 184  284.7828
 185  345.8365
 186  379.3136
 187  313.1855
 188  145.5244
 189  152.3954
 190  294.2159
 191  298.9315
 192  130.9408
 193  209.5679
 194  328.1468
 195  341.1004
 196  262.6472
 197  164.6943
 198  227.2708
 199  250.2627
 200  251.0776
 201  389.3319
 202  372.1047
 203  370.7537
 204  340.7609
 205  211.0873
 206  240.5117
 207  146.2594
 208  203.0683
 209  83.68155
 210  213.0905
 211  283.8112
 212  325.1052
 213  333.4415
 214  295.8491
 215  262.5726
 216  166.6155
 217  269.5361
 218  264.3828
 219  311.4986
 220  349.0571
 221  109.1875
 222  138.6453
 223  187.8492
 224  102.9715
 225  134.9457
 226  212.3479
 227  273.217
 228  212.9648
 229  127.9962
 230  178.8869
 231  199.6501
 232  174.9779
 233  270.5242
 234  251.52
 235  129.6433
 236  183.0199
 237  241.8767
 238  273.597
 239  216.3919
 240  158.0027
 241  158.9437
 242  206.0023
 243  251.4177
 244  251.1676
 245  304.8649
 246  175.1215
 247  177.0563
 248  141.6363
 249  137.3972
 250  201.9335
 251  274.5096
 252  219.5985
 253  88.75772
 254  107.7402
 255  251.7361
 256  210.2491
 257  195.0708
 258  269.5422
 259  182.2896
 260  120.0045
 261  88.93085
 262  98.73351
 263  140.9403
 264  104.5712
 265  259.4265
 266  383.2333
 267  384.9388
 268  277.3646
 269  200.2195
 270  218.3183
 271  202.8264
 272  100.1098
 273  137.8487
 274  279.2079
 275  322.6694
 276  313.3756
 277  277.6317
 278  182.5004
 279  165.5488
 280  212.3889
 281  167.5728
 282  77.23158
 283  198.3009
 284  265.9598
 285  308.9183
 286  322.4991
 287  261.0507
 288  171.0147
 289  119.2137
 290  134.5838
 291  141.1523
 292  192.9998
 293  211.2665
 294  232.3276
 295  249.3803
 296  213.5639
 297  139.6769
 298  146.1767
 299  217.5002
 300  226.98
 301  242.0819
 302  183.6255
 303  93.33047
 304  175.5593
 305  221.915
 306  78.10695
 307  85.27017
 308  71.13376
 309  75.11433
 310  115.7534
 311  196.1184
 312  158.1335
 313  141.2468
 314  209.1399
 315  112.3701
 316  130.5237
 317  234.7186
 318  185.0321
 319  277.3397
 320  282.8903
 321  122.4917
 322  75.729
 323  141.2778
 324  275.4049
 325  303.859
 326  299.5052
 327  375.2
 328  232.3631
 329  186.0026
 330  222.7153
 331  164.7326
 332  287.5663
 333  403.3935
 334  486.2812
 335  313.7452
 336  379.0021
 337  260.4156
 338  316.4457
 339  214.1587
 340  309.8789
 341  413.1354
 342  392.7257
 343  281.782
 344  339.0959
 345  374.0542
 346  215.2668
 347  115.5768
 348  225.8205
 349  231.2537
 350  206.5763
 351  401.5474
 352  418.2173
 353  291.3969
 354  216.4884
 355  460.4398
 356  729.9141
 357  928.809
 358  1049.614
 359  1080.777
 360  938.652
 361  616.4882
 362  403.4052
 363  220.2595
 364  326.6339
 365  301.1933
 366  236.8556
 367  240.8226
 368  396.531
 369  385.2845
 370  377.9206
 371  345.3448
 372  351.0113
 373  342.2853
 374  428.8695
 375  374.6537
 376  195.1281
 377  113.4261
 378  168.328
 379  276.8874
 380  289.6006
 381  125.0488
 382  129.5959
 383  284.1276
 384  211.0956
 385  271.4498
 386  256.873
 387  168.7264
 388  148.721
 389  196.5194
 390  176.9245
 391  218.4771
 392  177.1161
 393  130.2588
 394  218.1407
 395  250.2155
 396  308.3984
 397  213.9947
 398  205.9004
 399  314.1268
 400  243.2095
 401  263.5303
 402  214.5409
 403  86.44862
 404  128.9068
 405  292.3698
 406  263.4251
 407  316.3276
 408  337.6154
 409  286.4855
 410  163.0513
 411  143.9742
 412  227.001
 413  146.5754
 414  94.91187
 415  172.1165
 416  194.7069
 417  217.1988
 418  174.6378
 419  295.8581
 420  217.8813
 421  211.7882
 422  139.2115
 423  251.054
 424  317.996
 425  302.3016
 426  303.3657
 427  122.9532
 428  169.2541
 429  239.4491
 430  114.4802
 431  115.91
 432  159.6939
 433  224.8317
 434  333.2782
 435  213.5499
 436  200.0697
 437  203.3263
 438  175.0706
 439  185.9357
 440  161.3706
 441  148.446
 442  116.0214
 443  258.3308
 444  91.6449
 445  219.2339
 446  300.886
 447  229.8387
 448  225.4917
 449  150.8132
 450  164.7314
 451  303.7139
 452  232.3943
 453  161.2785
 454  81.52327
 455  44.98603
 456  123.6946
 457  235.4356
 458  279.5438
 459  299.5892
 460  289.034
 461  242.9135
 462  97.67117
 463  118.6859
 464  235.3612
 465  304.4734
 466  322.664
 467  326.1849
 468  218.5988
 469  254.4636
 470  194.61
 471  207.5631
 472  97.55837
 473  179.4462
 474  264.2519
 475  279.4713
 476  313.1021
 477  278.5893
 478  174.1966
 479  81.03723
 480  159.6067
 481  178.7733
 482  215.6602
 483  237.3907
 484  224.3541
 485  274.5394
 486  230.2627
 487  184.2872
 488  224.0284
 489  324.0584
 490  433.1705
 491  249.7589
 492  70.6119
 493  151.0376
 494  206.745
 495  191.9121
 496  259.5298
 497  300.5503
 498  191.938
 499  203.1333
 500  154.3159
 501  95.59996
 502  143.4044
 503  189.776
 504  257.5258
 505  283.5376
 506  258.3206
 507  262.7808
 508  418.6872
 509  372.0559
 510  326.084
 511  299.7275
