# Input file       =  1200140058.098370-PSRB0329-2ms-sampling-dd.dat
# Candidate        =  PSR_0332+5434
# Telescope        =  AR
# Epoch_topo       =  58134.510151601506
# Epoch_bary       =  N/A
# T_sample         =  0.002
# Data Folded      =  7208960
# Data Avg         =  1.74713905773537e-10
# Data StdDev      =  12.8084055089794 
# Profile Bins     =  512
# Profile Avg      =  -0.0489764604205693
# Profile StdDev   =  1519.83484092481 
# Reduced chi-sqr  =  1.014
# Prob(Noise)      <  0.401   (~0.3 sigma)
# P_topo (ms)      =  714.567579094899  +/- 5.24e-05
# P'_topo (s/s)    =  -0                +/- 2.81e-11
# P''_topo (s/s^2) =  0                 +/- 1.26e-14
# P_bary (ms)      =  N/A
# P'_bary (s/s)    =  N/A
# P''_bary (s/s^2) =  N/A
# P_orb (s)        =  N/A
# asin(i)/c (s)    =  N/A
# eccentricity     =  N/A
# w (rad)          =  N/A
# T_peri           =  N/A
######################################################
   0  -271.4757
   1  -624.9991
   2  80.18556
   3  1164.929
   4  1627.614
   5  977.6851
   6  140.6114
   7  361.188
   8  -24.8929
   9  589.3002
  10  954.714
  11  2023.087
  12  2247.435
  13  1487.897
  14  167.9425
  15  -252.7872
  16  -670.7492
  17  -830.4383
  18  -87.63526
  19  411.5121
  20  652.5126
  21  -20.0237
  22  -954.0093
  23  -1461.841
  24  -1004.83
  25  -1007.68
  26  -637.4254
  27  -164.7805
  28  566.8241
  29  843.8089
  30  -402.9515
  31  -784.9471
  32  -329.0286
  33  -121.171
  34  -624.1943
  35  -1099.081
  36  -456.5231
  37  -22.08584
  38  56.92056
  39  292.6039
  40  532.5649
  41  450.3473
  42  54.66878
  43  236.0863
  44  545.0269
  45  1053.22
  46  1137.555
  47  384.6515
  48  97.75242
  49  -595.749
  50  -1122.848
  51  -1593.608
  52  -1095.364
  53  -122.796
  54  -503.5098
  55  -963.8531
  56  -1838.031
  57  -1808.727
  58  -1325.402
  59  -714.1124
  60  -142.9525
  61  306.5034
  62  21.95211
  63  -584.0645
  64  -910.7405
  65  -369.4264
  66  14.59693
  67  -80.51848
  68  -300.0581
  69  -50.92658
  70  -652.2697
  71  -1073.303
  72  -1297.523
  73  -683.4705
  74  -775.7898
  75  -718.6405
  76  -626.3804
  77  -143.651
  78  25.45319
  79  -274.2631
  80  -601.3149
  81  -1221.399
  82  -1651.718
  83  -1046.821
  84  -998.3027
  85  -436.3301
  86  -105.3227
  87  -437.0484
  88  -1428.024
  89  -2208.847
  90  -2260.984
  91  -1553.594
  92  -742.5224
  93  -373.1412
  94  14.75287
  95  -296.953
  96  -950.3677
  97  -1302.093
  98  -706.6227
  99  226.2763
 100  794.2643
 101  -480.6901
 102  75.66167
 103  1488.052
 104  2642.733
 105  2573.575
 106  2270.858
 107  1054.053
 108  -186.2527
 109  -1167.244
 110  -40.17159
 111  183.1372
 112  356.1357
 113  479.6322
 114  -1300.903
 115  -286.4292
 116  -543.0096
 117  1690.17
 118  2434.354
 119  2931.206
 120  1999.119
 121  -485.1907
 122  -999.0197
 123  -1397.835
 124  -1683.671
 125  -1147.659
 126  -441.8335
 127  156.7859
 128  381.5246
 129  81.68965
 130  -1052.437
 131  -1496.237
 132  -1201.826
 133  -1511.261
 134  -1290.448
 135  -657.8633
 136  -230.6108
 137  -808.9555
 138  -1270.278
 139  -1069.889
 140  -914.2314
 141  -1283.418
 142  -337.5308
 143  688.2465
 144  1564.128
 145  1429.414
 146  1109.505
 147  865.9904
 148  354.4027
 149  490.4271
 150  372.6069
 151  1159.048
 152  1378.013
 153  1351.968
 154  900.1629
 155  -228.626
 156  -4.559649
 157  -95.70867
 158  461.2875
 159  1198.05
 160  2136.172
 161  2451.974
 162  2369.036
 163  1361.628
 164  904.7803
 165  613.9542
 166  1320.872
 167  1844.194
 168  2476.312
 169  3408.153
 170  2357.383
 171  1513.198
 172  410.2026
 173  -8.572349
 174  397.4263
 175  762.8676
 176  2450.739
 177  3140.924
 178  2856.959
 179  1499.106
 180  1072.755
 181  1325.506
 182  1074.002
 183  1013.806
 184  1714.947
 185  2207.855
 186  2492.447
 187  1758.506
 188  1158.663
 189  1395.875
 190  1648.256
 191  1986.124
 192  2085.334
 193  2160.488
 194  2334.469
 195  2111.751
 196  1656.749
 197  916.5778
 198  606.5665
 199  -211.8099
 200  -572.3557
 201  326.2994
 202  582.6931
 203  420.1431
 204  -216.8922
 205  -695.2897
 206  -731.4062
 207  -1330.52
 208  -937.4223
 209  -271.2627
 210  644.6153
 211  763.1498
 212  132.1463
 213  -176.5007
 214  -490.5028
 215  -795.4158
 216  -1045.111
 217  -593.2485
 218  167.8642
 219  206.7616
 220  46.21188
 221  -613.5953
 222  -639.1696
 223  -479.5894
 224  -893.1873
 225  -449.7724
 226  -81.92587
 227  646.2972
 228  605.8223
 229  -40.85374
 230  83.18862
 231  -195.297
 232  -266.5572
 233  -42.56702
 234  -1.799931
 235  266.7055
 236  -456.0234
 237  -540.4547
 238  -533.1459
 239  -618.6169
 240  -904.6516
 241  -746.1846
 242  -337.7653
 243  214.3807
 244  124.0877
 245  129.6741
 246  -412.2522
 247  -852.5648
 248  -882.7072
 249  -1319.495
 250  -738.4015
 251  -216.4225
 252  313.3357
 253  68.97595
 254  -559.2434
 255  -586.2264
 256  -1240.196
 257  -1131.987
 258  -483.9214
 259  -221.7267
 260  239.4781
 261  -67.84244
 262  125.9722
 263  -433.4399
 264  -919.0444
 265  -966.7548
 266  -1242.087
 267  -425.7933
 268  -205.3724
 269  -197.561
 270  -678.0809
 271  -1002.177
 272  -1277.456
 273  -1190.255
 274  -761.3904
 275  -357.4802
 276  342.5508
 277  237.9741
 278  -148.7036
 279  -303.3108
 280  501.5091
 281  -96.21584
 282  -369.6234
 283  -250.7345
 284  137.7287
 285  607.8596
 286  199.8998
 287  640.8423
 288  -239.432
 289  -332.6476
 290  -710.7225
 291  -219.4439
 292  190.5546
 293  96.37515
 294  104.5959
 295  -491.347
 296  -915.2759
 297  -1017.621
 298  -1139.078
 299  -936.3923
 300  -825.6694
 301  -465.9795
 302  -699.2494
 303  -1154.401
 304  -1049.883
 305  -676.8546
 306  -1150.714
 307  -1446.635
 308  -858.0137
 309  -213.1198
 310  0.2060894
 311  -397.9817
 312  -661.3214
 313  -643.1351
 314  -798.0106
 315  -1207.645
 316  -1159.094
 317  -481.7808
 318  -557.3112
 319  -638.7621
 320  -969.0112
 321  -1075.172
 322  -1156.437
 323  -1332.693
 324  -772.4897
 325  -523.2593
 326  -141.2348
 327  -71.39896
 328  -1033.87
 329  -1566.95
 330  -1566.31
 331  -1691.967
 332  -1291.267
 333  -707.9486
 334  98.69441
 335  -493.2715
 336  -674.3461
 337  -1443.366
 338  -1015.946
 339  -1254.993
 340  -1274.536
 341  -268.1604
 342  191.9668
 343  -51.35916
 344  -507.653
 345  -687.1059
 346  -1152.679
 347  -1664.715
 348  -1518.41
 349  -1035.515
 350  -634.33
 351  -147.1373
 352  -544.8168
 353  -1408.564
 354  -1843.877
 355  -1659.413
 356  -623.1547
 357  120.3151
 358  997.9391
 359  1590.532
 360  1116.846
 361  210.0279
 362  -944.22
 363  -1476.843
 364  -1253.279
 365  -1010.073
 366  -492.6003
 367  -407.4103
 368  92.07927
 369  -517.9494
 370  -558.1892
 371  -449.1159
 372  -652.7815
 373  -312.4977
 374  -262.5171
 375  87.50504
 376  -612.3693
 377  -994.1185
 378  -1280.036
 379  -1010.939
 380  -683.9846
 381  -1287.367
 382  -718.2873
 383  -396.4126
 384  -850.8111
 385  -1382.415
 386  -1427.672
 387  -1000.196
 388  -1119.308
 389  -575.2938
 390  -563.7846
 391  123.3681
 392  186.2841
 393  -444.6697
 394  -642.7594
 395  -353.9901
 396  -123.4717
 397  -616.0552
 398  -295.012
 399  -143.8858
 400  371.3019
 401  630.5314
 402  297.7561
 403  -345.5225
 404  -1251.856
 405  -536.1777
 406  300.1979
 407  2425.414
 408  3268.516
 409  3556.847
 410  2272.977
 411  731.8027
 412  981.1
 413  1535.878
 414  976.5591
 415  1295.889
 416  2819.601
 417  2553.028
 418  1934.164
 419  2339.855
 420  1736.862
 421  1116.581
 422  387.8165
 423  1397.618
 424  2040.283
 425  1744.068
 426  1791.199
 427  618.2057
 428  211.4845
 429  66.63426
 430  -323.7267
 431  -306.952
 432  -60.68021
 433  370.9987
 434  219.3816
 435  -471.4904
 436  -912.4116
 437  -889.4587
 438  -987.8685
 439  673.8941
 440  1874.74
 441  2829.24
 442  2711.098
 443  2483.968
 444  1406.045
 445  234.283
 446  1194.641
 447  1468.064
 448  2151.937
 449  2908.042
 450  2211.452
 451  1367.437
 452  66.46262
 453  -537.9516
 454  -774.2817
 455  -849.2333
 456  -425.3474
 457  181.9185
 458  145.546
 459  -152.9459
 460  -611.6193
 461  -902.1271
 462  -911.8759
 463  -1058.121
 464  -1146.486
 465  -821.453
 466  -280.0871
 467  -49.57544
 468  -730.321
 469  -848.7427
 470  -816.124
 471  -649.9361
 472  -59.89373
 473  1243.386
 474  2365.176
 475  2701.546
 476  1462.257
 477  1234.029
 478  753.4623
 479  -230.1882
 480  604.4792
 481  1536.016
 482  2554.868
 483  2518.262
 484  1757.44
 485  904.9203
 486  -468.3213
 487  412.7505
 488  986.9707
 489  1695.333
 490  1895.7
 491  1576.942
 492  -37.10756
 493  -421.9417
 494  -879.8067
 495  -1074.717
 496  -791.897
 497  -732.0001
 498  -525.3214
 499  -712.8635
 500  -1188.378
 501  -1685.834
 502  -1641.926
 503  -1687.656
 504  -1311.141
 505  -1430.27
 506  -906.5007
 507  -168.4337
 508  262.839
 509  -61.86899
 510  -603.537
 511  -401.3347
