# Input file       =  1200053887.114777-PSRB0329-2ms-sampling-dd.dat
# Candidate        =  PSR_0332+5434
# Telescope        =  AR
# Epoch_topo       =  58133.512802254365
# Epoch_bary       =  N/A
# T_sample         =  0.002
# Data Folded      =  7208960
# Data Avg         =  1.43808228217935e-09
# Data StdDev      =  104.590837646855 
# Profile Bins     =  512
# Profile Avg      =  0.0703255515926671
# Profile StdDev   =  12410.6625907308 
# Reduced chi-sqr  =  1.313
# Prob(Noise)      <  2.37e-06   (~4.6 sigma)
# P_topo (ms)      =  714.566911524014  +/- 0.000433
# P'_topo (s/s)    =  -0                +/- 2.33e-10
# P''_topo (s/s^2) =  0                 +/- 1.05e-13
# P_bary (ms)      =  N/A
# P'_bary (s/s)    =  N/A
# P''_bary (s/s^2) =  N/A
# P_orb (s)        =  N/A
# asin(i)/c (s)    =  N/A
# eccentricity     =  N/A
# w (rad)          =  N/A
# T_peri           =  N/A
######################################################
   0  -5683.229
   1  -5535.08
   2  -5153.561
   3  -5531.82
   4  -6253.751
   5  -6337.769
   6  -6023.12
   7  -5906.594
   8  -5220.24
   9  -5165.894
  10  -4786.374
  11  -3608.147
  12  -3473.147
  13  -2464.901
  14  -1654.151
  15  -1612.999
  16  -2655.412
  17  -3448.073
  18  -3929.669
  19  -4083.51
  20  -4009.596
  21  -3458.667
  22  -3181.2
  23  -3506.899
  24  -3023.584
  25  -3435.985
  26  -3771.059
  27  -2559.058
  28  -2119.217
  29  -1717.43
  30  -1705.762
  31  26.00319
  32  2319.465
  33  535.8673
  34  495.4449
  35  192.1369
  36  -1865.97
  37  -1129.758
  38  2802.385
  39  4999.586
  40  4012.604
  41  2443.311
  42  306.4579
  43  1055.736
  44  -413.4927
  45  635.9869
  46  -247.4031
  47  -1275.371
  48  -3896.973
  49  -1445.221
  50  677.1703
  51  270.3895
  52  777.2422
  53  -286.5776
  54  -2020.363
  55  -2899.928
  56  -453.8799
  57  -899.5737
  58  -1759.974
  59  -2923.44
  60  -3621.464
  61  -3399.199
  62  -3440.326
  63  -1945.641
  64  -2135.839
  65  -2765.481
  66  -3567.321
  67  -3871.152
  68  -3478.505
  69  -4038.077
  70  -3041.975
  71  -1797.258
  72  -1468.059
  73  -3079.024
  74  -2911.375
  75  -3255.663
  76  -4516.374
  77  -3128.618
  78  -1353.258
  79  -150.673
  80  -924.5978
  81  -1694.898
  82  -2187.828
  83  -4806.588
  84  -4411.846
  85  -3258.883
  86  -3188.15
  87  -3667.127
  88  -4070.688
  89  -4008.854
  90  -5294.86
  91  -5534.874
  92  -5214.526
  93  -4586.026
  94  -4577.615
  95  -4489.123
  96  -4458.151
  97  -4206.858
  98  -4158.705
  99  -4085.16
 100  -4106.577
 101  -3894.997
 102  -4228.96
 103  -4977.271
 104  -5657.096
 105  -5575.687
 106  -5241.317
 107  -4931.557
 108  -4382.644
 109  -4574.007
 110  -4617.508
 111  -3499.223
 112  -2983.178
 113  -1105.789
 114  -174.6973
 115  -121.4306
 116  -1707.502
 117  -2672.88
 118  -3382.056
 119  -4272.403
 120  -4205.785
 121  -3692.681
 122  -3529.227
 123  -3961.23
 124  -4773.296
 125  -5693.536
 126  -5574.226
 127  -4784.111
 128  -3796.87
 129  -3218.773
 130  -3005.531
 131  -2283.489
 132  -2539.354
 133  -3708.276
 134  -4124.844
 135  -4365.288
 136  -3570.199
 137  -2992.876
 138  -2676.965
 139  -3268.909
 140  -3655.26
 141  -3435.518
 142  -2473.654
 143  -2438.119
 144  -1220.879
 145  -1216.716
 146  -1818.447
 147  -2489.11
 148  -3147.712
 149  -2692.421
 150  -2794.335
 151  -2338.161
 152  -2522.486
 153  -3073.559
 154  -3830.951
 155  -4196.134
 156  -3535.676
 157  -3811.392
 158  -3961.487
 159  -4070.578
 160  -3970.239
 161  -4293.242
 162  -5034.103
 163  -4626.581
 164  -4488.734
 165  -3921.918
 166  -3912.103
 167  -4131.076
 168  -5129.895
 169  -6243.248
 170  -5873.424
 171  -4894.595
 172  -4726.738
 173  -5118.552
 174  -5093.438
 175  -5369.221
 176  -5414.194
 177  -5154.132
 178  -3454.158
 179  -3155.3
 180  -3538.464
 181  -3639.523
 182  -4488.183
 183  -5161.931
 184  -5255.353
 185  -4011.797
 186  -4896.117
 187  -5094.003
 188  -5130.838
 189  -5840.825
 190  -5969.694
 191  -6237.385
 192  -5419.987
 193  -5082.465
 194  -4770.302
 195  -4727.737
 196  -4846.457
 197  -4241.174
 198  -5478.18
 199  -5654.686
 200  -5448.481
 201  -5279.316
 202  -5605.867
 203  -5514.332
 204  -5256.212
 205  -5970.103
 206  -5965.847
 207  -5642.673
 208  -4934.327
 209  -4660.636
 210  -3927.278
 211  -3871.558
 212  -4106.945
 213  -3733.207
 214  -3950.589
 215  -3796.35
 216  -4777.582
 217  -4803.488
 218  -4858.246
 219  -5178.458
 220  -4995.453
 221  -4883.671
 222  -4459.294
 223  -5233.065
 224  -4555.55
 225  -4510.934
 226  -4496.492
 227  -3973.593
 228  -3297.64
 229  -3157.476
 230  -2522.306
 231  -2930.918
 232  -3511.423
 233  -3840.342
 234  -3968.078
 235  -4101.972
 236  -4185.49
 237  -4179.912
 238  -4835.908
 239  -5028.432
 240  -4587.606
 241  -4363.965
 242  -4084.979
 243  -2936.466
 244  -2650.828
 245  -2687.082
 246  -2952.155
 247  -4250.559
 248  -4028.368
 249  -4203.48
 250  -4357.002
 251  -3294.877
 252  -3494.173
 253  -4232.366
 254  -3432.444
 255  -5040.956
 256  -5654.875
 257  -4248.43
 258  -4130.86
 259  2624.069
 260  34640.92
 261  43938.09
 262  47265.43
 263  46777.95
 264  8636.029
 265  5334.555
 266  7654.037
 267  43986.6
 268  38787.47
 269  32870.93
 270  26063.39
 271  5859.657
 272  -1157.536
 273  -2418.929
 274  -3001.269
 275  -2750.446
 276  -2412.646
 277  -3020.671
 278  -2631.078
 279  -1407.706
 280  -642.3464
 281  892.767
 282  1772.241
 283  3455.738
 284  2523.769
 285  2234.746
 286  985.7868
 287  -754.4581
 288  -1927.194
 289  -2287.129
 290  362.5644
 291  2831.048
 292  4923.366
 293  5363.356
 294  5021.627
 295  2810.376
 296  -675.9326
 297  684.1177
 298  -177.7863
 299  1468.372
 300  336.2008
 301  1255.585
 302  239.6198
 303  -1718.261
 304  -2017.571
 305  -2377.5
 306  -852.7075
 307  1748.259
 308  4812.414
 309  5459.935
 310  5071.92
 311  736.4443
 312  -676.265
 313  -1676.741
 314  -172.1454
 315  -113.5332
 316  -465.584
 317  -1083.366
 318  -694.7108
 319  669.5812
 320  91.05366
 321  -966.8254
 322  -1324.709
 323  -3709.924
 324  -3354.985
 325  -3040.252
 326  -1506.033
 327  -2161.368
 328  -2165.421
 329  -2545.842
 330  -3123.668
 331  -3434.063
 332  -3032.573
 333  481.5918
 334  882.5015
 335  2349.485
 336  1825.592
 337  1447.499
 338  782.8792
 339  -763.5023
 340  3360.115
 341  1213.89
 342  901.95
 343  567.3441
 344  1320.562
 345  2976.333
 346  38713.51
 347  38767.44
 348  38369.96
 349  58559.99
 350  55867.54
 351  54267.88
 352  50156
 353  70535.52
 354  65131.07
 355  42977.48
 356  46727.27
 357  47936.46
 358  46532.64
 359  35464.75
 360  25590.78
 361  16131.62
 362  5959.482
 363  1067.139
 364  1278.835
 365  2969.796
 366  3824.402
 367  4309.394
 368  3628.031
 369  3793.586
 370  771.5197
 371  35.11668
 372  -126.1001
 373  -2088.248
 374  -2046.18
 375  -2003.94
 376  -532.1303
 377  -1662.178
 378  -2390.494
 379  -2542.945
 380  -2395.859
 381  -2212.133
 382  -1815.493
 383  -619.2417
 384  -1748.845
 385  -1975.368
 386  -3121.237
 387  -3367.432
 388  -4248.871
 389  -4195.91
 390  -1830.304
 391  -364.9241
 392  637.9911
 393  1028.897
 394  1940.867
 395  854.9696
 396  -271.8599
 397  -368.8013
 398  -235.2011
 399  -463.739
 400  -188.5226
 401  764.7614
 402  481.7505
 403  165.953
 404  1031.772
 405  -59.59503
 406  -555.5442
 407  -169.8517
 408  2942.95
 409  2832.521
 410  3380.349
 411  2072.836
 412  626.8506
 413  -1520.7
 414  -2990.156
 415  -3370.899
 416  -4304.756
 417  -3877.53
 418  -4340.113
 419  -4050.752
 420  -4673.707
 421  -3020.206
 422  -1704.419
 423  -965.7771
 424  -414.2007
 425  -927.4695
 426  -635.1782
 427  -2230.105
 428  -1249.448
 429  -249.0325
 430  117.5326
 431  -257.9926
 432  -1030.51
 433  -1266.809
 434  -2070.486
 435  -1965.141
 436  -2588.24
 437  -745.6559
 438  -357.6588
 439  -375.2246
 440  -480.675
 441  -1103.717
 442  -2315.289
 443  -1994.256
 444  -2113.986
 445  -3002.02
 446  -3753.398
 447  -4046.926
 448  -4042.383
 449  -4555.019
 450  -4133.108
 451  -3811.983
 452  -4328.533
 453  -3225.662
 454  -2712.562
 455  -2447.739
 456  -2705.75
 457  -2656.486
 458  -3307.371
 459  -3691.41
 460  -2978.613
 461  -2523.989
 462  -2236.705
 463  -2930.585
 464  -2819.956
 465  -2393.004
 466  -2412.468
 467  -606.1349
 468  1048.95
 469  3984.75
 470  5497.899
 471  4926.83
 472  2725.104
 473  -804.2498
 474  -761.5123
 475  -208.7076
 476  1555.464
 477  2608.372
 478  1906.333
 479  431.0389
 480  2457.882
 481  1138.977
 482  333.4878
 483  576.5979
 484  2425.964
 485  1288.297
 486  772.2852
 487  566.5981
 488  -2098.45
 489  -2329.93
 490  -2512.054
 491  -1138.062
 492  -1760.739
 493  -2922.91
 494  -2992.495
 495  -4321.161
 496  -3047.726
 497  -2362.794
 498  -785.0104
 499  -1662.322
 500  -3192.363
 501  -3453.279
 502  -4306.574
 503  -4332.511
 504  -4152.912
 505  -3352.278
 506  -3159.296
 507  -3592.727
 508  -3983.849
 509  -4287.713
 510  -4805.396
 511  -4632.814
