# Input file       =  1200772773.113199_cleaned.dat
# Candidate        =  PSR_0332+5434
# Telescope        =  AR
# Epoch_topo       =  58141.833242050918
# Epoch_bary       =  N/A
# T_sample         =  0.002
# Data Folded      =  7340032
# Data Avg         =  0.531539587809156
# Data StdDev      =  6.9747992828413  
# Profile Bins     =  1024
# Profile Avg      =  3810.06593248369 
# Profile StdDev   =  590.514699103672 
# Reduced chi-sqr  =  0.569
# Prob(Noise)      <  1   (~0.0 sigma)
# P_topo (ms)      =  714.572349267451  +/- 2.54e-05
# P'_topo (s/s)    =  -0                +/- 1.34e-11
# P''_topo (s/s^2) =  0                 +/- 5.92e-15
# P_bary (ms)      =  N/A
# P'_bary (s/s)    =  N/A
# P''_bary (s/s^2) =  N/A
# P_orb (s)        =  N/A
# asin(i)/c (s)    =  N/A
# eccentricity     =  N/A
# w (rad)          =  N/A
# T_peri           =  N/A
######################################################
   0  4138.523
   1  4220.973
   2  4092.247
   3  3839.228
   4  3735.407
   5  3914.678
   6  3901.911
   7  3802.33
   8  3744.028
   9  3831.101
  10  3863.604
  11  3693.069
  12  3611.324
  13  3644.344
  14  3864.733
  15  3882.73
  16  3945.449
  17  3799.921
  18  3654.828
  19  3723.938
  20  3576.39
  21  3664.456
  22  3705.519
  23  3800.878
  24  3759.929
  25  3613.712
  26  3568.688
  27  3708.206
  28  3686.563
  29  3730.849
  30  3691.681
  31  3690.543
  32  3827.853
  33  4061.365
  34  4035.367
  35  3926.727
  36  3842.216
  37  4175.46
  38  4243.692
  39  3957.965
  40  3675.688
  41  3601.603
  42  3618.875
  43  3720.508
  44  3721.486
  45  3629.023
  46  3480.702
  47  3358.938
  48  3517.495
  49  3618.065
  50  3591.095
  51  3521.486
  52  3414.471
  53  3247.767
  54  3061.587
  55  3050.564
  56  3285.895
  57  3456.304
  58  3600.352
  59  3583.851
  60  3629.963
  61  3624.559
  62  3892.734
  63  3922.705
  64  3905.739
  65  3842.099
  66  3962.299
  67  3969.892
  68  3894.449
  69  3941.549
  70  4125.23
  71  4069.08
  72  3789.107
  73  3661.83
  74  3650.722
  75  3629.838
  76  3709.762
  77  3749.623
  78  3888.195
  79  3908.51
  80  4093.162
  81  4116.608
  82  3954.664
  83  3845.575
  84  3945.825
  85  4086.277
  86  4289.461
  87  4428.475
  88  4388.442
  89  4234.44
  90  4049.23
  91  4013.367
  92  3912.534
  93  3875.378
  94  4113.003
  95  4201.662
  96  3975.726
  97  3972.742
  98  4171.73
  99  4226.337
 100  4159.769
 101  4127.441
 102  4295.461
 103  3934.741
 104  3726.682
 105  3808.358
 106  3903.125
 107  3968.325
 108  3977.341
 109  3982.84
 110  3772.426
 111  3417.79
 112  3431.105
 113  3616.401
 114  3805.027
 115  3762.707
 116  3884.37
 117  3773.848
 118  3698.086
 119  3774.631
 120  3832.034
 121  3894.522
 122  4121.591
 123  4187.492
 124  4247.599
 125  3809.475
 126  3911.564
 127  4030.168
 128  4242.138
 129  4323.499
 130  4406.742
 131  4323.804
 132  4141.164
 133  3749.989
 134  3709.616
 135  3638.949
 136  3852.106
 137  3792.602
 138  3770.039
 139  3502.206
 140  3356.629
 141  3501.58
 142  3678.695
 143  3871.335
 144  3827.268
 145  3737.392
 146  3355.649
 147  3457.618
 148  3565.658
 149  3811.404
 150  3921.304
 151  4211.164
 152  3996.84
 153  3611.579
 154  3498.104
 155  3780.583
 156  4049.91
 157  4066.12
 158  4186.923
 159  4277.518
 160  4035.707
 161  3792.21
 162  3785.572
 163  4093.554
 164  4119.997
 165  4054.281
 166  4002.519
 167  3970.774
 168  3714.814
 169  3700.223
 170  3871.636
 171  4018.367
 172  4217.956
 173  4399.018
 174  4151.894
 175  3807.216
 176  3564.218
 177  3663.633
 178  3836.456
 179  3951.345
 180  4140.142
 181  4304.464
 182  4159.357
 183  3951.672
 184  3862.223
 185  3948.173
 186  3977.754
 187  4000.266
 188  3971.277
 189  3793.602
 190  3515.221
 191  3587.879
 192  3906.171
 193  3993.354
 194  3921.572
 195  3706.291
 196  3805.475
 197  3860.845
 198  3877.763
 199  4130.447
 200  4216.027
 201  4348.493
 202  4218.378
 203  3838.678
 204  3602.403
 205  3768.214
 206  3865.905
 207  3915.078
 208  3822.642
 209  4013.769
 210  3954.878
 211  3728.652
 212  3745.625
 213  4002.318
 214  4336.729
 215  4315.168
 216  4309.56
 217  3912.166
 218  3580.576
 219  3272.539
 220  3428.048
 221  3522.189
 222  3439.503
 223  3440.957
 224  3359.145
 225  3245.974
 226  3298.022
 227  3564.716
 228  3800.133
 229  3926.368
 230  4023.846
 231  4051.313
 232  3950.265
 233  3864.997
 234  3855.996
 235  3706.064
 236  3696.911
 237  3863.427
 238  4049.908
 239  3916.382
 240  3831.057
 241  3735.601
 242  3869.964
 243  3833.693
 244  3739.054
 245  3786.568
 246  3771.395
 247  3554.615
 248  3602.634
 249  3731.167
 250  3906.643
 251  3905.954
 252  3972.217
 253  3930.714
 254  3644.094
 255  3641.457
 256  3963.714
 257  4041.335
 258  3983.828
 259  4014.856
 260  3893.387
 261  3770.128
 262  3711.975
 263  3852.318
 264  3854.348
 265  3663.619
 266  3859.219
 267  4053.315
 268  4100.492
 269  3985.582
 270  3888.883
 271  3950.578
 272  4072.516
 273  3980.658
 274  3798.854
 275  3567.281
 276  3501.506
 277  3649.444
 278  3794.508
 279  3944.668
 280  4040.03
 281  4003.02
 282  3886.604
 283  3815.081
 284  3780.785
 285  3823.651
 286  3886.436
 287  4114.414
 288  4130.157
 289  3862.258
 290  3570.886
 291  3515.385
 292  3715.327
 293  3800.876
 294  3993.814
 295  3934.621
 296  3939.723
 297  3530.561
 298  3464.204
 299  3687.279
 300  3781.908
 301  3919.474
 302  3704.252
 303  3687.983
 304  3744.234
 305  3829.454
 306  3870.873
 307  3678.736
 308  3784.877
 309  3891.856
 310  3842.869
 311  3674.081
 312  3625.485
 313  3744.215
 314  3874.463
 315  3954.972
 316  4050.346
 317  3962.418
 318  3790.753
 319  3644.647
 320  3862.054
 321  3806.797
 322  3988.816
 323  4119.176
 324  4054.915
 325  3985.667
 326  3836.299
 327  3783.976
 328  3791.778
 329  3845.067
 330  3708.012
 331  3461.746
 332  3355.258
 333  3394.591
 334  3563.645
 335  3566.686
 336  3648.754
 337  3777.6
 338  3817.597
 339  3715.876
 340  3404.588
 341  3345.595
 342  3443.186
 343  3509.688
 344  3692.387
 345  3583.318
 346  3500.062
 347  3617.825
 348  3679.705
 349  3726.349
 350  3662.062
 351  3615.512
 352  3712.315
 353  3697.397
 354  3680.954
 355  3543.756
 356  3529.298
 357  3535.3
 358  3867.981
 359  3908.775
 360  3719.607
 361  3496.321
 362  3545.419
 363  3706.543
 364  3582.296
 365  3435.898
 366  3526.708
 367  3678.133
 368  3554.778
 369  3482.759
 370  3552.332
 371  3883.662
 372  3888.657
 373  3821.844
 374  3881.623
 375  3823.55
 376  3838.213
 377  3813.231
 378  3769.481
 379  3815.905
 380  3773.687
 381  3845.642
 382  3783.625
 383  3591.995
 384  3639.245
 385  3929.5
 386  4001.544
 387  4056.295
 388  4172.434
 389  4099.208
 390  3903.814
 391  3592.105
 392  3667.781
 393  3677.781
 394  3930.935
 395  4231.316
 396  4209.928
 397  3854.325
 398  3615.484
 399  3675.446
 400  3818.674
 401  3994.796
 402  4071.873
 403  4053.431
 404  3758.834
 405  3481.385
 406  3660.263
 407  3610.349
 408  3805.938
 409  3771.598
 410  3861.894
 411  3755.671
 412  3606.264
 413  3536.494
 414  3719.139
 415  3908.206
 416  3816.235
 417  3661.218
 418  3391.062
 419  3205.692
 420  3294.625
 421  3555.621
 422  3728.072
 423  3947.612
 424  4014.623
 425  4008.78
 426  3612.504
 427  3572.145
 428  3725.91
 429  3849.059
 430  3986.283
 431  4036.788
 432  3771.554
 433  3467.295
 434  3463.325
 435  3626.156
 436  3578.716
 437  3548.96
 438  3608.46
 439  3671.625
 440  3238.266
 441  3154.266
 442  3325.642
 443  3571.575
 444  3836.898
 445  3772.689
 446  3793.414
 447  3736.111
 448  3687.427
 449  3843.378
 450  3799.667
 451  3891.361
 452  3941.326
 453  4030.065
 454  3971.652
 455  3762.841
 456  3704.028
 457  3843.109
 458  3835.449
 459  3823.09
 460  3886.864
 461  3984.023
 462  3984.476
 463  3949.067
 464  3993.849
 465  3925.981
 466  3782.633
 467  3882.564
 468  3965.017
 469  3858.198
 470  3861.586
 471  3768.073
 472  3668.445
 473  3629.967
 474  3688.879
 475  3473.291
 476  3301.111
 477  3297.181
 478  3571.954
 479  3887.816
 480  4209.284
 481  4194.344
 482  3852.899
 483  3480.941
 484  3497.617
 485  3745.025
 486  4050.813
 487  3825.873
 488  3714.094
 489  3670.749
 490  3627.916
 491  3370.152
 492  3362.416
 493  3351.285
 494  3349.664
 495  3373.716
 496  3402.497
 497  3312.046
 498  3296.397
 499  3645.53
 500  3839.046
 501  3876.775
 502  3566.767
 503  3504.763
 504  3482.716
 505  3517.824
 506  3438.291
 507  3407.993
 508  3606.379
 509  3740.833
 510  3768.318
 511  3446.899
 512  3278.337
 513  3335.167
 514  3520.656
 515  3591.33
 516  3859.815
 517  3929.908
 518  3818.068
 519  3615.717
 520  3591.897
 521  3633.179
 522  3797.185
 523  3913.797
 524  4076.079
 525  4067.573
 526  3822.751
 527  3711.272
 528  3800.572
 529  3956.574
 530  3829.12
 531  3706.531
 532  3600.138
 533  3351.196
 534  3179.888
 535  3446.177
 536  3725.156
 537  3777.007
 538  3857.997
 539  3894.819
 540  3735.844
 541  3352.874
 542  3263.597
 543  3563.42
 544  3762.04
 545  3964.612
 546  3838.04
 547  3683.243
 548  3592.974
 549  3820.349
 550  3941.087
 551  4023.808
 552  3972.273
 553  3956.101
 554  3958.804
 555  3774.17
 556  3846.962
 557  3940.13
 558  4048.707
 559  4061.705
 560  3911.279
 561  3709.24
 562  3423.874
 563  3362.314
 564  3360.637
 565  3479.583
 566  3720.438
 567  3932.856
 568  3861.791
 569  3588.519
 570  3538.603
 571  3622.734
 572  3762.081
 573  3782.147
 574  3764.245
 575  3722.638
 576  3717.03
 577  3749.937
 578  4093.713
 579  3954.687
 580  3987.744
 581  4027.264
 582  4095.01
 583  3970.497
 584  3866.927
 585  3994.956
 586  4009.463
 587  3840.656
 588  3823.33
 589  3770.451
 590  3652.443
 591  3610.828
 592  3551.753
 593  3704.861
 594  3689.907
 595  3738.589
 596  3580.384
 597  3478.149
 598  3303.867
 599  3501.345
 600  3845.434
 601  4062.135
 602  4170.96
 603  4213.111
 604  4137.991
 605  3909.053
 606  3789.634
 607  3808.964
 608  3967.362
 609  3889.204
 610  4127.192
 611  4324.273
 612  4253.704
 613  4392.561
 614  4579.756
 615  4831.156
 616  4816.972
 617  4782.358
 618  4694.494
 619  4482.499
 620  4289.316
 621  4353.361
 622  4286.72
 623  4039.925
 624  3936.484
 625  3848.734
 626  3898.846
 627  3863.573
 628  3958.266
 629  4009.277
 630  4098.501
 631  4279.204
 632  4191.52
 633  3797.623
 634  3640.979
 635  3992.28
 636  4136.684
 637  4045.301
 638  3940.267
 639  3910.17
 640  3911.101
 641  3682.464
 642  3769.988
 643  3878.722
 644  4000.63
 645  3894.734
 646  3647.297
 647  3497.278
 648  3669.583
 649  3808.21
 650  3899.359
 651  3882.228
 652  3933.275
 653  4043.134
 654  3966.952
 655  3850.336
 656  3743.827
 657  3835.4
 658  3955.951
 659  3888.832
 660  3851.451
 661  3847.846
 662  3675.32
 663  3630.485
 664  3805.974
 665  3853.872
 666  3814.482
 667  3699.487
 668  3746.702
 669  3733.429
 670  3605.833
 671  3654.998
 672  3735.319
 673  3788.923
 674  3807.69
 675  4014.283
 676  3901.386
 677  3625.507
 678  3487.172
 679  3805.573
 680  4052.368
 681  3958.018
 682  3902.459
 683  3734.914
 684  3670.753
 685  3872.744
 686  4233.854
 687  4219.813
 688  4049.2
 689  3984.312
 690  3865.917
 691  3945.565
 692  3975.396
 693  4016.049
 694  3728.665
 695  3451.36
 696  3612.093
 697  3711.518
 698  3670.401
 699  3719.431
 700  3953.377
 701  4185.245
 702  4110.076
 703  3854.425
 704  3528.792
 705  3677.847
 706  3714.195
 707  3835.042
 708  3725.072
 709  3886.056
 710  4193.367
 711  4245.411
 712  4031.388
 713  3898.21
 714  3673.036
 715  3794.542
 716  3754.449
 717  3964.3
 718  3893.565
 719  3576.96
 720  3393.45
 721  3370.409
 722  3601.105
 723  3882.044
 724  4063.452
 725  4079.315
 726  4017.783
 727  3736.308
 728  3806.076
 729  3807.346
 730  3993.953
 731  4139.009
 732  4075.117
 733  3968.463
 734  3752.611
 735  3656.629
 736  3709.475
 737  3780.3
 738  3973.25
 739  4109.794
 740  4105.565
 741  4064.275
 742  4125.813
 743  3971.959
 744  4050.351
 745  4122.804
 746  4408.226
 747  4312.368
 748  4019.057
 749  3850.753
 750  3981.505
 751  3977.347
 752  3979.315
 753  3907.715
 754  3828.758
 755  3652.672
 756  3472.673
 757  3624.902
 758  3831.133
 759  3846.349
 760  3839.657
 761  3816.846
 762  3795.956
 763  3517.164
 764  3418.028
 765  3442.892
 766  3741.794
 767  3964.525
 768  3952.097
 769  3898.425
 770  3759.614
 771  3824.887
 772  3856.276
 773  3857.668
 774  3961.576
 775  4095.924
 776  4119.521
 777  3890.553
 778  3609.249
 779  3431.677
 780  3454.119
 781  3640.358
 782  3931.822
 783  3834.015
 784  3521.962
 785  3595.01
 786  4014.022
 787  4367.667
 788  4474.211
 789  4252.259
 790  3893.46
 791  3546.505
 792  3358.632
 793  3494.9
 794  3610.553
 795  3781.892
 796  3724.542
 797  3567.057
 798  3468.501
 799  3633.89
 800  3803.361
 801  3868.966
 802  4046.485
 803  4451.945
 804  4488.663
 805  4031.91
 806  3784.351
 807  3905.353
 808  4077.939
 809  4145.751
 810  4083.644
 811  4122.491
 812  4176.803
 813  4007.351
 814  4051.527
 815  3960.125
 816  4126.312
 817  4296.584
 818  4372.888
 819  4227.102
 820  4083.235
 821  3951.746
 822  4089.282
 823  4079.167
 824  4169.185
 825  3902.643
 826  3551.582
 827  3257.669
 828  3370.938
 829  3639.629
 830  3818.241
 831  3855.669
 832  3886.597
 833  3931.427
 834  3724.798
 835  3677.221
 836  4036.961
 837  4293.768
 838  4354.754
 839  4422.077
 840  4344.404
 841  4210.454
 842  3935.293
 843  3923.306
 844  3992.601
 845  3925.42
 846  4024.536
 847  4056.947
 848  3862.853
 849  3709.761
 850  3712.198
 851  3792.104
 852  3840.089
 853  4133.002
 854  4121.98
 855  3965.359
 856  3583.074
 857  3892.657
 858  4294.952
 859  4334.754
 860  4135.013
 861  3957.271
 862  3811.437
 863  3549.572
 864  3645.394
 865  3817.205
 866  3822.122
 867  3766.077
 868  3803.854
 869  3850.865
 870  3552.728
 871  3504.615
 872  3621.76
 873  3752.424
 874  3725.291
 875  3721.566
 876  3662.969
 877  3574.055
 878  3470.377
 879  3624.397
 880  3656.92
 881  3586.027
 882  3817.265
 883  3898.947
 884  3897.762
 885  3614.785
 886  3595.432
 887  3693.869
 888  3711.378
 889  3753.875
 890  3718.984
 891  3722.862
 892  3710.415
 893  3747.351
 894  3749.934
 895  3759.573
 896  3848.276
 897  3940.016
 898  3859.931
 899  3593.893
 900  3746.302
 901  4003.773
 902  4126.094
 903  4128.759
 904  3798.463
 905  3414.182
 906  3327.359
 907  3514.167
 908  3782.007
 909  3679.813
 910  3607.684
 911  3627.39
 912  3619.253
 913  3418.518
 914  3578.252
 915  3728.772
 916  3839.901
 917  3791.256
 918  3832.435
 919  3808.78
 920  3676.304
 921  3672.584
 922  3802.871
 923  3959.24
 924  4068.532
 925  4005.364
 926  3778.737
 927  3690.195
 928  3626.213
 929  3705.32
 930  3719.038
 931  3694.439
 932  3739.147
 933  3768.329
 934  3511.196
 935  3503.93
 936  3586.955
 937  3646.511
 938  3790.471
 939  3892.299
 940  3913.889
 941  3648.844
 942  3511.218
 943  3394.39
 944  3479.98
 945  3631.893
 946  3860.151
 947  3954.314
 948  3566.168
 949  3558.671
 950  3555.755
 951  3902.929
 952  4106.655
 953  3948.941
 954  3739.306
 955  3530.587
 956  3600.846
 957  3686.27
 958  3560.411
 959  3535.113
 960  3735.248
 961  3888.401
 962  3829.303
 963  3504.056
 964  3303.959
 965  3415.29
 966  3426.247
 967  3547.315
 968  3727.101
 969  3880.883
 970  3885.827
 971  3776.498
 972  3744.784
 973  3681.449
 974  3758.168
 975  3803.014
 976  3764.947
 977  3525.647
 978  3597.316
 979  3834.197
 980  4070.327
 981  4149.938
 982  4231.778
 983  4138.709
 984  4043.552
 985  3740.374
 986  3698.253
 987  3734.697
 988  3780.9
 989  3725.366
 990  3582.819
 991  3397.811
 992  3371.676
 993  3406.127
 994  3664.101
 995  3828.146
 996  3964.849
 997  3954.255
 998  3762.405
 999  3604.885
1000  3576.357
1001  3621.45
1002  3499.799
1003  3555.741
1004  3750.385
1005  3868.373
1006  3752.024
1007  3658.943
1008  3949.578
1009  4187.749
1010  4327.414
1011  4152.461
1012  3937.38
1013  3652.401
1014  3715.588
1015  3870.767
1016  3968.355
1017  3819.02
1018  3652.067
1019  3571.138
1020  3306.78
1021  3230.785
1022  3464.377
1023  3721.295
