# Input file       =  1200255831.105539_cleaned.dat
# Candidate        =  PSR_0332+5434
# Telescope        =  AR
# Epoch_topo       =  58135.850116962261
# Epoch_bary       =  N/A
# T_sample         =  0.002
# Data Folded      =  7340032
# Data Avg         =  0.0190239311996864
# Data StdDev      =  1.00005499883132 
# Profile Bins     =  512
# Profile Avg      =  272.667877553479 
# Profile StdDev   =  119.739621553837 
# Reduced chi-sqr  =  1.001
# Prob(Noise)      <  0.485   (~0.0 sigma)
# P_topo (ms)      =  714.568802721472  +/- 6.77e-05
# P'_topo (s/s)    =  -0                +/- 3.57e-11
# P''_topo (s/s^2) =  0                 +/- 1.58e-14
# P_bary (ms)      =  N/A
# P'_bary (s/s)    =  N/A
# P''_bary (s/s^2) =  N/A
# P_orb (s)        =  N/A
# asin(i)/c (s)    =  N/A
# eccentricity     =  N/A
# w (rad)          =  N/A
# T_peri           =  N/A
######################################################
   0  306.5096
   1  286.8097
   2  188.5577
   3  221.9204
   4  362.2969
   5  306.7065
   6  202.7125
   7  224.7025
   8  376.0928
   9  377.7181
  10  289.4684
  11  401.728
  12  372.3322
  13  384.6084
  14  437.8301
  15  265.8895
  16  181.5523
  17  313.0188
  18  328.0325
  19  312.1882
  20  317.6001
  21  272.0758
  22  260.5742
  23  163.4895
  24  160.2921
  25  329.078
  26  311.6048
  27  284.4084
  28  206.622
  29  334.9807
  30  368.8604
  31  239.3827
  32  324.8376
  33  313.23
  34  361.87
  35  354.1074
  36  305.3752
  37  349.9934
  38  289.714
  39  344.5625
  40  186.7287
  41  201.6276
  42  192.8566
  43  183.2666
  44  260.7304
  45  253.8334
  46  153.0052
  47  283.7741
  48  326.8949
  49  225.0311
  50  158.2288
  51  243.1995
  52  262.2678
  53  234.0398
  54  286.6854
  55  377.3437
  56  352.0319
  57  337.2409
  58  336.0998
  59  250.1845
  60  208.6237
  61  206.3525
  62  258.0298
  63  309.0277
  64  223.3338
  65  236.2513
  66  215.8813
  67  152.226
  68  287.8742
  69  266.83
  70  306.4123
  71  264.4643
  72  304.2828
  73  231.0176
  74  123.0502
  75  96.99422
  76  204.6825
  77  279.3419
  78  347.4817
  79  335.9586
  80  352.7784
  81  319.0479
  82  227.3742
  83  216.125
  84  133.415
  85  69.39552
  86  148.62
  87  328.0639
  88  326.1041
  89  293.8152
  90  351.8734
  91  231.4114
  92  186.1582
  93  249.5358
  94  306.77
  95  290.7547
  96  143.0432
  97  188.6468
  98  326.7173
  99  224.2549
 100  106.7902
 101  208.3159
 102  236.6443
 103  252.1484
 104  203.7993
 105  263.2439
 106  193.9574
 107  220.4198
 108  304.0464
 109  267.8819
 110  242.8492
 111  320.3824
 112  260.8486
 113  218.5732
 114  223.3272
 115  204.1461
 116  211.3718
 117  245.5868
 118  299.6691
 119  215.5405
 120  234.8025
 121  295.6471
 122  336.8476
 123  234.3069
 124  190.6763
 125  176.7865
 126  213.292
 127  317.1218
 128  263.6873
 129  257.5226
 130  340.6145
 131  413.79
 132  298.8331
 133  282.9914
 134  296.2835
 135  181.2484
 136  166.2088
 137  273.7672
 138  267.3513
 139  258.381
 140  262.1896
 141  361.3245
 142  269.5941
 143  304.4885
 144  402.3749
 145  313.1929
 146  251.1712
 147  382.0846
 148  409.7084
 149  233.7594
 150  308.5332
 151  344.4669
 152  364.9622
 153  286.0323
 154  241.6371
 155  164.3931
 156  99.9502
 157  93.61112
 158  133.9656
 159  168.2577
 160  163.2663
 161  231.1999
 162  196.7665
 163  120.4714
 164  218.8801
 165  304.728
 166  307.3065
 167  301.3415
 168  300.0274
 169  240.6176
 170  138.0979
 171  116.8841
 172  196.9608
 173  244.0578
 174  157.0967
 175  203.0601
 176  273.4333
 177  217.8801
 178  123.4705
 179  160.5136
 180  230.5584
 181  249.3391
 182  226.7345
 183  214.8663
 184  230.0855
 185  309.657
 186  244.1207
 187  216.0021
 188  240.3713
 189  263.7536
 190  137.1968
 191  159.1194
 192  301.3828
 193  293.2515
 194  172.4756
 195  126.8547
 196  164.1845
 197  207.323
 198  156.4091
 199  188.2858
 200  169.8549
 201  345.1815
 202  334.3763
 203  395.3881
 204  277.1414
 205  217.8667
 206  264.1396
 207  268.2633
 208  354.1821
 209  216.8436
 210  236.4245
 211  280.9567
 212  350.3484
 213  212.579
 214  214.0051
 215  338.5043
 216  280.2204
 217  253.9207
 218  342.0445
 219  271.2542
 220  193.0984
 221  116.7313
 222  110.4304
 223  107.4183
 224  69.12226
 225  150.2724
 226  191.7682
 227  266.8952
 228  241.9247
 229  259.6215
 230  282.8836
 231  264.6496
 232  260.1391
 233  305.1835
 234  319.5349
 235  349.8982
 236  335.4814
 237  382.4959
 238  273.2281
 239  260.2719
 240  186.69
 241  205.7076
 242  225.9268
 243  232.1099
 244  370.2051
 245  396.4982
 246  250.3344
 247  311.2858
 248  300.4234
 249  288.3813
 250  335.8299
 251  317.0692
 252  237.6627
 253  135.9816
 254  234.2781
 255  306.4968
 256  284.5823
 257  171.6144
 258  245.6698
 259  194.8576
 260  249.4684
 261  201.2511
 262  280.8849
 263  413.1483
 264  316.2174
 265  194.0303
 266  290.504
 267  213.8836
 268  285.9401
 269  350.1631
 270  397.7926
 271  264.4572
 272  250.7679
 273  266.9035
 274  176.3922
 275  218.8666
 276  279.9747
 277  282.5182
 278  332.5872
 279  270.7503
 280  349.5414
 281  359.4432
 282  272.6656
 283  173.3712
 284  272.0117
 285  286.399
 286  283.7985
 287  300.6362
 288  206.2943
 289  323.5127
 290  361.5601
 291  458.528
 292  386.542
 293  456.6377
 294  373.5471
 295  518.108
 296  655.9318
 297  881.2396
 298  723.6693
 299  543.3459
 300  401.2134
 301  391.7103
 302  390.2259
 303  236.1692
 304  309.2723
 305  324.6181
 306  272.535
 307  281.5612
 308  194.6759
 309  386.2595
 310  350.0486
 311  443.628
 312  452.7731
 313  326.3104
 314  418.0504
 315  418.0695
 316  295.7751
 317  322.6625
 318  283.1383
 319  318.0283
 320  279.9831
 321  260.81
 322  197.4587
 323  190.0621
 324  175.5228
 325  317.7715
 326  398.1933
 327  285.8262
 328  254.7547
 329  337.015
 330  235.9517
 331  177.6371
 332  242.0296
 333  283.9118
 334  292.3844
 335  229.2929
 336  279.4444
 337  243.9918
 338  193.8764
 339  266.5223
 340  295.4381
 341  303.934
 342  188.1974
 343  165.278
 344  249.6348
 345  296.8173
 346  291.6558
 347  366.0817
 348  483.3448
 349  378.7996
 350  293.23
 351  212.2342
 352  184.4328
 353  171.6283
 354  204.6111
 355  240.7379
 356  281.808
 357  315.5113
 358  338.3861
 359  332.3739
 360  203.2103
 361  96.99398
 362  230.0237
 363  215.1174
 364  272.7061
 365  284.0392
 366  345.3218
 367  314.0043
 368  167.1219
 369  168.5217
 370  204.0547
 371  208.6052
 372  240.5677
 373  222.0572
 374  212.4424
 375  150.3153
 376  138.6732
 377  205.2756
 378  182.843
 379  108.5575
 380  328.5887
 381  392.0064
 382  311.7389
 383  267.3241
 384  191.055
 385  205.2431
 386  180.536
 387  331.3209
 388  308.3304
 389  212.4193
 390  311.4826
 391  330.4759
 392  323.5652
 393  216.0778
 394  190.2128
 395  288.2165
 396  251.1053
 397  200.3433
 398  211.4752
 399  247.1517
 400  162.7098
 401  263.3242
 402  297.8484
 403  163.6306
 404  146.1851
 405  238.3945
 406  211.246
 407  155.6243
 408  165.2547
 409  238.8204
 410  249.2122
 411  208.1066
 412  247.8425
 413  239.3386
 414  237.3459
 415  232.6696
 416  380.1754
 417  410.4218
 418  186.7454
 419  209.709
 420  265.0271
 421  290.8195
 422  433.333
 423  445.866
 424  387.8064
 425  272.9379
 426  240.8128
 427  325.939
 428  167.8913
 429  176.7788
 430  325.6145
 431  359.7063
 432  337.1456
 433  270.205
 434  336.4373
 435  434.6051
 436  444.4656
 437  380.0542
 438  378.0263
 439  327.3938
 440  316.8558
 441  359.0729
 442  256.3248
 443  229.9245
 444  286.6703
 445  272.045
 446  272.4585
 447  361.9511
 448  372.6561
 449  298.8867
 450  314.1118
 451  272.3766
 452  371.7445
 453  197.241
 454  226.155
 455  346.2382
 456  244.1044
 457  178.667
 458  130.8385
 459  222.4317
 460  147.7031
 461  198.9727
 462  203.7749
 463  345.4321
 464  299.3478
 465  240.1211
 466  283.145
 467  353.4619
 468  369.353
 469  406.7284
 470  352.7743
 471  127.4351
 472  94.52515
 473  360.2127
 474  496.2616
 475  292.5613
 476  313.1584
 477  336.864
 478  290.0981
 479  260.9904
 480  283.716
 481  313.9803
 482  340.5918
 483  267.2801
 484  342.4163
 485  305.5391
 486  327.5546
 487  418.2954
 488  339.3762
 489  297.1859
 490  348.3231
 491  237.2805
 492  224.6187
 493  212.6751
 494  267.1595
 495  278.0917
 496  206.3125
 497  278.0335
 498  319.24
 499  252.0069
 500  257.375
 501  252.2693
 502  343.8441
 503  420.8749
 504  347.6347
 505  352.6965
 506  367.5678
 507  256.1664
 508  421.4382
 509  399.1433
 510  316.8547
 511  265.5528
