# Input file       =  1200226254.109845_cleaned.dat
# Candidate        =  PSR_0332+5434
# Telescope        =  AR
# Epoch_topo       =  58135.507790623204
# Epoch_bary       =  N/A
# T_sample         =  0.002
# Data Folded      =  7208960
# Data Avg         =  0.016994952684631
# Data StdDev      =  0.999997426434775
# Profile Bins     =  512
# Profile Avg      =  239.29290691763  
# Profile StdDev   =  118.658870416402 
# Reduced chi-sqr  =  1.456
# Prob(Noise)      <  6.67e-11   (~6.4 sigma)
# P_topo (ms)      =  714.568231172983  +/- 0.000197
# P'_topo (s/s)    =  -0                +/- 1.06e-10
# P''_topo (s/s^2) =  0                 +/- 4.75e-14
# P_bary (ms)      =  N/A
# P'_bary (s/s)    =  N/A
# P''_bary (s/s^2) =  N/A
# P_orb (s)        =  N/A
# asin(i)/c (s)    =  N/A
# eccentricity     =  N/A
# w (rad)          =  N/A
# T_peri           =  N/A
######################################################
   0  494.9269
   1  274.2921
   2  203.1315
   3  346.6262
   4  354.3379
   5  359.5393
   6  286.8303
   7  309.1651
   8  382.8885
   9  245.079
  10  230.7788
  11  325.138
  12  274.5805
  13  318.7924
  14  176.4318
  15  348.8537
  16  323.7094
  17  175.5328
  18  278.7302
  19  252.4141
  20  279.2182
  21  307.1658
  22  297.644
  23  192.5404
  24  346.0119
  25  275.4839
  26  178.955
  27  300.0239
  28  278.6826
  29  122.9308
  30  142.0898
  31  304.4141
  32  371.6333
  33  249.9299
  34  336.8413
  35  289.7833
  36  138.9846
  37  194.3508
  38  139.2275
  39  164.1163
  40  206.5109
  41  371.9268
  42  403.7496
  43  331.9741
  44  218.6946
  45  363.0575
  46  284.7097
  47  203.5714
  48  200.2445
  49  157.8721
  50  175.3558
  51  212.0969
  52  259.7022
  53  295.2127
  54  275.8657
  55  320.5481
  56  212.58
  57  328.4625
  58  335.7743
  59  349.9927
  60  322.728
  61  266.431
  62  221.4691
  63  237.136
  64  222.2984
  65  258.7224
  66  64.30668
  67  222.1031
  68  375.946
  69  299.2302
  70  168.1315
  71  166.6824
  72  287.2871
  73  381.7486
  74  309.226
  75  188.8628
  76  101.6476
  77  140.4525
  78  183.4146
  79  145.5827
  80  176.9662
  81  338.2723
  82  376.9005
  83  71.05582
  84  169.4944
  85  328.1691
  86  340.5257
  87  268.4427
  88  157.209
  89  179.4499
  90  238.8809
  91  205.6464
  92  161.6302
  93  183.4365
  94  301.0434
  95  438.5609
  96  209.1407
  97  288.9433
  98  315.0633
  99  307.8548
 100  199.9349
 101  138.5892
 102  51.4262
 103  108.7214
 104  117.6516
 105  144.0513
 106  242.1146
 107  109.851
 108  172.7827
 109  54.20891
 110  27.73763
 111  147.4745
 112  56.74245
 113  186.1875
 114  108.458
 115  -52.80207
 116  22.80986
 117  202.239
 118  219.4657
 119  106.8758
 120  121.2921
 121  140.6236
 122  119.0668
 123  35.58648
 124  220.9509
 125  89.45984
 126  178.8269
 127  321.5845
 128  313.656
 129  167.5322
 130  179.7563
 131  235.2575
 132  252.2813
 133  278.5658
 134  282.172
 135  263.8261
 136  301.799
 137  277.6893
 138  160.6507
 139  133.4897
 140  168.2269
 141  117.0564
 142  210.6198
 143  279.3749
 144  301.5394
 145  245.963
 146  301.2049
 147  343.627
 148  367.9527
 149  348.8007
 150  171.6673
 151  158.9797
 152  94.11648
 153  55.22404
 154  229.4092
 155  189.617
 156  204.4111
 157  171.4276
 158  180.8465
 159  215.4439
 160  230.9219
 161  139.7635
 162  124.0111
 163  116.4873
 164  206.2407
 165  334.5765
 166  204.7029
 167  141.3165
 168  185.0618
 169  116.5732
 170  255.2697
 171  204.6437
 172  290.175
 173  246.6947
 174  127.3162
 175  139.1984
 176  169.9249
 177  300.262
 178  332.6066
 179  195.9619
 180  182.2856
 181  253.0132
 182  441.976
 183  351.9506
 184  192.9204
 185  230.8213
 186  198.2932
 187  47.03304
 188  138.8031
 189  200.8367
 190  160.5685
 191  216.9056
 192  172.4112
 193  229.5374
 194  288.1811
 195  303.262
 196  165.521
 197  139.9369
 198  152.8801
 199  183.3007
 200  311.4461
 201  285.4992
 202  198.0901
 203  105.0472
 204  191.5901
 205  385.2138
 206  350.3355
 207  208.3655
 208  372.6656
 209  122.4855
 210  147.2115
 211  305.1471
 212  248.4667
 213  199.9589
 214  160.7696
 215  314.283
 216  404.8437
 217  278.4859
 218  254.4299
 219  311.3831
 220  270.2867
 221  357.4924
 222  199.7831
 223  250.9425
 224  193.9077
 225  197.0795
 226  321.1269
 227  311.2037
 228  249.9283
 229  403.3978
 230  291.7241
 231  265.3213
 232  276.2611
 233  334.5672
 234  155.6867
 235  186.2076
 236  214.1314
 237  305.6931
 238  319.885
 239  147.6204
 240  207.8141
 241  320.8899
 242  146.92
 243  136.1615
 244  120.2655
 245  216.1561
 246  247.3
 247  90.67397
 248  175.9682
 249  261.8824
 250  249.9187
 251  267.7039
 252  241.9533
 253  178.6214
 254  194.2422
 255  204.4219
 256  173.4171
 257  267.8316
 258  88.99649
 259  79.09273
 260  155.7712
 261  252.1964
 262  237.1624
 263  188.3457
 264  190.5631
 265  357.0899
 266  234.0793
 267  280.3675
 268  222.4366
 269  185.7883
 270  125.6106
 271  231.0234
 272  264.2777
 273  244.394
 274  156.4213
 275  220.0196
 276  293.0947
 277  214.714
 278  119.6169
 279  166.8329
 280  163.7625
 281  199.4478
 282  122.1792
 283  129.4713
 284  269.3891
 285  197.9182
 286  63.41626
 287  47.35264
 288  142.2635
 289  202.6
 290  213.4558
 291  263.7909
 292  244.0963
 293  238.2831
 294  323.0437
 295  165.3599
 296  208.0769
 297  249.1415
 298  277.455
 299  389.0614
 300  101.7034
 301  29.26212
 302  140.0392
 303  181.3496
 304  384.306
 305  207.9461
 306  31.29958
 307  227.4255
 308  304.3829
 309  236.1242
 310  334.2522
 311  361.5674
 312  273.1649
 313  290.5137
 314  372.3481
 315  227.8679
 316  184.5233
 317  284.5511
 318  296.8867
 319  205.7337
 320  119.6164
 321  65.62511
 322  104.1598
 323  270.8729
 324  289.5543
 325  272.1909
 326  159.6812
 327  148.6707
 328  272.3396
 329  327.52
 330  366.3651
 331  287.2729
 332  244.1987
 333  182.8413
 334  139.2357
 335  232.5759
 336  278.7248
 337  354.578
 338  236.6048
 339  209.9427
 340  200.4265
 341  137.3499
 342  191.4503
 343  180.7503
 344  140.6858
 345  199.8888
 346  261.4765
 347  208.5742
 348  249.3774
 349  308.7296
 350  210.608
 351  223.7146
 352  153.1497
 353  220.9401
 354  197.1597
 355  244.6617
 356  240.4927
 357  281.3155
 358  226.9154
 359  305.0159
 360  223.7256
 361  252.8845
 362  452.8759
 363  397.9323
 364  219.2728
 365  107.2012
 366  293.2875
 367  306.2071
 368  300.2437
 369  283.3249
 370  276.7026
 371  268.936
 372  336.2097
 373  404.2942
 374  358.4877
 375  281.4409
 376  277.1902
 377  216.336
 378  180.0171
 379  243.4208
 380  193.1369
 381  246.8109
 382  273.8081
 383  331.1441
 384  392.7596
 385  222.6825
 386  239.1792
 387  237.5107
 388  222.2379
 389  169.7751
 390  198.5884
 391  131.6921
 392  198.4957
 393  229.9574
 394  235.1922
 395  172.5137
 396  285.7354
 397  275.5163
 398  309.0353
 399  286.6536
 400  137.9841
 401  115.0859
 402  202.1765
 403  303.4178
 404  244.6405
 405  256.3719
 406  191.1877
 407  279.8663
 408  276.6971
 409  191.9211
 410  209.534
 411  237.5907
 412  224.86
 413  218.8533
 414  227.2895
 415  176.5309
 416  133
 417  279.9778
 418  273.647
 419  278.0027
 420  349.0508
 421  191.7496
 422  84.16328
 423  163.5826
 424  213.1772
 425  165.9771
 426  95.54015
 427  235.3989
 428  111.522
 429  221.9748
 430  151.8213
 431  285.6673
 432  218.0299
 433  234.8652
 434  242.5995
 435  157.277
 436  180.9542
 437  276.3029
 438  174.3579
 439  165.4151
 440  223.805
 441  326.1865
 442  181.5773
 443  271.9961
 444  205.3329
 445  112.9144
 446  244.7949
 447  256.1048
 448  254.842
 449  231.4454
 450  216.0584
 451  164.922
 452  287.8127
 453  340.0597
 454  113.5386
 455  -41.63725
 456  170.224
 457  259.6064
 458  306.5866
 459  266.8307
 460  268.1859
 461  336.2295
 462  279.3091
 463  274.1565
 464  157.7723
 465  189.4995
 466  255.489
 467  264.9969
 468  272.8295
 469  305.5584
 470  297.754
 471  352.6161
 472  278.1651
 473  168.7051
 474  58.262
 475  228.2619
 476  319.4796
 477  102.2759
 478  176.9382
 479  209.346
 480  345.2631
 481  381.6581
 482  263.0375
 483  296.4693
 484  243.4273
 485  358.0378
 486  304.342
 487  259.6144
 488  202.49
 489  283.9915
 490  421.0406
 491  502.3033
 492  417.4706
 493  423.0523
 494  522.2776
 495  363.6061
 496  304.5329
 497  229.2987
 498  117.0455
 499  94.72578
 500  295.5828
 501  329.1819
 502  453.4797
 503  385.6245
 504  388.4051
 505  360.2235
 506  428.1623
 507  587.6089
 508  853.3181
 509  972.5691
 510  863.3121
 511  713.3978
