# Input file       =  1200398598.099281-PSRB0329-2ms-sampling-dd.dat
# Candidate        =  PSR_0332+5434
# Telescope        =  AR
# Epoch_topo       =  58137.502512723164
# Epoch_bary       =  N/A
# T_sample         =  0.002
# Data Folded      =  7208960
# Data Avg         =  1.54160299428955e-09
# Data StdDev      =  97.6440470613873 
# Profile Bins     =  512
# Profile Avg      =  -0.00290337841019189
# Profile StdDev   =  11586.3621454489 
# Reduced chi-sqr  =  1.319
# Prob(Noise)      <  1.61e-06   (~4.7 sigma)
# P_topo (ms)      =  714.569489410272  +/- 0.000491
# P'_topo (s/s)    =  -0                +/- 2.64e-10
# P''_topo (s/s^2) =  0                 +/- 1.19e-13
# P_bary (ms)      =  N/A
# P'_bary (s/s)    =  N/A
# P''_bary (s/s^2) =  N/A
# P_orb (s)        =  N/A
# asin(i)/c (s)    =  N/A
# eccentricity     =  N/A
# w (rad)          =  N/A
# T_peri           =  N/A
######################################################
   0  -3340.149
   1  -3953.648
   2  -3909.556
   3  -4273.715
   4  -3920.009
   5  -3413.83
   6  -3125.017
   7  -2935.821
   8  -4049
   9  -3574.545
  10  -3678.198
  11  -3533.415
  12  -2347.464
  13  1165.667
  14  1785.523
  15  983.8119
  16  712.1285
  17  -2089.098
  18  -2400.961
  19  -2889.94
  20  -137.472
  21  -751.3956
  22  -1434.283
  23  -1991.118
  24  -3763.566
  25  -4072.409
  26  -3947.488
  27  -2041.514
  28  -1761.55
  29  -2020.353
  30  -1326.407
  31  -2485.44
  32  -3006.948
  33  -4291.607
  34  -2599.512
  35  -1911.527
  36  -2321.201
  37  -2873.291
  38  -3453.341
  39  -3960.568
  40  -4057.771
  41  -3703.509
  42  -3374.86
  43  -3778.992
  44  -3741.133
  45  -3459.468
  46  -2718.897
  47  -2607.801
  48  -2211.008
  49  -3108.697
  50  -2384.853
  51  -2443.163
  52  -2416.834
  53  -2744.106
  54  -2349.902
  55  -2890.641
  56  -2869.704
  57  -2489.766
  58  -1547.858
  59  -1817.277
  60  -1821.27
  61  -907.1942
  62  817.1667
  63  1852.96
  64  1945.287
  65  1006.779
  66  -386.195
  67  -1615.082
  68  -1719.858
  69  -2158.243
  70  -1809.669
  71  -2102.471
  72  -2604.24
  73  -3005.07
  74  -3407.494
  75  -3650.761
  76  -3725.927
  77  -3001.956
  78  -2044.139
  79  -2125.523
  80  -2874.844
  81  -1738.054
  82  -1854.691
  83  -1954.447
  84  -1005.208
  85  -138.965
  86  -877.0903
  87  -867.6931
  88  -5.786346
  89  97.52055
  90  -1099.551
  91  -1501.42
  92  -990.3224
  93  -1251.5
  94  -1377.683
  95  -1208.678
  96  -2380.871
  97  -2392.323
  98  -2907.986
  99  -2380.483
 100  -2385.552
 101  -2521.112
 102  -2282.191
 103  -2661.287
 104  -2624.281
 105  -2630.902
 106  -1845.379
 107  -1740.851
 108  -2219.084
 109  -2210.37
 110  -2400.641
 111  -2545.241
 112  -3335.768
 113  -1065.807
 114  479.9764
 115  1427.026
 116  123.3892
 117  196.0728
 118  -689.4406
 119  -3116.58
 120  2.434656
 121  1096.521
 122  2218.857
 123  -247.8293
 124  -852.524
 125  -1891.277
 126  -3517.513
 127  -2236.066
 128  -1285.223
 129  -1244.862
 130  -1500.773
 131  -1794.838
 132  -2813.637
 133  -3455.61
 134  -2841.917
 135  -2034.503
 136  -1442.017
 137  -2240.588
 138  -2373.238
 139  -3552.345
 140  -3247.667
 141  -3257.984
 142  -3080.182
 143  148.8982
 144  1885.273
 145  3141.695
 146  3192.193
 147  1450.548
 148  228.8756
 149  -1543.546
 150  1038.739
 151  2028.424
 152  2269.446
 153  750.619
 154  -793.3189
 155  -2636.424
 156  -520.6702
 157  1501.538
 158  3532.562
 159  4544.399
 160  3179.293
 161  1513.187
 162  -1507.652
 163  -1558.906
 164  -180.8875
 165  1353.77
 166  100.3188
 167  -1191.477
 168  -2421.804
 169  -2778.796
 170  -2983.94
 171  -2117.585
 172  -181.7337
 173  976.7963
 174  1233.149
 175  1187.957
 176  -598.6007
 177  -778.5874
 178  -743.2283
 179  845.0837
 180  -496.1245
 181  -393.9937
 182  -1299.955
 183  -1492.318
 184  -1635.287
 185  -1863.354
 186  -169.8094
 187  797.7376
 188  1353.658
 189  600.7416
 190  1378.857
 191  2077.903
 192  1250.145
 193  1788.405
 194  1348.344
 195  173.9265
 196  -73.26314
 197  -274.1255
 198  -24.52974
 199  -1293.374
 200  -1570.538
 201  -2568.364
 202  -3175.21
 203  -2494.888
 204  -2065.761
 205  -2260.188
 206  -2355.561
 207  -3130.507
 208  -3218.711
 209  -3529.622
 210  -2986.649
 211  -2599.103
 212  -2444.57
 213  -2513.291
 214  -2570.041
 215  -3168.714
 216  -3504.814
 217  -3033.486
 218  -2759.798
 219  -2688.446
 220  -1846.134
 221  -2427.079
 222  -2837.744
 223  -3831.648
 224  -3701.221
 225  -3883.949
 226  -3199.659
 227  -3022.932
 228  -2789.099
 229  -2829.534
 230  -2945.776
 231  -3719.795
 232  -3162.146
 233  -2953.328
 234  -2767.457
 235  -2846.492
 236  -3069.817
 237  -3857.493
 238  -4224.571
 239  -4032.116
 240  -3979.331
 241  -3823.063
 242  -3273.993
 243  -2537.609
 244  -1995.669
 245  -690.379
 246  -514.2365
 247  -723.1904
 248  -2066.871
 249  -1378.599
 250  -400.5978
 251  2.253638
 252  -519.7553
 253  -940.2706
 254  -2080.707
 255  -2459.925
 256  -2783.412
 257  -2551.288
 258  -2173.625
 259  -1380.071
 260  -890.7774
 261  -444.7749
 262  656.2949
 263  1758.165
 264  2105.104
 265  2001.91
 266  543.1413
 267  -607.0629
 268  -2357.252
 269  -1058.434
 270  -297.4685
 271  -27.06117
 272  -1505.538
 273  -2250.788
 274  -2259.378
 275  -2988.012
 276  -2763.629
 277  -2789.524
 278  -2417.796
 279  -1269.956
 280  -1355.658
 281  -1982.252
 282  -2489.696
 283  -3242.277
 284  -3546.342
 285  -3511.005
 286  -3096.61
 287  -2682.895
 288  -1596.486
 289  -1288.264
 290  -802.6205
 291  -421.9121
 292  -358.2047
 293  -980.0385
 294  -1503.196
 295  -2543.401
 296  -2644.221
 297  -2326.604
 298  -2101.476
 299  -1909.688
 300  -1820.167
 301  -2251.894
 302  -2662.133
 303  -3053.869
 304  -1860.346
 305  -2211.908
 306  -1901.246
 307  -2063.489
 308  -2023.567
 309  -3043.867
 310  -3315.758
 311  -3665.295
 312  -3398.148
 313  -3072.933
 314  -3296.707
 315  -2720.898
 316  -1289.316
 317  596.8773
 318  2845.02
 319  4585.18
 320  3336.694
 321  21372.45
 322  49260.94
 323  93174.09
 324  91096.38
 325  82183.32
 326  72406.5
 327  4732.727
 328  22602.12
 329  40911.84
 330  71382.7
 331  56226.8
 332  45316.51
 333  33605.06
 334  3839.816
 335  -1178.006
 336  -1494.604
 337  -2909.099
 338  -3003.754
 339  -3477.012
 340  -3173.597
 341  -1868.965
 342  -2360.272
 343  -2870.551
 344  -2038.28
 345  -2406.128
 346  -2800.383
 347  -1690.501
 348  -2292.416
 349  -2888.461
 350  -3042.604
 351  -3503.74
 352  -3610.854
 353  -1920.078
 354  -1366.804
 355  -1209.915
 356  -1339.175
 357  -1375.28
 358  -2419.639
 359  -2341.522
 360  -195.8274
 361  562.1467
 362  241.5144
 363  -669.5072
 364  -1469.503
 365  -1583.767
 366  -2233.061
 367  -964.0956
 368  -341.6084
 369  -178.5926
 370  138.22
 371  444.274
 372  748.3459
 373  518.1804
 374  1499.975
 375  1755.399
 376  1218.715
 377  1031.401
 378  671.2305
 379  -325.2811
 380  -1401.571
 381  -1041.481
 382  324.8195
 383  802.1018
 384  1039.268
 385  624.0749
 386  304.9761
 387  -557.4282
 388  -899.9749
 389  690.543
 390  2563.634
 391  2250.551
 392  1681.175
 393  837.6096
 394  -698.7222
 395  -957.0452
 396  651.9684
 397  1790.427
 398  1366.678
 399  1182.004
 400  77.95109
 401  -351.1123
 402  -386.0179
 403  3164.076
 404  3325.113
 405  3148.278
 406  1961.4
 407  435.8272
 408  -293.196
 409  -1253.035
 410  2084.871
 411  3473.265
 412  4094.116
 413  3269.275
 414  2238.987
 415  1371.418
 416  -820.8509
 417  1676.802
 418  1163.223
 419  1439.485
 420  460.3943
 421  483.6577
 422  386.0132
 423  -768.579
 424  -479.9002
 425  413.9871
 426  763.5647
 427  323.2552
 428  -248.8924
 429  -648.2097
 430  -2668.232
 431  -1925.502
 432  -991.2916
 433  26.25676
 434  -850.2832
 435  -597.7094
 436  -2123.681
 437  -2776.066
 438  -2650.099
 439  -1001.796
 440  202.5215
 441  9.156103
 442  178.7038
 443  -730.215
 444  -2211.284
 445  -3508.724
 446  -1622.234
 447  -507.4849
 448  -974.4766
 449  -1630.865
 450  -2425.606
 451  -2877.224
 452  -3726.416
 453  -2688.759
 454  -1694.59
 455  -1476.239
 456  -808.7702
 457  -1102.616
 458  -1541.3
 459  -2125.208
 460  -2246.548
 461  -1401.033
 462  -735.2356
 463  -254.1891
 464  -573.4039
 465  -947.0596
 466  -2694.254
 467  -3518.139
 468  -2797.292
 469  -2764.016
 470  -2163.207
 471  -2433.477
 472  -2194.116
 473  -2778.047
 474  -2359.48
 475  -1735.439
 476  -1556.147
 477  -1221.066
 478  -1933.28
 479  -1951.106
 480  -2483.352
 481  -2409.207
 482  -875.1766
 483  -584.5212
 484  -351.9895
 485  -781.4379
 486  -2731.732
 487  -3495.034
 488  -3144.727
 489  -344.1649
 490  -298.5363
 491  -873.3984
 492  -1925.081
 493  -2556.939
 494  -3138.971
 495  -4035.928
 496  -2493.573
 497  -1542.084
 498  -1012.044
 499  -830.2954
 500  -1482.861
 501  -2605.264
 502  -3699.901
 503  -2355.297
 504  -1836.362
 505  -1894.945
 506  -2458.63
 507  -2195.098
 508  -2939.021
 509  -3128.216
 510  -3221.945
 511  -3116.616
