# Input file       =  1200240925.108405_cleaned.dat
# Candidate        =  PSR_0332+5434
# Telescope        =  AR
# Epoch_topo       =  58135.677593847278
# Epoch_bary       =  N/A
# T_sample         =  0.002
# Data Folded      =  7340032
# Data Avg         =  0.0336169167777175
# Data StdDev      =  1.00013404714026 
# Profile Bins     =  512
# Profile Avg      =  482.02287585222  
# Profile StdDev   =  119.749086247887 
# Reduced chi-sqr  =  0.765
# Prob(Noise)      <  1   (~0.0 sigma)
# P_topo (ms)      =  714.568355215535  +/- 0.000105
# P'_topo (s/s)    =  -0                +/- 5.53e-11
# P''_topo (s/s^2) =  0                 +/- 2.44e-14
# P_bary (ms)      =  N/A
# P'_bary (s/s)    =  N/A
# P''_bary (s/s^2) =  N/A
# P_orb (s)        =  N/A
# asin(i)/c (s)    =  N/A
# eccentricity     =  N/A
# w (rad)          =  N/A
# T_peri           =  N/A
######################################################
   0  873.4299
   1  679.3458
   2  556.3156
   3  486.3223
   4  441.6256
   5  347.49
   6  508.5322
   7  609.1566
   8  443.4872
   9  369.2391
  10  390.2615
  11  490.6407
  12  510.8722
  13  607.3255
  14  563.605
  15  465.3554
  16  382.9754
  17  365.1637
  18  452.5673
  19  486.1948
  20  431.9291
  21  387.1657
  22  329.4221
  23  266.6365
  24  361.6204
  25  422.3099
  26  327.551
  27  359.8724
  28  374.7564
  29  377.6583
  30  351.3557
  31  452.5493
  32  558.0374
  33  469.6508
  34  434.0477
  35  490.8193
  36  464.095
  37  421.969
  38  448.3637
  39  472.6292
  40  499.3364
  41  400.4835
  42  429.1029
  43  378.2093
  44  479.8414
  45  525.2073
  46  514.7308
  47  508.7215
  48  434.8074
  49  331.3562
  50  411.1431
  51  335.4913
  52  427.1347
  53  592.4781
  54  552.3696
  55  471.1593
  56  395.8703
  57  432.4407
  58  453.6234
  59  409.4705
  60  522.0645
  61  476.1492
  62  443.8325
  63  406.5486
  64  430.659
  65  415.6676
  66  439.9819
  67  436.9668
  68  460.9447
  69  427.8502
  70  356.058
  71  431.5922
  72  467.1091
  73  453.0613
  74  395.7386
  75  513.8199
  76  481.397
  77  436.2623
  78  458.8995
  79  362.7563
  80  472.7668
  81  571.0659
  82  609.5107
  83  415.653
  84  323.8221
  85  342.3745
  86  402.0482
  87  505.3673
  88  522.0377
  89  548.1702
  90  480.4528
  91  441.1061
  92  464.939
  93  410.7401
  94  446.1497
  95  465.5379
  96  485.8344
  97  456.5192
  98  430.1103
  99  540.9579
 100  533.5253
 101  483.1279
 102  495.6388
 103  577.1135
 104  511.0852
 105  472.1089
 106  544.2386
 107  457.6292
 108  442.0028
 109  501.8708
 110  437.467
 111  484.3228
 112  445.438
 113  429.6928
 114  384.7553
 115  494.9201
 116  498.0742
 117  433.0841
 118  509.6796
 119  547.515
 120  528.2762
 121  504.9469
 122  525.9205
 123  515.2841
 124  491.0709
 125  538.6921
 126  465.1251
 127  511.801
 128  433.8205
 129  450.2882
 130  497.7021
 131  493.1697
 132  419.9254
 133  405.3098
 134  355.5431
 135  559.2332
 136  597.8739
 137  436.8876
 138  317.5728
 139  458.6942
 140  451.2191
 141  551.7106
 142  476.1351
 143  493.3878
 144  542.7482
 145  527.1725
 146  478.7826
 147  411.8125
 148  492.6643
 149  460.1614
 150  503.5436
 151  503.9916
 152  409.3055
 153  422.8198
 154  350.8759
 155  416.5414
 156  456.7224
 157  513.5046
 158  586.6026
 159  598.4474
 160  613.5948
 161  533.4167
 162  521.8337
 163  411.2176
 164  526.2501
 165  563.8026
 166  542.2535
 167  426.3111
 168  397.6814
 169  423.4485
 170  484.7175
 171  502.885
 172  511.2186
 173  576.8418
 174  569.7137
 175  516.9822
 176  537.0731
 177  441.407
 178  525.3739
 179  459.4442
 180  421.23
 181  532.6872
 182  586.8939
 183  564.821
 184  484.1339
 185  488.0702
 186  565.8324
 187  422.0669
 188  381.3256
 189  389.1557
 190  447.1387
 191  460.736
 192  490.2329
 193  486.7974
 194  429.6586
 195  374.0028
 196  406.557
 197  431.0657
 198  504.2121
 199  466.2688
 200  483.9366
 201  476.0833
 202  380.045
 203  410.5483
 204  465.0445
 205  437.2674
 206  507.5686
 207  444.0212
 208  302.592
 209  443.9842
 210  442.605
 211  489.0396
 212  510.0751
 213  463.7946
 214  466.5739
 215  459.4015
 216  442.9101
 217  445.2112
 218  620.6916
 219  576.1418
 220  448.6099
 221  463.0023
 222  502.5544
 223  514.7679
 224  536.774
 225  635.0655
 226  566.0422
 227  410.0891
 228  309.4491
 229  387.5703
 230  440.392
 231  536.2169
 232  565.7048
 233  486.0351
 234  470.4494
 235  412.5025
 236  602.0101
 237  621.3939
 238  569.1649
 239  632.2103
 240  682.2739
 241  505.341
 242  514.6939
 243  538.8755
 244  535.0691
 245  522.5028
 246  625.0777
 247  509.4794
 248  487.9097
 249  578.8097
 250  721.0369
 251  608.1135
 252  506.7127
 253  532.8022
 254  621.7557
 255  608.3044
 256  578.2067
 257  539.3354
 258  531.8806
 259  516.5098
 260  394.2365
 261  402.759
 262  431.8417
 263  434.4771
 264  501.9307
 265  398.7487
 266  366.4093
 267  412.1054
 268  533.8666
 269  348.009
 270  364.2109
 271  370.1847
 272  368.088
 273  423.8516
 274  431.5164
 275  443.4287
 276  453.8922
 277  500.4214
 278  534.2875
 279  569.996
 280  564.5439
 281  536.1095
 282  542.7733
 283  445.7432
 284  485.6884
 285  486.5652
 286  475.4045
 287  506.9165
 288  551.4979
 289  540.9534
 290  510.974
 291  555.3126
 292  468.0825
 293  408.8957
 294  442.3892
 295  436.0196
 296  346.3699
 297  431.5373
 298  548.1921
 299  486.9815
 300  503.468
 301  547.2471
 302  609.6133
 303  452.6372
 304  463.6969
 305  529.7718
 306  501.1262
 307  455.0403
 308  417.5093
 309  483.1886
 310  515.1702
 311  529.8713
 312  585.7783
 313  496.1339
 314  471.4773
 315  545.5439
 316  408.3548
 317  462.6645
 318  428.4891
 319  423.8889
 320  432.1984
 321  474.8777
 322  539.0728
 323  564.7802
 324  505.0675
 325  434.6472
 326  433.9037
 327  472.9066
 328  502.0518
 329  424.2106
 330  447.5631
 331  451.0566
 332  562.6627
 333  424.8755
 334  461.665
 335  515.1039
 336  476.4633
 337  443.9665
 338  436.1911
 339  398.3454
 340  521.3667
 341  566.0992
 342  403.7596
 343  351.455
 344  425.4319
 345  399.1904
 346  425.2978
 347  569.9318
 348  515.0555
 349  494.6514
 350  463.2925
 351  451.3392
 352  444.7707
 353  454.7335
 354  569.9275
 355  460.5613
 356  489.8346
 357  505.4842
 358  443.2344
 359  495.9004
 360  431.5756
 361  419.2184
 362  413.8571
 363  359.4687
 364  455.5828
 365  533.6307
 366  627.2521
 367  513.7891
 368  527.5485
 369  618.0799
 370  553.3511
 371  521.5078
 372  473.5982
 373  595.4016
 374  524.3264
 375  593.191
 376  631.688
 377  623.1738
 378  576.3661
 379  681.4509
 380  628.1458
 381  539.4673
 382  534.0157
 383  598.6675
 384  530.7769
 385  473.5093
 386  427.0863
 387  516.5711
 388  475.8368
 389  475.8269
 390  585.7583
 391  607.4936
 392  528.0461
 393  581.1161
 394  594.7419
 395  558.1301
 396  526.8867
 397  385.2608
 398  434.2574
 399  532.8306
 400  558.7967
 401  520.5496
 402  542.4109
 403  567.9143
 404  492.4925
 405  335.2045
 406  425.2892
 407  567.2924
 408  588.9733
 409  586.0732
 410  500.8805
 411  513.0343
 412  491.7068
 413  412.9163
 414  504.9922
 415  556.4822
 416  555.3511
 417  491.2446
 418  435.4384
 419  463.3839
 420  436.1879
 421  349.7194
 422  458.181
 423  463.941
 424  465.7097
 425  388.8092
 426  360.3466
 427  494.5537
 428  506.8234
 429  559.4028
 430  503.2895
 431  559.9562
 432  580.1354
 433  482.5945
 434  505.9496
 435  534.597
 436  515.0047
 437  524.528
 438  466.7786
 439  448.1992
 440  473.2616
 441  478.8813
 442  445.2967
 443  548.9335
 444  605.7664
 445  514.8228
 446  460.0962
 447  476.1587
 448  468.817
 449  460.4868
 450  447.6958
 451  505.9834
 452  388.6692
 453  419.4566
 454  491.5447
 455  483.0749
 456  402.5232
 457  355.2687
 458  410.1396
 459  441.0011
 460  476.1083
 461  491.8994
 462  532.6425
 463  493.6696
 464  556.241
 465  430.5373
 466  345.6998
 467  422.1018
 468  444.002
 469  478.7154
 470  451.9478
 471  377.776
 472  437.2912
 473  439.5276
 474  485.4546
 475  512.2871
 476  378.9423
 477  331.2248
 478  431.2919
 479  477.509
 480  518.131
 481  456.6131
 482  400.3331
 483  435.9293
 484  353.1515
 485  429.5551
 486  475.2319
 487  326.7313
 488  416.5368
 489  480.2335
 490  526.4952
 491  460.7879
 492  506.1748
 493  503.1032
 494  496.2513
 495  460.6233
 496  446.3657
 497  484.53
 498  522.9761
 499  510.835
 500  521.6147
 501  476.4154
 502  373.9756
 503  448.3786
 504  546.0444
 505  623.0289
 506  591.2394
 507  531.214
 508  573.3032
 509  723.0191
 510  739.3287
 511  835.3807
