# Input file       =  1200169617.116321_cleaned.dat
# Candidate        =  PSR_0332+5434
# Telescope        =  AR
# Epoch_topo       =  58134.852269864830
# Epoch_bary       =  N/A
# T_sample         =  0.002
# Data Folded      =  7340032
# Data Avg         =  1.32548223514979 
# Data StdDev      =  9.9315986167488  
# Profile Bins     =  512
# Profile Avg      =  18998.9853063606 
# Profile StdDev   =  1189.14045845862 
# Reduced chi-sqr  =  0.526
# Prob(Noise)      <  1   (~0.0 sigma)
# P_topo (ms)      =  714.568154074856  +/- 4.93e-05
# P'_topo (s/s)    =  -0                +/- 2.6e-11
# P''_topo (s/s^2) =  0                 +/- 1.15e-14
# P_bary (ms)      =  N/A
# P'_bary (s/s)    =  N/A
# P''_bary (s/s^2) =  N/A
# P_orb (s)        =  N/A
# asin(i)/c (s)    =  N/A
# eccentricity     =  N/A
# w (rad)          =  N/A
# T_peri           =  N/A
######################################################
   0  19159.85
   1  18687.3
   2  18640.33
   3  19036.15
   4  19380.9
   5  18318.17
   6  17631.18
   7  18916.79
   8  19163.28
   9  18883.93
  10  19158.35
  11  19275.38
  12  17939.41
  13  18100.89
  14  19499.04
  15  19942.73
  16  19521.71
  17  19398.16
  18  19796.59
  19  19491.26
  20  19619.81
  21  19095.89
  22  18668.93
  23  18549.43
  24  18317.34
  25  19284.13
  26  18848.64
  27  18448.11
  28  18097.56
  29  18696.47
  30  19366.18
  31  18566
  32  18350.17
  33  18173.62
  34  18136.86
  35  18904.93
  36  19512.76
  37  19643.54
  38  19118.33
  39  18644.71
  40  19773.71
  41  19507.82
  42  18855.65
  43  19682.52
  44  20254.68
  45  19179.31
  46  18539.38
  47  18877.88
  48  19175.92
  49  18324.2
  50  17518.93
  51  18791.97
  52  19424.8
  53  18314.23
  54  19341.22
  55  19536.79
  56  19037.18
  57  19373.59
  58  19847.94
  59  18999.08
  60  18964.89
  61  19500.74
  62  19922
  63  19880.83
  64  18980.3
  65  19302.46
  66  18913.69
  67  18656.02
  68  18787.44
  69  18473.87
  70  18211.65
  71  17334.06
  72  18727.76
  73  19083.93
  74  18227.03
  75  18427.03
  76  19081.47
  77  18701.22
  78  18451.43
  79  18815.68
  80  18986.31
  81  19506.26
  82  19621.04
  83  20136.24
  84  19943.54
  85  19120.79
  86  18308.74
  87  19236.26
  88  19051.79
  89  18615.19
  90  19272.97
  91  20199.6
  92  19365.84
  93  19584.24
  94  19336.92
  95  18910.32
  96  19197.51
  97  19390.35
  98  20257.78
  99  19423.86
 100  19515.29
 101  19173.07
 102  18416.69
 103  18475.61
 104  19775.66
 105  20423.81
 106  19581.65
 107  19147.33
 108  18958.69
 109  18984.85
 110  19078.67
 111  20005.01
 112  19439.27
 113  18752.11
 114  19146.87
 115  19277.96
 116  20164.55
 117  19592.45
 118  19857.98
 119  20505
 120  19347.28
 121  18733.93
 122  18462.52
 123  18690.99
 124  19285.25
 125  19734.55
 126  19956.18
 127  19375.75
 128  19533.11
 129  19415.88
 130  20431.31
 131  19807.95
 132  18865.13
 133  18309.48
 134  19081.7
 135  18714.25
 136  18142.14
 137  18505.12
 138  18521.33
 139  19036.58
 140  19858.94
 141  19970
 142  18426.75
 143  18604.12
 144  19241.57
 145  19484.82
 146  18624.81
 147  18866.66
 148  19879.09
 149  19863.12
 150  20086.88
 151  18941.32
 152  18915.83
 153  19246.96
 154  19335.82
 155  18910.65
 156  18568.51
 157  18854.67
 158  19049.6
 159  18838.04
 160  18243.06
 161  19111.83
 162  19497.93
 163  20305.86
 164  19501.71
 165  18778.11
 166  18912.45
 167  18781.93
 168  18687.84
 169  19537.79
 170  19428.23
 171  19206.19
 172  19360.22
 173  19712.37
 174  19454.43
 175  19343.19
 176  19749.95
 177  20199.49
 178  19618.73
 179  20076.58
 180  20334.77
 181  19189.2
 182  18764.95
 183  18808.1
 184  17974.77
 185  18962.54
 186  19538.75
 187  19229.07
 188  18435.35
 189  18140.33
 190  19050.31
 191  18983.6
 192  19439.2
 193  19581.48
 194  19676.29
 195  19472.5
 196  18571.98
 197  18966.47
 198  19733.89
 199  19537.66
 200  19956.72
 201  19783.09
 202  18826.03
 203  18935.81
 204  19662.63
 205  20597.04
 206  20022.44
 207  19749.41
 208  20197.65
 209  20863.15
 210  20858.97
 211  20547.33
 212  20423.26
 213  20088.57
 214  19195.34
 215  18859.55
 216  19349.77
 217  19419.39
 218  18948.35
 219  19059.04
 220  19324.78
 221  18654.42
 222  18836.92
 223  19438.63
 224  19097.47
 225  18631.37
 226  19700.93
 227  18831.76
 228  18680.09
 229  19015.31
 230  19465.04
 231  19276.55
 232  18857.78
 233  19466.53
 234  19213.71
 235  19001.29
 236  18733.67
 237  19947.23
 238  19995.83
 239  19805.15
 240  19608.94
 241  19558.67
 242  19070.04
 243  19162.81
 244  19760.22
 245  19865.59
 246  19696.24
 247  20095.87
 248  19680.61
 249  19716.02
 250  19490.09
 251  19148.95
 252  19694.41
 253  19209.72
 254  18991.02
 255  19499.72
 256  19209.62
 257  18296.22
 258  19649.78
 259  20111.02
 260  19431.42
 261  19626.57
 262  19194.53
 263  19399.9
 264  19863.01
 265  19814.17
 266  19843.32
 267  19274.65
 268  18491.05
 269  18981.4
 270  19351.25
 271  19282.05
 272  17958.45
 273  18475.05
 274  19199.5
 275  18395.1
 276  19351.14
 277  19037.28
 278  18441.53
 279  18360.88
 280  17846.02
 281  18183.88
 282  18598.94
 283  18963.95
 284  18611.76
 285  18381.25
 286  19088.79
 287  19138.88
 288  18717.59
 289  18201.54
 290  18735.77
 291  18808.29
 292  18301.13
 293  18598.63
 294  19706.29
 295  19123.42
 296  18077.59
 297  18052.72
 298  19250.14
 299  19253.11
 300  18540.24
 301  17813.2
 302  18754.18
 303  18962.16
 304  17904.68
 305  19128.89
 306  19838.41
 307  19209.78
 308  19415.3
 309  19246.52
 310  18193.54
 311  18713.18
 312  18936.31
 313  19176.41
 314  19033.56
 315  18322.1
 316  17869.88
 317  18647.79
 318  17885.34
 319  19184.61
 320  19251.37
 321  18828.8
 322  19257.68
 323  19235.63
 324  18446.9
 325  18841.52
 326  19903.27
 327  19577.93
 328  18618.94
 329  18975.21
 330  19029.48
 331  18682.18
 332  18080.31
 333  18469.5
 334  18554.5
 335  18648.17
 336  19365.85
 337  18958.32
 338  18830.7
 339  18702.23
 340  18624.19
 341  18733.52
 342  18022.73
 343  18905.69
 344  19109.53
 345  18798.83
 346  17409.78
 347  18210.74
 348  18548.14
 349  18548.17
 350  18447.93
 351  18870.75
 352  18897.82
 353  19170.22
 354  19458.54
 355  18865.27
 356  18354.91
 357  18399.96
 358  18505.41
 359  19250.67
 360  19470.34
 361  18079.97
 362  18520.74
 363  18905.8
 364  18366.97
 365  18153.19
 366  17524.37
 367  17353.85
 368  18489.75
 369  19779.62
 370  19193.62
 371  18207.12
 372  19024.52
 373  18951.36
 374  19155.57
 375  19283.24
 376  18601.95
 377  18192.37
 378  18076.72
 379  19040.14
 380  19113.55
 381  18130.37
 382  18108.58
 383  18267.51
 384  18863.89
 385  18810.32
 386  17490.4
 387  17353.11
 388  18727.58
 389  18244.58
 390  18094.24
 391  18568.41
 392  19409.62
 393  18777.14
 394  19212.95
 395  19679.04
 396  18705.54
 397  19118.39
 398  20052.02
 399  19163.86
 400  18073.62
 401  18690.9
 402  19296.21
 403  19186.03
 404  18510.36
 405  18271.41
 406  18157.54
 407  18806.99
 408  19122.44
 409  19191.95
 410  18396.77
 411  17976.91
 412  18056.83
 413  18861.89
 414  17698.28
 415  17314.14
 416  18710.52
 417  19698.59
 418  18514.99
 419  17743.6
 420  17843.21
 421  18606.09
 422  18189.24
 423  18104.52
 424  18887.44
 425  18101.29
 426  18344.82
 427  19437.99
 428  18718.99
 429  18019.04
 430  17982.05
 431  19326.52
 432  18795.88
 433  18512.01
 434  19804.01
 435  19650.45
 436  19148.76
 437  19496.82
 438  19664.34
 439  19102.51
 440  19053.93
 441  19562.57
 442  19455.14
 443  18857.75
 444  19293.56
 445  19460.83
 446  19342.54
 447  18300.28
 448  17860.46
 449  18655.52
 450  18861.14
 451  18824.79
 452  19359.94
 453  19372.47
 454  19922.93
 455  19236.88
 456  18687.41
 457  17370.15
 458  17613.99
 459  18464.63
 460  19571.52
 461  19040.43
 462  17917.62
 463  18387.95
 464  18472.61
 465  18926.86
 466  18551.29
 467  18991.82
 468  19130.14
 469  18417.91
 470  18366.53
 471  18660.16
 472  19035.11
 473  18179.67
 474  19115.16
 475  18959.95
 476  18586.44
 477  18548.17
 478  19638.99
 479  19687
 480  19240.49
 481  18678.03
 482  18562.62
 483  19142.45
 484  19572.38
 485  18698.29
 486  18360.15
 487  19076.3
 488  18733.18
 489  19249.32
 490  18666.51
 491  18793.43
 492  19092.7
 493  18723.97
 494  19345.01
 495  19225.38
 496  18821.04
 497  18941.27
 498  19309.52
 499  18683.79
 500  18518.62
 501  17831.24
 502  18418.84
 503  19286.29
 504  18785.74
 505  19524.74
 506  20600.16
 507  19817.97
 508  18562.44
 509  18324.31
 510  18396.68
 511  18123.47
