# Input file       =  1200240925.108405_cleaned.dat
# Candidate        =  PSR_0332+5434
# Telescope        =  AR
# Epoch_topo       =  58135.677593847278
# Epoch_bary       =  N/A
# T_sample         =  0.002
# Data Folded      =  7340032
# Data Avg         =  0.139240382019904
# Data StdDev      =  3.80371221238855 
# Profile Bins     =  256
# Profile Avg      =  3993.37223948968 
# Profile StdDev   =  644.075300661722 
# Reduced chi-sqr  =  0.693
# Prob(Noise)      <  1   (~0.0 sigma)
# P_topo (ms)      =  714.568356322126  +/- 0.000905
# P'_topo (s/s)    =  -0                +/- 4.78e-10
# P''_topo (s/s^2) =  0                 +/- 2.11e-13
# P_bary (ms)      =  N/A
# P'_bary (s/s)    =  N/A
# P''_bary (s/s^2) =  N/A
# P_orb (s)        =  N/A
# asin(i)/c (s)    =  N/A
# eccentricity     =  N/A
# w (rad)          =  N/A
# T_peri           =  N/A
######################################################
   0  4150.066
   1  4316.937
   2  3910.929
   3  3934.079
   4  4313.904
   5  4220.357
   6  4359.008
   7  4787.822
   8  4486.691
   9  4014.453
  10  4443.706
  11  4781.956
  12  3563.036
  13  3570.904
  14  4235.714
  15  4182.707
  16  4079.375
  17  4857.822
  18  5111.762
  19  4314.573
  20  4448.795
  21  4573.597
  22  4167.928
  23  4874.177
  24  4490.579
  25  4169.618
  26  4637.508
  27  4520.225
  28  4105.348
  29  3655.778
  30  3793.355
  31  3470.395
  32  3539.073
  33  3403.875
  34  3268.047
  35  3749.039
  36  3911.083
  37  4320.492
  38  4990.951
  39  4498.003
  40  3966.215
  41  4213.756
  42  4629.043
  43  4211.4
  44  4199.664
  45  3581.324
  46  3316.121
  47  3616.198
  48  3667.608
  49  4233.945
  50  3679.388
  51  4092.757
  52  3879.536
  53  4296.581
  54  4534.873
  55  4219.695
  56  4279.837
  57  4028.658
  58  3636.913
  59  4366.423
  60  4449.947
  61  3910.641
  62  4287.826
  63  3882.653
  64  4093.207
  65  3723.515
  66  4092.38
  67  3560.658
  68  3878.66
  69  4075.795
  70  3197.776
  71  3340.271
  72  4209.612
  73  4156.653
  74  3822.488
  75  3887.166
  76  3611.81
  77  3952.673
  78  3752.158
  79  3585.832
  80  3553.802
  81  4450.856
  82  4484.22
  83  4405.428
  84  4126.222
  85  4595.53
  86  4604.932
  87  4554.667
  88  5112.847
  89  4361.948
  90  4381.367
  91  4040.276
  92  4116.056
  93  4239.027
  94  4219.192
  95  4363.105
  96  4179.861
  97  3408.798
  98  4201.612
  99  4199.607
 100  4218.367
 101  3135.504
 102  4193.796
 103  4467.153
 104  3984.803
 105  3585.838
 106  4167.016
 107  3617.559
 108  3417.984
 109  3169.132
 110  3640.881
 111  3160.836
 112  3841.206
 113  3970.328
 114  4358.854
 115  3873.151
 116  4081.624
 117  3827.289
 118  3622.725
 119  3699.467
 120  4410.695
 121  4180.61
 122  3844.098
 123  3738.686
 124  4062.329
 125  3775.94
 126  3728.664
 127  3158.554
 128  3774.249
 129  4187.309
 130  4068.884
 131  3489.581
 132  3648.891
 133  4003.021
 134  3605.205
 135  3804.724
 136  4124.539
 137  3350.789
 138  4158.474
 139  3716.258
 140  3580.056
 141  3716.009
 142  3185.015
 143  3923.239
 144  3664.586
 145  4092.219
 146  3856.503
 147  4254.274
 148  4116.594
 149  3564.118
 150  3883.43
 151  4793.361
 152  4454.777
 153  5364.263
 154  6045.554
 155  4737.232
 156  3805.615
 157  3573.47
 158  4270.786
 159  3104.084
 160  3893.56
 161  4381.829
 162  3420.058
 163  3159.105
 164  3693.755
 165  3153.466
 166  2516.236
 167  3212.234
 168  3154.753
 169  3101.327
 170  3966.99
 171  3752.377
 172  3812.852
 173  3855.354
 174  4224.394
 175  3563.362
 176  3732.258
 177  4109.176
 178  4029.014
 179  3150.156
 180  3315.048
 181  4711.704
 182  3765.382
 183  3605.137
 184  3770.911
 185  3942.858
 186  3406.52
 187  3415.276
 188  3692.985
 189  3550.21
 190  3841.025
 191  3611.068
 192  4145.527
 193  3892.892
 194  3415.63
 195  4596.208
 196  3476.417
 197  3263.223
 198  4211.576
 199  4255.65
 200  3755.283
 201  3763.82
 202  3975.668
 203  4158.269
 204  4892.545
 205  4424.781
 206  4703.56
 207  4427.737
 208  3852.822
 209  3917.698
 210  3804.291
 211  3529.325
 212  4125.489
 213  4009.345
 214  4192.114
 215  4160.631
 216  4121.337
 217  4237.189
 218  3767.318
 219  3639.819
 220  3742.32
 221  3167.447
 222  4291.634
 223  3242.305
 224  3755.81
 225  4188.521
 226  4153.25
 227  4139.031
 228  3787.957
 229  3802.051
 230  3697.948
 231  3533.837
 232  3546.807
 233  4447.376
 234  4824.643
 235  4233.579
 236  4051.888
 237  4651.905
 238  3821.354
 239  3956.447
 240  4325.949
 241  4807.013
 242  4544.07
 243  4266.785
 244  4151.036
 245  4908.868
 246  4641.853
 247  4469.192
 248  3706.494
 249  3434.048
 250  4097.264
 251  4047.41
 252  3543.843
 253  4026.84
 254  4263.721
 255  4011.385
