# Input file       =  1200570921.112577_cleaned.dat
# Candidate        =  PSR_0332+5434
# Telescope        =  AR
# Epoch_topo       =  58139.496992043714
# Epoch_bary       =  N/A
# T_sample         =  0.002
# Data Folded      =  7143424
# Data Avg         =  0.0146525164036007
# Data StdDev      =  1.00005661615117 
# Profile Bins     =  512
# Profile Avg      =  204.657183192505 
# Profile StdDev   =  118.125271901502 
# Reduced chi-sqr  =  1.375
# Prob(Noise)      <  3.52e-08   (~5.4 sigma)
# P_topo (ms)      =  714.570683653859  +/- 5.52e-05
# P'_topo (s/s)    =  -0                +/- 2.99e-11
# P''_topo (s/s^2) =  0                 +/- 1.36e-14
# P_bary (ms)      =  N/A
# P'_bary (s/s)    =  N/A
# P''_bary (s/s^2) =  N/A
# P_orb (s)        =  N/A
# asin(i)/c (s)    =  N/A
# eccentricity     =  N/A
# w (rad)          =  N/A
# T_peri           =  N/A
######################################################
   0  239.7999
   1  195.4762
   2  129.3957
   3  175.9773
   4  331.5473
   5  458.3847
   6  260.7018
   7  332.4975
   8  542.1885
   9  489.9866
  10  505.2829
  11  636.3613
  12  677.6176
  13  835.9264
  14  791.1925
  15  526.538
  16  252.4427
  17  131.4712
  18  85.50755
  19  157.5129
  20  213.6421
  21  262.1204
  22  261.2064
  23  296.7791
  24  200.4414
  25  207.3074
  26  118.0953
  27  64.79722
  28  104.2889
  29  216.972
  30  299.8499
  31  392.4946
  32  241.5166
  33  152.4898
  34  93.84682
  35  228.9353
  36  269.595
  37  206.3208
  38  339.9
  39  273.8428
  40  199.8896
  41  245.8157
  42  145.5697
  43  119.6234
  44  27.41879
  45  141.1371
  46  258.1285
  47  285.4167
  48  260.1719
  49  195.5335
  50  210.3819
  51  161.721
  52  196.2296
  53  140.8025
  54  186.7077
  55  233.0104
  56  290.5328
  57  177.6648
  58  44.44144
  59  125.2702
  60  64.95322
  61  111.2532
  62  228.3176
  63  274.432
  64  157.3071
  65  258.8593
  66  152.2917
  67  164.8368
  68  33.31558
  69  66.99198
  70  79.45007
  71  237.8562
  72  327.6895
  73  191.0009
  74  91.08115
  75  127.365
  76  39.93373
  77  112.3564
  78  322.8054
  79  305.3336
  80  280.0016
  81  280.3448
  82  218.0449
  83  191.7931
  84  95.25948
  85  42.43222
  86  91.8335
  87  308.8608
  88  155.6582
  89  149.1102
  90  114.4299
  91  246.1324
  92  97.69849
  93  185.531
  94  193.9102
  95  76.84573
  96  278.6927
  97  275.1881
  98  291.4987
  99  203.5367
 100  116.2969
 101  135.9835
 102  104.5496
 103  227.6935
 104  170.1444
 105  146.8447
 106  199.5556
 107  132.6993
 108  57.53848
 109  175.493
 110  81.96345
 111  171.5755
 112  195.0229
 113  203.4853
 114  291.3148
 115  304.4848
 116  169.6886
 117  73.20297
 118  230.7345
 119  270.7222
 120  304.7901
 121  295.1704
 122  114.6474
 123  135.5672
 124  270.8748
 125  251.1535
 126  174.9193
 127  232.3224
 128  204.5656
 129  331.2578
 130  271.2607
 131  336.6233
 132  195.6905
 133  85.50792
 134  108.3507
 135  161.3766
 136  229.9525
 137  235.5296
 138  224.7202
 139  167.3777
 140  176.4622
 141  232.1737
 142  376.2598
 143  393.9763
 144  350.982
 145  378.2968
 146  187.3562
 147  298.2964
 148  237.0979
 149  123.3147
 150  170.4524
 151  306.0268
 152  209.9215
 153  324.0953
 154  244.5952
 155  235.0955
 156  273.5455
 157  209.7255
 158  227.6182
 159  240.8182
 160  327.8158
 161  406.5438
 162  262.9943
 163  345.9666
 164  433.6883
 165  344.0133
 166  184.6639
 167  163.0925
 168  90.47425
 169  47.33868
 170  192.6519
 171  297.4411
 172  343.3011
 173  233.8573
 174  232.1119
 175  220.5799
 176  217.537
 177  254.5528
 178  415.8129
 179  440.7655
 180  344.1248
 181  181.8302
 182  240.5959
 183  250.3449
 184  58.18736
 185  171.198
 186  337.5307
 187  208.8274
 188  144.0205
 189  128.0079
 190  179.5262
 191  296.6655
 192  243.8636
 193  274.9004
 194  300.4391
 195  144.0618
 196  94.69823
 197  177.8286
 198  270.604
 199  206.0413
 200  133.6682
 201  104.7974
 202  245.3591
 203  248.9288
 204  150.0473
 205  187.6033
 206  160.8788
 207  254.6611
 208  157.231
 209  178.4096
 210  284.0363
 211  215.5952
 212  155.7564
 213  161.4951
 214  222.4038
 215  270.5247
 216  144.6351
 217  81.90424
 218  204.0285
 219  123.101
 220  278.9169
 221  222.7744
 222  159.1142
 223  278.3669
 224  263.3531
 225  170.8276
 226  160.981
 227  244.7993
 228  287.1203
 229  388.4071
 230  455.0234
 231  275.6421
 232  95.54416
 233  116.8077
 234  125.0578
 235  238.7207
 236  167.6059
 237  147.4499
 238  118.6877
 239  110.0583
 240  94.18059
 241  70.89145
 242  114.3132
 243  141.3841
 244  427.8736
 245  445.6859
 246  312.5997
 247  248.1087
 248  206.8128
 249  93.57205
 250  125.5285
 251  136.1838
 252  278.2388
 253  361.5991
 254  293.5802
 255  313.9202
 256  243.9319
 257  242.3469
 258  236.4679
 259  164.1616
 260  118.4103
 261  239.3249
 262  290.1568
 263  400.8462
 264  180.2399
 265  131.6684
 266  179.8588
 267  115.216
 268  95.90898
 269  270.6293
 270  123.1232
 271  32.47014
 272  102.8151
 273  118.7487
 274  172.4586
 275  114.5051
 276  204.0368
 277  94.88682
 278  175.5519
 279  363.3691
 280  174.7108
 281  30.51682
 282  83.62875
 283  106.5983
 284  187.2359
 285  258.813
 286  203.3178
 287  140.1388
 288  226.5158
 289  48.53582
 290  88.38637
 291  141.1852
 292  111.1562
 293  227.7062
 294  238.4967
 295  181.9991
 296  90.53434
 297  -34.96891
 298  122.3604
 299  227.6776
 300  227.6264
 301  192.4452
 302  208.0888
 303  250.6771
 304  160.1242
 305  117.1132
 306  123.961
 307  178.2908
 308  292.9084
 309  105.3968
 310  129.5488
 311  245.9201
 312  180.6351
 313  176.7818
 314  167.2522
 315  165.0989
 316  185.586
 317  178.4094
 318  187.02
 319  290.0374
 320  301.1218
 321  246.1548
 322  235.9604
 323  231.4736
 324  165.5459
 325  226.7816
 326  270.4702
 327  161.5206
 328  195.9609
 329  209.4322
 330  135.2095
 331  227.3642
 332  181.8671
 333  106.6696
 334  194.9181
 335  264.4482
 336  170.2546
 337  175.8195
 338  104.9693
 339  14.32797
 340  109.8594
 341  170.669
 342  150.6445
 343  198.2842
 344  201.7222
 345  295.4209
 346  327.6303
 347  262.0047
 348  108.6565
 349  37.70755
 350  146.5194
 351  201.9032
 352  232.4005
 353  233.406
 354  181.6132
 355  166.0993
 356  232.3685
 357  184.234
 358  123.6218
 359  251.7684
 360  285.1345
 361  254.9191
 362  195.4646
 363  176.1615
 364  224.6543
 365  191.3933
 366  214.2583
 367  176.2513
 368  216.4643
 369  232.8145
 370  181.8869
 371  343.4398
 372  152.8065
 373  144.1293
 374  180.3557
 375  144.3803
 376  120.7302
 377  118.5193
 378  229.6223
 379  232.3338
 380  167.549
 381  170.6238
 382  176.22
 383  134.1846
 384  166.2424
 385  118.851
 386  248.502
 387  249.1902
 388  243.4942
 389  178.9062
 390  122.6116
 391  192.6162
 392  229.4628
 393  256.3001
 394  212.4182
 395  288.52
 396  26.41982
 397  107.2149
 398  159.3841
 399  111.0835
 400  227.3175
 401  133.407
 402  78.07082
 403  160.3553
 404  171.9262
 405  111.5196
 406  24.92333
 407  51.59193
 408  219.1679
 409  399.4943
 410  286.0647
 411  182.8252
 412  143.7939
 413  8.005406
 414  31.84383
 415  238.4081
 416  140.6608
 417  145.4826
 418  184.7829
 419  216.1042
 420  118.8437
 421  50.5982
 422  158.8097
 423  115.4005
 424  186.3206
 425  135.7679
 426  95.69311
 427  192.4259
 428  179.6524
 429  197.9174
 430  187.5825
 431  317.8837
 432  220.0243
 433  113.4212
 434  262.8234
 435  369.0808
 436  267.4602
 437  248.2544
 438  213.5138
 439  221.8723
 440  152.6534
 441  148.4264
 442  224.8208
 443  292.1669
 444  328.1173
 445  348.0659
 446  242.8475
 447  91.75571
 448  131.2357
 449  82.63061
 450  141.9047
 451  113.0651
 452  307.7318
 453  234.7732
 454  176.7001
 455  -5.873041
 456  166.3799
 457  235.8651
 458  165.4309
 459  175.7628
 460  290.3265
 461  206.5903
 462  130.0552
 463  130.3733
 464  24.23667
 465  62.48343
 466  212.611
 467  291.8857
 468  236.874
 469  223.9611
 470  234.8103
 471  213.4098
 472  207.3831
 473  121.127
 474  232.1995
 475  417.5282
 476  308.9208
 477  233.9681
 478  214.8647
 479  243.2673
 480  171.1306
 481  188.3791
 482  241.5976
 483  310.2485
 484  299.9151
 485  237.9413
 486  298.5254
 487  227.6041
 488  58.4404
 489  28.70586
 490  154.016
 491  238.633
 492  167.0029
 493  124.9464
 494  231.7221
 495  241.2297
 496  201.2367
 497  191.8197
 498  98.42864
 499  54.01525
 500  172.9425
 501  188.7267
 502  90.79372
 503  68.34396
 504  184.0206
 505  239.8579
 506  187.7283
 507  158.9724
 508  368.2392
 509  312.9684
 510  250.4213
 511  234.5713
