# Input file       =  1200743205.114184-PSRB0329-2ms-sampling-dd.dat
# Candidate        =  PSR_0332+5434
# Telescope        =  AR
# Epoch_topo       =  58141.491019840090
# Epoch_bary       =  N/A
# T_sample         =  0.002
# Data Folded      =  7208960
# Data Avg         =  -5.80725823089428e-10
# Data StdDev      =  63.2680995913638 
# Profile Bins     =  512
# Profile Avg      =  0.00396414838895875
# Profile StdDev   =  7507.34055153424 
# Reduced chi-sqr  =  1.184
# Prob(Noise)      <  0.00251   (~2.8 sigma)
# P_topo (ms)      =  714.571812690201  +/- 0.000507
# P'_topo (s/s)    =  -0                +/- 2.73e-10
# P''_topo (s/s^2) =  0                 +/- 1.23e-13
# P_bary (ms)      =  N/A
# P'_bary (s/s)    =  N/A
# P''_bary (s/s^2) =  N/A
# P_orb (s)        =  N/A
# asin(i)/c (s)    =  N/A
# eccentricity     =  N/A
# w (rad)          =  N/A
# T_peri           =  N/A
######################################################
   0  273.6487
   1  -888.566
   2  -1530.846
   3  -1735.411
   4  -1856.75
   5  -515.383
   6  525.9558
   7  229.3384
   8  -516.993
   9  -813.2033
  10  634.9829
  11  1397.574
  12  1605.825
  13  1921.595
  14  2033.344
  15  2372.93
  16  1086.98
  17  1101.464
  18  414.6797
  19  -126.7806
  20  1572.885
  21  1635.474
  22  1838.915
  23  1013.571
  24  -756.4171
  25  -1268.448
  26  -1535.49
  27  -305.5245
  28  1564.297
  29  2016.154
  30  1802.372
  31  970.2023
  32  514.0619
  33  1089.564
  34  1155.1
  35  1366.595
  36  1920.799
  37  2813.925
  38  2263.236
  39  2495.624
  40  240.7431
  41  -1731.862
  42  -1122.812
  43  369.3174
  44  1649.71
  45  3346.231
  46  1763.771
  47  -316.5511
  48  -704.2333
  49  -1269.177
  50  -288.0219
  51  320.3419
  52  1867.649
  53  3803.635
  54  7946.999
  55  7887.259
  56  9818.92
  57  8790.672
  58  6524.518
  59  3568.601
  60  12183.51
  61  14114.89
  62  12147.25
  63  11076.46
  64  10201.12
  65  9667.904
  66  7997.008
  67  7777.903
  68  2081.26
  69  561.9914
  70  -125.9493
  71  697.2343
  72  -260.4429
  73  -1350.297
  74  -2185.809
  75  -1492.576
  76  -282.3128
  77  -647.5157
  78  280.2383
  79  -1590.84
  80  -2545.523
  81  -2353.957
  82  -859.988
  83  -787.9056
  84  -2212.935
  85  -3831.958
  86  -3275.182
  87  -2853.131
  88  -1177.9
  89  -1748.536
  90  -3025.18
  91  -4941.845
  92  -5931.668
  93  -5172.466
  94  -4359.951
  95  -2482.814
  96  -2865.656
  97  -3452.305
  98  -3735.919
  99  -4751.605
 100  -3540.049
 101  -1436.307
 102  -1824.237
 103  -664.5405
 104  -337.474
 105  -2357.067
 106  -2877.374
 107  -2989.36
 108  -3595.943
 109  8147.142
 110  14880.73
 111  21301.51
 112  25710.4
 113  17370.29
 114  7852.322
 115  -910.6895
 116  8098.781
 117  17325.76
 118  16817.24
 119  13934.37
 120  9561.998
 121  -61.14291
 122  -3834.552
 123  17975.45
 124  25893.9
 125  29704.09
 126  26223.76
 127  15713.56
 128  5793.623
 129  -130.1501
 130  20190.1
 131  31409.98
 132  32431.34
 133  24341.35
 134  13203.43
 135  -3052.057
 136  -3471.005
 137  -4453.204
 138  -3916.673
 139  -3005.442
 140  -4475.5
 141  -4668.1
 142  -4858.274
 143  -4126.316
 144  -2866.551
 145  -2700.813
 146  -3149.85
 147  -3617.97
 148  -2757.502
 149  -3173.618
 150  -2105.228
 151  -2130.501
 152  -1880.057
 153  -3228.478
 154  -2957.078
 155  -5032.847
 156  -5482.993
 157  -4948.333
 158  -5181.502
 159  -6570.303
 160  -6484.902
 161  -6615.775
 162  -4802.412
 163  -3872.023
 164  -4478.58
 165  -4973.113
 166  -6160.516
 167  -6398.398
 168  -5186.255
 169  -3949.004
 170  -5380.839
 171  -5035.599
 172  -4491.681
 173  -3511.173
 174  -4018.925
 175  -3464.825
 176  -3932.035
 177  -4304.521
 178  -3297.042
 179  -1192.754
 180  -1653.215
 181  -2447.924
 182  -3337.374
 183  -3562.085
 184  -2604.459
 185  -2586.519
 186  -3075.565
 187  -2605.898
 188  -3082.717
 189  -3475.71
 190  -3858.082
 191  -3385.481
 192  -3361.67
 193  -3443.361
 194  -3357.468
 195  -2125.459
 196  -1423.67
 197  -2060.644
 198  -2525.088
 199  -3011.192
 200  -2776.758
 201  -2890.74
 202  -2631.052
 203  -827.5307
 204  -1736.697
 205  -1713.022
 206  -2640.171
 207  -2616.237
 208  -2122.142
 209  -2206.06
 210  -2340.406
 211  -3128.818
 212  -3648.506
 213  -2864.792
 214  -2712.522
 215  -3136.678
 216  -3390.04
 217  -3828.947
 218  -3781.552
 219  -3517.583
 220  -1945.24
 221  -1816.235
 222  -2542.601
 223  -3195.064
 224  -1894.949
 225  -2718.163
 226  -2908.392
 227  -1128.957
 228  -700.6994
 229  401.2481
 230  183.9244
 231  584.0829
 232  -403.5503
 233  -1207.176
 234  -873.2307
 235  67.77372
 236  683.7363
 237  1349.589
 238  1012.308
 239  -601.7042
 240  -896.3074
 241  -1692.959
 242  -1430.694
 243  -1598.273
 244  -1313.882
 245  -2291.499
 246  -1427.462
 247  -841.3962
 248  -968.0654
 249  -1992.147
 250  -1248.876
 251  -1034.656
 252  2565.512
 253  11369.47
 254  18336.88
 255  22778.06
 256  26070.6
 257  10078.45
 258  5845.554
 259  8232.423
 260  21997.19
 261  27609.16
 262  27404.08
 263  27192.98
 264  11076.48
 265  4668.947
 266  874.1814
 267  -123.7384
 268  235.8881
 269  1184.089
 270  835.2648
 271  1094.847
 272  264.2303
 273  -1561.931
 274  -1589.147
 275  -2187.075
 276  -2280.802
 277  -790.0499
 278  -1107.813
 279  -1367.029
 280  -878.8049
 281  -2547.919
 282  -1814.705
 283  -2455.969
 284  -3534.887
 285  -4248.277
 286  -2252.158
 287  -455.4115
 288  -89.27366
 289  -915.0154
 290  -3764.215
 291  -5832.75
 292  -5177.541
 293  -2517.474
 294  -1037.275
 295  -983.9375
 296  -1732.31
 297  -4148.521
 298  -5845.951
 299  -3931.367
 300  -3937.48
 301  -4006.284
 302  -4048.313
 303  -5549.035
 304  -5468.299
 305  -4688.197
 306  -3585.969
 307  -3306.228
 308  -4292.675
 309  -5474.222
 310  -5533.077
 311  -4980.783
 312  -3366.217
 313  -3194.747
 314  -3417.969
 315  -4384.981
 316  -3839.898
 317  -2860.478
 318  -2647.053
 319  -889.637
 320  -442.312
 321  -1122.83
 322  -2070.547
 323  -1463.298
 324  -2279.052
 325  -3772.195
 326  -1121.012
 327  -652.9285
 328  -89.60883
 329  -478.3264
 330  -1818.32
 331  -3542.219
 332  -3815.404
 333  -4919.329
 334  -4605.616
 335  -3359.406
 336  -2087.772
 337  -3132.388
 338  -4437.402
 339  -3691.673
 340  -3588.162
 341  -3335.113
 342  -3412.416
 343  -4289.659
 344  -4529.019
 345  -2488.701
 346  -2342.881
 347  -2351.168
 348  -1557.214
 349  -2001.322
 350  -3554.568
 351  -4867.036
 352  -4162.737
 353  -3259.345
 354  -2888.981
 355  -3476.11
 356  -4188.854
 357  -5367.793
 358  -5258.057
 359  -4262.63
 360  -2484.248
 361  -3085.619
 362  -3732.785
 363  -3339.544
 364  -2197.933
 365  -327.4611
 366  451.5807
 367  -692.0344
 368  -1138.505
 369  -2923.502
 370  -3529.895
 371  -3750.136
 372  -3325.81
 373  -3144.742
 374  -2508.357
 375  -2435.024
 376  -3513.13
 377  -3882.751
 378  -2137.171
 379  -1710.066
 380  -1368.799
 381  -845.6241
 382  -2349.347
 383  -4226.36
 384  -4526.017
 385  -2090.521
 386  -594.4326
 387  -312.1431
 388  -927.3326
 389  -2312.06
 390  -1596.128
 391  -648.4073
 392  -815.2495
 393  -282.9443
 394  214.0233
 395  -2294.06
 396  -155.4261
 397  1492.992
 398  2594.909
 399  2342.492
 400  927.1748
 401  483.2012
 402  1102.659
 403  236.7775
 404  -492.037
 405  -990.3315
 406  -2300.248
 407  -1441.727
 408  -2308.522
 409  -911.5199
 410  -785.2733
 411  -1087.217
 412  -1383.81
 413  -2751.515
 414  -3269.589
 415  -2911.579
 416  -3609.399
 417  -1687.208
 418  -981.1457
 419  -1884.12
 420  -4323.214
 421  -4249.625
 422  -3299.884
 423  -1548.733
 424  -995.0446
 425  -1800.944
 426  -2691.422
 427  -2778.652
 428  -3449.535
 429  -3312.641
 430  -2485.516
 431  -2562.052
 432  -2680.661
 433  -2318.811
 434  -1628.118
 435  -1065.503
 436  -2013.588
 437  -3070.299
 438  -3935.499
 439  -3251.424
 440  -2305.276
 441  -1301.258
 442  -779.0474
 443  -748.1588
 444  -461.0976
 445  -1660.595
 446  -1150.227
 447  -436.1952
 448  -100.7557
 449  -148.8095
 450  788.9175
 451  558.928
 452  1068.956
 453  -340.5187
 454  -659.3268
 455  -631.0999
 456  -251.1386
 457  592.625
 458  477.2895
 459  1159.701
 460  1017.02
 461  -753.8658
 462  -689.7944
 463  1986.013
 464  2004.855
 465  2730.837
 466  3205.688
 467  1285.38
 468  1927.224
 469  1166.93
 470  571.8425
 471  -389.3586
 472  -908.0587
 473  -1231.539
 474  -1724.416
 475  -1105.571
 476  -389.9624
 477  -1136.048
 478  -799.2944
 479  -532.0784
 480  -1154.046
 481  474.3468
 482  613.4952
 483  1931.217
 484  2625.95
 485  2184.417
 486  302.3912
 487  -584.7872
 488  -132.5487
 489  1631.454
 490  3086.623
 491  3648.006
 492  3384.345
 493  2434.089
 494  915.1772
 495  1342.847
 496  1768.065
 497  1610.818
 498  1099.163
 499  829.8947
 500  926.5621
 501  1355.143
 502  1037.966
 503  714.798
 504  979.7971
 505  -18.44515
 506  1043.999
 507  101.6828
 508  385.0253
 509  -476.3717
 510  954.5659
 511  893.9306
