# Input file       =  1200514251.114862-PSRB0329-2ms-sampling-dd.dat
# Candidate        =  PSR_0332+5434
# Telescope        =  AR
# Epoch_topo       =  58138.841089292386
# Epoch_bary       =  N/A
# T_sample         =  0.002
# Data Folded      =  7340032
# Data Avg         =  -3.85473294808922e-09
# Data StdDev      =  119.150503080975 
# Profile Bins     =  512
# Profile Avg      =  0.259528416581477
# Profile StdDev   =  14266.2515197043 
# Reduced chi-sqr  =  1.140
# Prob(Noise)      <  0.0153   (~2.2 sigma)
# P_topo (ms)      =  714.570647750658  +/- 0.000333
# P'_topo (s/s)    =  -0                +/- 1.76e-10
# P''_topo (s/s^2) =  0                 +/- 7.75e-14
# P_bary (ms)      =  N/A
# P'_bary (s/s)    =  N/A
# P''_bary (s/s^2) =  N/A
# P_orb (s)        =  N/A
# asin(i)/c (s)    =  N/A
# eccentricity     =  N/A
# w (rad)          =  N/A
# T_peri           =  N/A
######################################################
   0  -5998.782
   1  -6678.833
   2  -7606.487
   3  -7130.979
   4  -6876.006
   5  -6204.931
   6  -6614.847
   7  -6183.542
   8  -7087.712
   9  -6129.75
  10  -6844.022
  11  -7274.149
  12  -5674.97
  13  -5905.215
  14  -5729.345
  15  -4183.129
  16  -6478.123
  17  -7621.46
  18  -5343.476
  19  -7430.124
  20  4524.135
  21  27082.13
  22  37101.82
  23  37316.7
  24  36194.22
  25  13810.53
  26  137.0713
  27  60.69345
  28  36924.45
  29  33164.56
  30  33031.71
  31  32439.99
  32  29502.67
  33  23870.62
  34  23590.51
  35  33026.71
  36  14265.15
  37  13298.57
  38  19013.17
  39  34429.9
  40  30314.61
  41  33136.24
  42  58643.52
  43  49070.16
  44  40219.29
  45  37087.04
  46  10214.03
  47  -437.2172
  48  2832.971
  49  27817.69
  50  32077.98
  51  27849.36
  52  19001.82
  53  7118.454
  54  -5674.669
  55  -4522.294
  56  816.7233
  57  2619.542
  58  1098.636
  59  -1764.871
  60  -5283.392
  61  -6540.934
  62  -7151.842
  63  -6184.707
  64  -8037.874
  65  -8577.506
  66  -8144.905
  67  -6908.901
  68  -5784.383
  69  -6066.348
  70  -6310.004
  71  -6322.241
  72  -6347.496
  73  -6816.046
  74  -7307.436
  75  -6959.798
  76  -6262.524
  77  -5737.635
  78  -6222.747
  79  -6680.207
  80  -6507.831
  81  -6356.678
  82  -5914.05
  83  -6548.144
  84  -6922.714
  85  -5935.399
  86  -7235.395
  87  -6351.933
  88  -5488.769
  89  -7028.07
  90  -6246.539
  91  -3014.624
  92  -8319.782
  93  1294.155
  94  13647.22
  95  24220.96
  96  23498.9
  97  22196.74
  98  14887.58
  99  -2525.221
 100  971.4102
 101  23407.71
 102  22670.4
 103  18341.75
 104  14488.14
 105  626.3118
 106  -2431.219
 107  -6078.02
 108  -5948.883
 109  -6398.27
 110  -5689.713
 111  -5352.505
 112  -6492.081
 113  -6569.928
 114  -6082.743
 115  -5538.151
 116  -5448.603
 117  -5227.54
 118  -6750.858
 119  -4801.479
 120  -1613.052
 121  764.1026
 122  1719.315
 123  1481.327
 124  973.5103
 125  -3362.826
 126  -6943.186
 127  705.9448
 128  3437.727
 129  3956.626
 130  3942.828
 131  -437.8776
 132  -4931.157
 133  -925.8264
 134  5616.231
 135  14861.11
 136  11128.04
 137  10012.94
 138  9651.096
 139  -7113.728
 140  1386.833
 141  10009.89
 142  14781.81
 143  10764.47
 144  6262.516
 145  -632.0619
 146  -5671.939
 147  -5019.369
 148  -3428.677
 149  -3754.223
 150  -5090.282
 151  -5478.871
 152  -5296.457
 153  -5614.331
 154  -5931.854
 155  -6808.912
 156  -5548.799
 157  -6290.08
 158  -5493.577
 159  -5313.184
 160  -5469.463
 161  -6032.562
 162  -4555.829
 163  -1735.543
 164  917.5368
 165  -271.5262
 166  -174.6649
 167  -493.7189
 168  -5550.207
 169  -4704.53
 170  -1761.465
 171  3621.933
 172  1719.898
 173  489.5852
 174  -998.9318
 175  -6739.763
 176  -1141.649
 177  689.1344
 178  -78.00411
 179  1955.08
 180  444.1784
 181  -2666.293
 182  -5200.36
 183  -135.9083
 184  1141.205
 185  736.863
 186  70.43781
 187  -1792.986
 188  -5642.719
 189  -6659.101
 190  -6790.196
 191  -6576.597
 192  -4831.537
 193  -6397.359
 194  -6680.754
 195  -6057.474
 196  -5663.496
 197  -6125.789
 198  -6596.003
 199  -5992.618
 200  -6028.261
 201  -5474.666
 202  -5987.101
 203  -7177.074
 204  -7676.646
 205  -7387.729
 206  -5970.386
 207  -6192.741
 208  -6132.527
 209  -6207.206
 210  -5923.763
 211  -4386.132
 212  -260.3941
 213  -774.7507
 214  -869.3278
 215  -451.7099
 216  -4175.126
 217  -5555.935
 218  -3762.723
 219  475.391
 220  1474.262
 221  912.5401
 222  -1393.678
 223  -4823.517
 224  -6691.415
 225  -6369.591
 226  -5383.247
 227  -5810.541
 228  -7171.942
 229  -4445.378
 230  -1238.742
 231  1624.593
 232  -1981.019
 233  -1669.506
 234  -1966.042
 235  -7149.031
 236  -2841.704
 237  7.667782
 238  602.1266
 239  -110.2403
 240  -1343.625
 241  -4170.333
 242  -6907.745
 243  -5775.425
 244  -4441.838
 245  -5476.021
 246  -6025.598
 247  -6949.333
 248  -6920.373
 249  -6513.973
 250  -6667.339
 251  -7105.456
 252  -6460.534
 253  -6408.087
 254  -6031.441
 255  -5974.021
 256  -6093.569
 257  -5789.985
 258  -5884.946
 259  -5492.594
 260  -7003.642
 261  -6631.815
 262  -6472.516
 263  -5175.175
 264  -5675.084
 265  -6243.425
 266  -7071.057
 267  -6867.156
 268  -6160.372
 269  -7090.708
 270  -6525.702
 271  -6642.512
 272  -6510.568
 273  -6812.081
 274  -6466.073
 275  -7370.624
 276  -7090.934
 277  -7557.457
 278  -6911.879
 279  -5983.634
 280  -5606.118
 281  -6377.425
 282  -6470.651
 283  -6203.469
 284  -6940.692
 285  -6027.996
 286  -4762.777
 287  -3899.939
 288  -3717.418
 289  -4030.296
 290  -4796.345
 291  -4610.597
 292  -3784.571
 293  -3155.85
 294  -4282.242
 295  -4207.42
 296  -4153.269
 297  -3917.286
 298  -3876.02
 299  -3105.302
 300  -2277.311
 301  -2625.289
 302  -3002.393
 303  -3338.83
 304  -4827.498
 305  -4205.854
 306  -1938.856
 307  -3848.847
 308  -5208.875
 309  -6239.283
 310  -5450.685
 311  -5062.626
 312  -5153.656
 313  -5178.202
 314  -5818.008
 315  -5820.81
 316  -5315.944
 317  -5065.262
 318  -5811.09
 319  -5838.817
 320  -5987.462
 321  -5203.743
 322  -5430.835
 323  -6880.763
 324  -5707.488
 325  -6559.393
 326  -4438.719
 327  1811.907
 328  18669.13
 329  24032.07
 330  25632.26
 331  26586.45
 332  13788.92
 333  1146.015
 334  12231.69
 335  26617.59
 336  34380.81
 337  23472.95
 338  11071.54
 339  7379.598
 340  -418.2794
 341  32466.84
 342  35952.24
 343  37287.55
 344  35933.96
 345  18701.92
 346  6642.186
 347  -3165.095
 348  26039.83
 349  34696.48
 350  28854.49
 351  20085.63
 352  9257.082
 353  -2450.155
 354  -5223.747
 355  -6068.273
 356  -6413.686
 357  -7124.724
 358  -7033.357
 359  -6113.667
 360  -5885.403
 361  -7713.404
 362  -7155.64
 363  -7179.59
 364  -6666.198
 365  -7254.251
 366  -7091.937
 367  -5896.524
 368  -6686.546
 369  -5877.455
 370  -6256.262
 371  -6698.45
 372  -6542.956
 373  -5608.3
 374  -5696.761
 375  -5946.024
 376  -6153.609
 377  -6608.794
 378  -5620.476
 379  -6170.458
 380  -7472.486
 381  -6148.989
 382  -6664.633
 383  -7610.436
 384  5994.916
 385  8892.794
 386  10982.07
 387  10839
 388  3866.655
 389  -1654.329
 390  -6809.721
 391  9528.938
 392  12810.93
 393  12720.57
 394  10490.98
 395  2381.372
 396  -3511.809
 397  -6360.257
 398  -6325.313
 399  -5563.239
 400  -7028.544
 401  -6625.161
 402  -6266.069
 403  -5997.335
 404  -6050.7
 405  -6593.381
 406  -6580.656
 407  -6123.709
 408  -6595.088
 409  -6863.45
 410  -5990.671
 411  -5118.052
 412  -2741.355
 413  -3486.039
 414  -3583.99
 415  -4702.465
 416  -5309.727
 417  -5459.038
 418  -2902.669
 419  -2814.246
 420  -2636.957
 421  -2627.458
 422  -4458.33
 423  -5074.569
 424  -5687.725
 425  -5467.378
 426  -5407.45
 427  -5454.793
 428  -6038.995
 429  -5898.419
 430  -5574.608
 431  -4315.183
 432  -6235.498
 433  -5735.621
 434  -6086.366
 435  -5818.104
 436  -5884.509
 437  -6205.266
 438  -6252.785
 439  -5896.12
 440  -5824.894
 441  -6602.389
 442  -6796.28
 443  -6836.211
 444  -5204.699
 445  -2050.949
 446  -2398.855
 447  -2216.989
 448  -1801.518
 449  -5984.276
 450  -5168.392
 451  -3544.729
 452  1635.244
 453  20967.19
 454  22715.17
 455  22974.62
 456  18091.88
 457  4939.228
 458  670.1963
 459  1000.333
 460  20238.19
 461  21815.4
 462  19205.77
 463  10142.02
 464  2584.916
 465  -3656.39
 466  -6252.702
 467  -6874.455
 468  -7162.82
 469  -6402.227
 470  -6430.517
 471  -6329.147
 472  -4394.617
 473  -2955.293
 474  -1470.677
 475  3164.135
 476  2066.708
 477  1113.284
 478  467.5101
 479  -1225.828
 480  -2435.248
 481  -1620.617
 482  3354.719
 483  4281.179
 484  2621.576
 485  -1128.696
 486  -3915.917
 487  -5170.322
 488  -5832.933
 489  -6030.871
 490  -7526.929
 491  -7085.048
 492  -4144.545
 493  99.84144
 494  -763.9194
 495  -2174.177
 496  -1639.618
 497  -6052.227
 498  -5231.615
 499  -4837.189
 500  -704.7205
 501  -2513.62
 502  -2463.153
 503  -1490.396
 504  -4777.042
 505  -5044.416
 506  -5903.154
 507  -5192.841
 508  -5840.03
 509  -6261.898
 510  -6000.237
 511  -6000.099
