# Input file       =  1200312473.104338_cleaned.dat
# Candidate        =  PSR_0332+5434
# Telescope        =  AR
# Epoch_topo       =  58136.505695652057
# Epoch_bary       =  N/A
# T_sample         =  0.002
# Data Folded      =  7143424
# Data Avg         =  0.178917345534284
# Data StdDev      =  4.89558644947137 
# Profile Bins     =  512
# Profile Avg      =  2496.41304050551 
# Profile StdDev   =  578.259741620168 
# Reduced chi-sqr  =  1.368
# Prob(Noise)      <  5.74e-08   (~5.3 sigma)
# P_topo (ms)      =  714.568868016074  +/- 2.48e-05
# P'_topo (s/s)    =  -0                +/- 1.35e-11
# P''_topo (s/s^2) =  0                 +/- 6.11e-15
# P_bary (ms)      =  N/A
# P'_bary (s/s)    =  N/A
# P''_bary (s/s^2) =  N/A
# P_orb (s)        =  N/A
# asin(i)/c (s)    =  N/A
# eccentricity     =  N/A
# w (rad)          =  N/A
# T_peri           =  N/A
######################################################
   0  2044.59
   1  2184.632
   2  2077.25
   3  1961.524
   4  2523.274
   5  2973.064
   6  2636.062
   7  1994.421
   8  1918.36
   9  2445.823
  10  2614.627
  11  2295.886
  12  3012.886
  13  3659.099
  14  3659.487
  15  2810.881
  16  2195.71
  17  2120.551
  18  2045.622
  19  2162.991
  20  2891.899
  21  3293.901
  22  3176.537
  23  2555.809
  24  2255.635
  25  2210.865
  26  2537.834
  27  2351.915
  28  2718.584
  29  3316.149
  30  3450.531
  31  2632.362
  32  1991.986
  33  1615.436
  34  2239.898
  35  2358.58
  36  2343.567
  37  2712.627
  38  2844.507
  39  2324.191
  40  1966.742
  41  1820.867
  42  2641.643
  43  2501.949
  44  2588.898
  45  3252.985
  46  3214.169
  47  2663.361
  48  2197.38
  49  1773.63
  50  1759.777
  51  1882.309
  52  2021.113
  53  2145.798
  54  2694.817
  55  2825.579
  56  2602.28
  57  2043.751
  58  1899.272
  59  2088.322
  60  2485.824
  61  2970.548
  62  3229.383
  63  3397.358
  64  2605.074
  65  2030.029
  66  1900.059
  67  2148.882
  68  2102.329
  69  2418.283
  70  2833.117
  71  2911.72
  72  2430.469
  73  2295.536
  74  2101.639
  75  2246.277
  76  2626.291
  77  2789.945
  78  3039.75
  79  3410.698
  80  3230.855
  81  2432.461
  82  1600.295
  83  2160.728
  84  2317.006
  85  2075.127
  86  2462.197
  87  3254.937
  88  2992.419
  89  2237.078
  90  1919.023
  91  1834.049
  92  2101.497
  93  2383.188
  94  3195.241
  95  3535.962
  96  3366.574
  97  2546.753
  98  2158.568
  99  1923.778
 100  2051.684
 101  2269.182
 102  2457.816
 103  2484.735
 104  2898.174
 105  2595.484
 106  2053.026
 107  2038.261
 108  2206.719
 109  2656.098
 110  2854.289
 111  3220.131
 112  3218.132
 113  3208.445
 114  2352.278
 115  1762.473
 116  1652.62
 117  2383.137
 118  2477.848
 119  2138.905
 120  2738.716
 121  2695.339
 122  2380.96
 123  2018.814
 124  2223.177
 125  2444.959
 126  2426.973
 127  2871.887
 128  3328.162
 129  3063.949
 130  2827.845
 131  2160.07
 132  2067.04
 133  2244.601
 134  2235.791
 135  2203.348
 136  2212.317
 137  2717.529
 138  2819.926
 139  1900.064
 140  1615.485
 141  2135.911
 142  1912.35
 143  2110.847
 144  2942.231
 145  3126.282
 146  2627.035
 147  2258.132
 148  1362.932
 149  1907.611
 150  2648.536
 151  2375.496
 152  2351.331
 153  2560.032
 154  2602.904
 155  2177.493
 156  1607.916
 157  1988.539
 158  2254.357
 159  2590.248
 160  3108.225
 161  3167.269
 162  3319.323
 163  2674.82
 164  2367.174
 165  1859.101
 166  2271.501
 167  2175.394
 168  2283.515
 169  2665.443
 170  2968.659
 171  2168.895
 172  1581.702
 173  1448.025
 174  2058.611
 175  2566.837
 176  2594.909
 177  2698.698
 178  2719.234
 179  2738.425
 180  2154.898
 181  1709.615
 182  1842.094
 183  2094.568
 184  2448.344
 185  2462.626
 186  2954.746
 187  3102.985
 188  2266.717
 189  1528.722
 190  1952.252
 191  2459.109
 192  2795.229
 193  2764.962
 194  3285.232
 195  3299.817
 196  2517.052
 197  1932.257
 198  1669.702
 199  1983.18
 200  1947.435
 201  1829.009
 202  2327.89
 203  3048.586
 204  3000.915
 205  2298.749
 206  1976.587
 207  2259.168
 208  2076.147
 209  2025.121
 210  2910.558
 211  3167.897
 212  3057.399
 213  2558.39
 214  1869.762
 215  1889.096
 216  2618.466
 217  2480.715
 218  2722.047
 219  2826.243
 220  2765.467
 221  2259.534
 222  1538.509
 223  1882.886
 224  2402.184
 225  2602.635
 226  2836.373
 227  3115.849
 228  3231.231
 229  2676.009
 230  1880.632
 231  1677.878
 232  1834.966
 233  2005.293
 234  2363.782
 235  2631.451
 236  3358.229
 237  2734.318
 238  1708.367
 239  1714.555
 240  2328.432
 241  2546.966
 242  2671.929
 243  3262.563
 244  3398.468
 245  2977.15
 246  2566.347
 247  1874.695
 248  2178.458
 249  2507.095
 250  2169.067
 251  2087.272
 252  2345.737
 253  2678.185
 254  2234.302
 255  1659.827
 256  1923.407
 257  2632.094
 258  2752.014
 259  2589.707
 260  2955.846
 261  3255.44
 262  2801.057
 263  2173.752
 264  2052.314
 265  1864.085
 266  2082.909
 267  2002.624
 268  2041.388
 269  2704.277
 270  2520.48
 271  1856.702
 272  1557.109
 273  2286.05
 274  2495.319
 275  2289.953
 276  2546.232
 277  2931.126
 278  3138.773
 279  2875.612
 280  1859.04
 281  1971.052
 282  2104.988
 283  1991.184
 284  1868.937
 285  2412.789
 286  2939.536
 287  2800.949
 288  2240.251
 289  2279.756
 290  2743.309
 291  2538.769
 292  2939.841
 293  3310.458
 294  3174.594
 295  3329.929
 296  2553.237
 297  1977.663
 298  2203.146
 299  2616.885
 300  2556.935
 301  2827.044
 302  3230.647
 303  2987.547
 304  2600.013
 305  2270.717
 306  2766.597
 307  3652.066
 308  4020.416
 309  4372.933
 310  4453.375
 311  3830.003
 312  2888.932
 313  2075.248
 314  1966.924
 315  2481.561
 316  1976.996
 317  2169.086
 318  2591.942
 319  2724.602
 320  2206.542
 321  1872.616
 322  2072.341
 323  2290.091
 324  2330.573
 325  2585.899
 326  3004.209
 327  3075.495
 328  2823.589
 329  2144.133
 330  1665.08
 331  2120.937
 332  2371.696
 333  1957.225
 334  2207.07
 335  2678.826
 336  2819.5
 337  2371.777
 338  1929.155
 339  2767.844
 340  2861.116
 341  2773.463
 342  2625.784
 343  3233.865
 344  3176.341
 345  3006.818
 346  2208.883
 347  1901.612
 348  2436.012
 349  2341.788
 350  2239.243
 351  2756.716
 352  3182.285
 353  2570.961
 354  1995.013
 355  1902.397
 356  2439.382
 357  2529.468
 358  2664.202
 359  3118.534
 360  3185.191
 361  2815.669
 362  2208.641
 363  1749.51
 364  2384.262
 365  2482.225
 366  2096.656
 367  2104.878
 368  2286.004
 369  2597.033
 370  2031.194
 371  1830.694
 372  2060.947
 373  2456.738
 374  2431.557
 375  2794
 376  2909.548
 377  3238.915
 378  2658.297
 379  1885.993
 380  2013.697
 381  2317.549
 382  2250.217
 383  2343.223
 384  2499.34
 385  2672.481
 386  2087.279
 387  1278.972
 388  1693.778
 389  2616.455
 390  2892.391
 391  2802.858
 392  3174.802
 393  3436.591
 394  3099.843
 395  2489.993
 396  1999.479
 397  2301.696
 398  2710.892
 399  2241.851
 400  2409.093
 401  2715.128
 402  2224.981
 403  1791.59
 404  1717.376
 405  2332.126
 406  3074.204
 407  2582.434
 408  3018.399
 409  3391.344
 410  3154.81
 411  2814.798
 412  2025.249
 413  2231.376
 414  2505.015
 415  2689.391
 416  2439.486
 417  2602.748
 418  3156.6
 419  2604.131
 420  1651.93
 421  1829.825
 422  2340.01
 423  2373.65
 424  2733.836
 425  3643.199
 426  3715.991
 427  3099.728
 428  2628.94
 429  2165.361
 430  2323.697
 431  2615.84
 432  2430.683
 433  2461.829
 434  2862.915
 435  2929.622
 436  2248.128
 437  1864.747
 438  2371.236
 439  3038.183
 440  2966.177
 441  2594.811
 442  3126.619
 443  3196.179
 444  2584.514
 445  2108.275
 446  2270.933
 447  2543.769
 448  2429.981
 449  2640.222
 450  2835.389
 451  2790.857
 452  2510.194
 453  1987.312
 454  2116.87
 455  2662.292
 456  2741.739
 457  2785.998
 458  3115.875
 459  3607.15
 460  3379.774
 461  2376.237
 462  2043.35
 463  2204.477
 464  2514.234
 465  2385.051
 466  2533.617
 467  3197.778
 468  3159.829
 469  2431.271
 470  1937.022
 471  2175.927
 472  2703.253
 473  2408.37
 474  2594.806
 475  3076.711
 476  3036.406
 477  2426.924
 478  2044.313
 479  2135.307
 480  2295.741
 481  2494.685
 482  2343.068
 483  2771.287
 484  3419.024
 485  2431.923
 486  2008.564
 487  1839.204
 488  2235.658
 489  2424.902
 490  2822.923
 491  3271.418
 492  3371.544
 493  3062.537
 494  2528.178
 495  1960.311
 496  1944.044
 497  2566.358
 498  2401.599
 499  2738.955
 500  3002.941
 501  2952.039
 502  2142.719
 503  1714.909
 504  2299.412
 505  2436.327
 506  2870.655
 507  2908.876
 508  3108.838
 509  3194.046
 510  2593.742
 511  2381.213
