# Input file       =  1200154712.110376_cleaned.dat
# Candidate        =  PSR_0332+5434
# Telescope        =  AR
# Epoch_topo       =  58134.679758221944
# Epoch_bary       =  N/A
# T_sample         =  0.002
# Data Folded      =  7340032
# Data Avg         =  0.0243573893945749
# Data StdDev      =  1.0000445421674  
# Profile Bins     =  512
# Profile Avg      =  349.368267784273 
# Profile StdDev   =  119.738369545716 
# Reduced chi-sqr  =  1.551
# Prob(Noise)      <  1.61e-14   (~7.6 sigma)
# P_topo (ms)      =  714.56770546189   +/- 0.000359
# P'_topo (s/s)    =  -0                +/- 1.89e-10
# P''_topo (s/s^2) =  0                 +/- 8.37e-14
# P_bary (ms)      =  N/A
# P'_bary (s/s)    =  N/A
# P''_bary (s/s^2) =  N/A
# P_orb (s)        =  N/A
# asin(i)/c (s)    =  N/A
# eccentricity     =  N/A
# w (rad)          =  N/A
# T_peri           =  N/A
######################################################
   0  492.8612
   1  505.8752
   2  505.5656
   3  410.5433
   4  368.5207
   5  274.6315
   6  288.1772
   7  351.5528
   8  295.2531
   9  361.4121
  10  445.4555
  11  349.9341
  12  258.1035
  13  336.3726
  14  359.0226
  15  396.4725
  16  335.276
  17  309.3893
  18  262.1308
  19  367.7938
  20  283.6865
  21  220.7548
  22  213.5181
  23  241.6208
  24  313.0646
  25  321.8666
  26  226.3227
  27  270.2097
  28  285.2933
  29  441.8892
  30  454.4418
  31  398.4767
  32  348.2135
  33  300.9193
  34  241.9828
  35  254.8816
  36  281.1868
  37  392.6483
  38  385.7586
  39  351.5797
  40  371.0122
  41  350.2308
  42  317.2883
  43  381.5484
  44  421.1263
  45  307.0091
  46  347.1319
  47  396.3023
  48  283.8808
  49  238.8922
  50  252.0541
  51  305.7274
  52  305.5959
  53  323.5309
  54  222.9211
  55  254.4983
  56  343.7708
  57  388.4674
  58  364.0668
  59  375.367
  60  255.2902
  61  254.05
  62  279.5511
  63  316.8559
  64  372.2931
  65  431.2321
  66  350.4096
  67  399.2951
  68  266.8382
  69  196.1902
  70  286.2777
  71  275.383
  72  245.723
  73  280.1649
  74  362.8326
  75  346.7482
  76  338.2697
  77  260.3552
  78  224.6304
  79  210.7214
  80  296.6097
  81  272.2003
  82  382.4902
  83  422.2003
  84  436.1071
  85  433.0566
  86  507.946
  87  705.1942
  88  857.0101
  89  935.5635
  90  1050.401
  91  1046.055
  92  964.6956
  93  770.5112
  94  575.5918
  95  524.0985
  96  525.7342
  97  515.6436
  98  492.9648
  99  477.1954
 100  368.5381
 101  381.1438
 102  502.3913
 103  530.5069
 104  349.9474
 105  426.4799
 106  446.2659
 107  295.9167
 108  335.2808
 109  332.2107
 110  401.5027
 111  424.2334
 112  310.3851
 113  362.8879
 114  302.2318
 115  257.4524
 116  297.1055
 117  288.1526
 118  280.184
 119  333.9677
 120  339.2781
 121  383.6418
 122  310.6635
 123  190.4798
 124  272.1167
 125  287.3513
 126  272.7073
 127  259.006
 128  281.6319
 129  347.2766
 130  284.5315
 131  392.4809
 132  368.1256
 133  280.0792
 134  346.2899
 135  400.308
 136  315.6069
 137  242.4029
 138  254.9424
 139  328.9414
 140  297.7036
 141  230.2636
 142  275.4549
 143  222.4149
 144  234.0018
 145  146.0682
 146  202.8768
 147  257.9167
 148  260.2052
 149  349.6908
 150  387.6776
 151  340.9016
 152  210.7181
 153  291.701
 154  367.7871
 155  290.6651
 156  241.1993
 157  222.3655
 158  276.6202
 159  334.1828
 160  365.5421
 161  262.5309
 162  281.1759
 163  344.717
 164  302.1598
 165  263.6469
 166  290.8477
 167  367.1057
 168  343.9737
 169  294.2089
 170  286.0883
 171  286.8551
 172  343.3586
 173  335.7235
 174  352.0826
 175  269.3611
 176  310.082
 177  226.3154
 178  197.0444
 179  204.9393
 180  393.5337
 181  403.9834
 182  408.5972
 183  476.4852
 184  462.0827
 185  396.8026
 186  357.3622
 187  265.632
 188  248.1661
 189  386.1734
 190  491.8232
 191  306.9032
 192  159.5383
 193  350.6035
 194  415.5346
 195  352.0726
 196  371.736
 197  388.8144
 198  429.1662
 199  408.8583
 200  436.8769
 201  360.422
 202  381.1921
 203  410.6626
 204  317.6852
 205  211.7546
 206  253.7307
 207  327.5034
 208  370.3755
 209  281.9765
 210  320.4689
 211  157.9989
 212  65.31711
 213  81.44139
 214  108.2091
 215  248.4074
 216  268.8584
 217  274.3716
 218  364.6516
 219  322.4797
 220  279.2087
 221  388.8078
 222  317.3342
 223  221.905
 224  299.3191
 225  343.7617
 226  362.7782
 227  271.9755
 228  301.5755
 229  426.3481
 230  346.6811
 231  245.7461
 232  328.9792
 233  479.0225
 234  448.1772
 235  495.8741
 236  538.4303
 237  540.9855
 238  352.5342
 239  332.954
 240  375.5186
 241  405.5276
 242  390.7337
 243  451.3397
 244  388.9945
 245  372.5304
 246  338.0589
 247  298.298
 248  280.0388
 249  290.7915
 250  339.8484
 251  383.5348
 252  359.528
 253  298.299
 254  232.8761
 255  257.8683
 256  276.4874
 257  330.1554
 258  352.1726
 259  330.34
 260  213.7037
 261  223.8031
 262  168.6087
 263  209.5276
 264  372.8862
 265  396.061
 266  341.1365
 267  300.0534
 268  436.3958
 269  371.8633
 270  363.5839
 271  237.5446
 272  208.7713
 273  283.2999
 274  264.276
 275  350.8593
 276  362.9048
 277  317.6057
 278  271.3401
 279  204.3839
 280  355.5079
 281  334.7617
 282  320.3282
 283  272.9344
 284  241.9043
 285  335.4283
 286  299.7812
 287  375.6276
 288  344.9244
 289  292.2617
 290  227.4268
 291  243.8003
 292  193.5385
 293  321.5707
 294  385.2899
 295  402.1172
 296  372.4411
 297  413.0245
 298  432.7169
 299  385.7986
 300  309.8711
 301  268.3904
 302  220.8695
 303  290.6166
 304  292.6481
 305  345.1555
 306  357.3324
 307  282.9563
 308  244.0451
 309  211.8121
 310  264.5609
 311  317.6195
 312  413.6524
 313  430.4205
 314  419.424
 315  408.01
 316  437.1573
 317  362.2543
 318  306.0404
 319  247.8695
 320  254.1333
 321  239.2034
 322  291.1999
 323  321.641
 324  372.1222
 325  390.465
 326  269.3444
 327  255.3058
 328  306.4713
 329  250.6159
 330  215.474
 331  207.7586
 332  385.5418
 333  373.9986
 334  312.5896
 335  347.2243
 336  323.7997
 337  368.7027
 338  394.2806
 339  315.1172
 340  372.6024
 341  373.9514
 342  340.778
 343  370.9761
 344  323.5933
 345  445.0375
 346  541.4315
 347  417.1259
 348  243.7369
 349  306.9217
 350  516.3691
 351  433.468
 352  281.2085
 353  299.0121
 354  326.1819
 355  296.8104
 356  315.6327
 357  215.8847
 358  165.7621
 359  287.4187
 360  288.7903
 361  256.6941
 362  198.0475
 363  324.9131
 364  337.6599
 365  195.2287
 366  282.7039
 367  352.1848
 368  367.151
 369  326.915
 370  199.716
 371  224.5648
 372  372.3387
 373  405.865
 374  250.7835
 375  368.322
 376  393.1126
 377  212.4138
 378  150.3851
 379  227.8647
 380  364.0715
 381  267.7577
 382  324.3005
 383  352.6118
 384  355.4423
 385  372.0605
 386  263.1219
 387  267.873
 388  380.5197
 389  411.5514
 390  469.2734
 391  406.925
 392  420.1243
 393  379.6104
 394  425.8103
 395  358.0058
 396  408.1199
 397  558.9797
 398  411.6847
 399  336.5521
 400  280.7688
 401  345.494
 402  314.5686
 403  375.2892
 404  316.2901
 405  334.9017
 406  394.4357
 407  331.0159
 408  209.5881
 409  224.4441
 410  283.5956
 411  382.2617
 412  346.6166
 413  265.4094
 414  287.7078
 415  308.4438
 416  329.6939
 417  489.9251
 418  526.2242
 419  472.8127
 420  316.8175
 421  318.6579
 422  413.2716
 423  353.1866
 424  339.3161
 425  339.3405
 426  371.7513
 427  399.4497
 428  437.7846
 429  506.2707
 430  376.5705
 431  352.5587
 432  356.0295
 433  233.4256
 434  362.2961
 435  452.6927
 436  413.2468
 437  283.5277
 438  312.3643
 439  335.4027
 440  250.4156
 441  294.1495
 442  345.7584
 443  378.5074
 444  533.6671
 445  462.2978
 446  497.3656
 447  519.6251
 448  517.7387
 449  567.2738
 450  487.2852
 451  483.1298
 452  489.0468
 453  404.5213
 454  372.7231
 455  351.9887
 456  391.2563
 457  514.7314
 458  520.8649
 459  506.3617
 460  482.9532
 461  508.8793
 462  513.2248
 463  544.079
 464  472.6606
 465  504.2963
 466  444.6721
 467  348.2133
 468  457.4529
 469  440.0519
 470  458.9111
 471  444.5378
 472  408.4132
 473  477.952
 474  402.3861
 475  358.5467
 476  419.4644
 477  466.62
 478  475.9306
 479  372.7914
 480  373.7089
 481  505.5839
 482  502.067
 483  392.4637
 484  310.6917
 485  352.4033
 486  390.7111
 487  297.8616
 488  308.9218
 489  291.9767
 490  340.9483
 491  327.604
 492  527.0334
 493  504.6518
 494  421.0013
 495  365.5988
 496  390.3073
 497  311.1825
 498  346.0569
 499  428.6566
 500  432.7398
 501  381.4939
 502  312.9962
 503  335.7733
 504  243.2634
 505  281.114
 506  304.5354
 507  356.864
 508  288.4353
 509  269.6051
 510  330.263
 511  382.5298
