# Input file       =  1200312473.104338_cleaned.dat
# Candidate        =  PSR_0332+5434
# Telescope        =  AR
# Epoch_topo       =  58136.505695652057
# Epoch_bary       =  N/A
# T_sample         =  0.002
# Data Folded      =  7143424
# Data Avg         =  0.0172984903391056
# Data StdDev      =  1.00002570657346 
# Profile Bins     =  512
# Profile Avg      =  241.40932690376  
# Profile StdDev   =  118.121620905936 
# Reduced chi-sqr  =  1.513
# Prob(Noise)      <  5.12e-13   (~7.1 sigma)
# P_topo (ms)      =  714.568866731922  +/- 9.31e-05
# P'_topo (s/s)    =  -0                +/- 5.05e-11
# P''_topo (s/s^2) =  0                 +/- 2.29e-14
# P_bary (ms)      =  N/A
# P'_bary (s/s)    =  N/A
# P''_bary (s/s^2) =  N/A
# P_orb (s)        =  N/A
# asin(i)/c (s)    =  N/A
# eccentricity     =  N/A
# w (rad)          =  N/A
# T_peri           =  N/A
######################################################
   0  903.6494
   1  787.2571
   2  561.9742
   3  429.0318
   4  267.2953
   5  242.6292
   6  290.0712
   7  103.0667
   8  257.3068
   9  211.2438
  10  133.6065
  11  197.4877
  12  309.4053
  13  270.11
  14  259.6532
  15  306.755
  16  212.8899
  17  202.3378
  18  245.8734
  19  251.5274
  20  115.1227
  21  23.70203
  22  99.8549
  23  155.1418
  24  105.8149
  25  199.2623
  26  240.191
  27  230.7053
  28  240.2023
  29  172.6408
  30  358.9221
  31  366.7849
  32  328.0724
  33  261.8069
  34  336.339
  35  229.4581
  36  310.1696
  37  137.8503
  38  192.0531
  39  390.0976
  40  302.1158
  41  272.3142
  42  381.8286
  43  434.1822
  44  287.802
  45  251.4535
  46  149.6294
  47  233.9176
  48  226.5802
  49  309.7891
  50  306.955
  51  232.7858
  52  203.5468
  53  228.2072
  54  155.0567
  55  182.1145
  56  143.9437
  57  174.8371
  58  216.2165
  59  128.6331
  60  157.9716
  61  212.0874
  62  115.2782
  63  102.8306
  64  223.7968
  65  296.4312
  66  213.3362
  67  198.1308
  68  377.3089
  69  160.6621
  70  120.1411
  71  310.7141
  72  344.8434
  73  240.3748
  74  213.6099
  75  144.4012
  76  81.44086
  77  55.75211
  78  47.51125
  79  233.7215
  80  453.5895
  81  391.8249
  82  284.2491
  83  333.4477
  84  364.63
  85  356.7464
  86  305.4875
  87  271.6292
  88  251.7869
  89  214.0687
  90  188.2299
  91  287.5887
  92  230.536
  93  80.28155
  94  104.7281
  95  105.6136
  96  278.6781
  97  404.2103
  98  239.4773
  99  366.1907
 100  379.7671
 101  294.0736
 102  305.3034
 103  177.9381
 104  255.0204
 105  323.7322
 106  330.5406
 107  284.4973
 108  221.0041
 109  304.5631
 110  101.1472
 111  22.92568
 112  181.8143
 113  184.6537
 114  235.7604
 115  355.76
 116  454.0226
 117  430.8275
 118  281.514
 119  329.1358
 120  312.1873
 121  306.1516
 122  346.5341
 123  278.2278
 124  257.8344
 125  288.4764
 126  341.6591
 127  174.39
 128  150.8163
 129  205.6862
 130  324.1732
 131  243.6705
 132  157.681
 133  343.0818
 134  320.6984
 135  202.1493
 136  276.2554
 137  401.443
 138  321.4012
 139  231.3281
 140  331.7938
 141  312.7796
 142  216.5371
 143  169.2062
 144  171.6756
 145  204.516
 146  352.5723
 147  358.02
 148  234.416
 149  297.9339
 150  347.4981
 151  338.9476
 152  170.7081
 153  236.74
 154  275.2565
 155  239.1962
 156  180.1216
 157  229.7801
 158  423.6277
 159  394.136
 160  295.6017
 161  309.8399
 162  213.3203
 163  269.5461
 164  185.3612
 165  227.6064
 166  269.6509
 167  189.4043
 168  101.1997
 169  177.4756
 170  289.3584
 171  265.2686
 172  223.2359
 173  201.7793
 174  248.3041
 175  358.7813
 176  203.971
 177  271.0128
 178  195.0364
 179  94.70918
 180  78.52197
 181  247.6584
 182  378.4166
 183  289.2815
 184  298.1487
 185  300.6537
 186  241.2576
 187  166.1847
 188  291.0153
 189  216.8367
 190  297.9049
 191  270.1205
 192  275.6956
 193  220.0463
 194  202.5893
 195  224.1
 196  176.9572
 197  326.724
 198  297.6778
 199  238.8677
 200  289.0211
 201  312.6904
 202  391.9496
 203  385.362
 204  220.4609
 205  110.1442
 206  123.4179
 207  223.951
 208  224.4952
 209  164.6039
 210  280.4468
 211  278.8099
 212  288.0901
 213  320.5208
 214  153.7674
 215  294.1248
 216  363.7682
 217  479.0347
 218  279.0126
 219  174.3809
 220  168.8966
 221  158.0481
 222  244.4243
 223  423.1809
 224  435.0176
 225  264.8749
 226  282.2391
 227  312.431
 228  287.5435
 229  274.7099
 230  99.01235
 231  239.5896
 232  389.3603
 233  416.7221
 234  246.1287
 235  194.5698
 236  67.58456
 237  196.5253
 238  276.3379
 239  323.2411
 240  306.9984
 241  271.0174
 242  198.5627
 243  282.8036
 244  107.6836
 245  188.304
 246  115.2866
 247  241.4983
 248  387.0263
 249  261.9229
 250  179.8708
 251  98.21603
 252  33.3124
 253  52.296
 254  6.111232
 255  90.37979
 256  153.8632
 257  162.5817
 258  237.5412
 259  319.2728
 260  261.6098
 261  179.6014
 262  154.336
 263  253.2745
 264  347.7688
 265  316.3336
 266  370.4611
 267  268.562
 268  257.0729
 269  157.6137
 270  67.5063
 271  106.9683
 272  379.2492
 273  373.005
 274  250.5406
 275  284.2329
 276  360.6561
 277  251.9899
 278  198.5723
 279  309.9117
 280  400.9218
 281  329.269
 282  380.7513
 283  356.4811
 284  186.4469
 285  129.0328
 286  325.1274
 287  257.8062
 288  134.5662
 289  203.6821
 290  325.4695
 291  204.7119
 292  256.7433
 293  298.6646
 294  152.3208
 295  116.8548
 296  229.0181
 297  473.9996
 298  459.651
 299  363.6042
 300  199.7189
 301  267.3363
 302  189.6038
 303  152.3424
 304  214.1038
 305  336.3719
 306  186.9357
 307  213.1296
 308  234.7354
 309  291.7285
 310  239.0651
 311  135.9485
 312  280.0314
 313  281.1154
 314  295.4967
 315  277.2029
 316  368.944
 317  209.2964
 318  76.92879
 319  32.85306
 320  242.0174
 321  159.74
 322  100.8435
 323  211.2944
 324  188.7482
 325  326.2007
 326  244.9895
 327  247.7236
 328  163.7973
 329  157.6698
 330  279.746
 331  281.5056
 332  181.7537
 333  186.8332
 334  231.9355
 335  260.0152
 336  290.0041
 337  276.6565
 338  271.0879
 339  132.9762
 340  172.7307
 341  324.0177
 342  223.445
 343  136.7617
 344  170.2847
 345  56.13576
 346  169.7085
 347  282.9522
 348  214.2936
 349  151.9536
 350  240.6278
 351  76.87067
 352  241.0366
 353  285.6491
 354  237.1782
 355  148.2994
 356  177.0187
 357  234.186
 358  205.3432
 359  209.5885
 360  188.5025
 361  147.1149
 362  288.1822
 363  316.148
 364  248.3257
 365  291.9113
 366  346.2499
 367  354.2521
 368  238.9061
 369  236.3354
 370  209.988
 371  184.7267
 372  205.3326
 373  255.0401
 374  162.7903
 375  139.2221
 376  91.80692
 377  143.5349
 378  274.601
 379  263.1132
 380  163.5222
 381  79.18417
 382  146.0559
 383  146.1213
 384  168.3092
 385  154.6171
 386  160.5814
 387  298.3735
 388  289.4132
 389  265.5419
 390  297.2346
 391  290.8394
 392  129.1472
 393  152.5982
 394  260.7121
 395  363.9052
 396  249.2261
 397  257.1832
 398  217.2267
 399  166.4293
 400  166.8961
 401  155.2736
 402  43.16988
 403  104.7375
 404  119.2977
 405  149.5483
 406  281.2575
 407  314.2093
 408  353.7273
 409  237.1675
 410  226.2844
 411  91.85703
 412  40.51004
 413  188.3946
 414  219.2796
 415  266.6162
 416  284.0009
 417  170.9237
 418  128.9094
 419  227.1836
 420  269.705
 421  381.2321
 422  260.7191
 423  268.2064
 424  298.7017
 425  120.2364
 426  170.5199
 427  166.42
 428  211.7435
 429  200.2789
 430  229.3201
 431  281.3086
 432  285.9417
 433  242.3556
 434  181.754
 435  165.0177
 436  151.8263
 437  303.5967
 438  248.1802
 439  334.7171
 440  188.6214
 441  59.82192
 442  122.7818
 443  181.4283
 444  264.9121
 445  264.8506
 446  346.638
 447  301.7795
 448  222.0091
 449  270.4591
 450  164.4699
 451  142.6422
 452  282.385
 453  152.3647
 454  58.55151
 455  45.2125
 456  183.5115
 457  137.7612
 458  99.55398
 459  162.7939
 460  186.2802
 461  238.8274
 462  208.7255
 463  188.6663
 464  207.2704
 465  185.6511
 466  212.3569
 467  186.3551
 468  79.59575
 469  150.4961
 470  166.3207
 471  127.1489
 472  185.5947
 473  204.6262
 474  80.84432
 475  93.49376
 476  267.7761
 477  184.115
 478  128.5459
 479  126.64
 480  154.3579
 481  283.1831
 482  334.5071
 483  115.8727
 484  164.776
 485  177.6269
 486  139.3993
 487  164.5264
 488  217.0106
 489  271.1579
 490  342.4104
 491  390.4408
 492  275.1031
 493  349.4786
 494  384.8954
 495  403.8484
 496  204.6187
 497  178.0607
 498  349.6126
 499  260.3661
 500  127.044
 501  161.7545
 502  235.2688
 503  274.2267
 504  370.3999
 505  360.711
 506  316.6565
 507  345.8737
 508  399.7928
 509  584.141
 510  787.1801
 511  893.0866
