# Input file       =  1200930286.110481_cleaned.dat
# Candidate        =  PSR_0332+5434
# Telescope        =  AR
# Epoch_topo       =  58143.656309149083
# Epoch_bary       =  N/A
# T_sample         =  0.002
# Data Folded      =  7340032
# Data Avg         =  0.0634893130991259
# Data StdDev      =  4.32887170741592 
# Profile Bins     =  1024
# Profile Avg      =  455.270650591096 
# Profile StdDev   =  366.499775850434 
# Reduced chi-sqr  =  0.671
# Prob(Noise)      <  1   (~0.0 sigma)
# P_topo (ms)      =  714.572978268553  +/- 0.000554
# P'_topo (s/s)    =  -0                +/- 2.93e-10
# P''_topo (s/s^2) =  0                 +/- 1.29e-13
# P_bary (ms)      =  N/A
# P'_bary (s/s)    =  N/A
# P''_bary (s/s^2) =  N/A
# P_orb (s)        =  N/A
# asin(i)/c (s)    =  N/A
# eccentricity     =  N/A
# w (rad)          =  N/A
# T_peri           =  N/A
######################################################
   0  672.4777
   1  575.913
   2  434.582
   3  499.436
   4  435.807
   5  442.0253
   6  539.1191
   7  533.8351
   8  556.8818
   9  571.2606
  10  640.2463
  11  711.3448
  12  636.275
  13  722.222
  14  709.6815
  15  537.895
  16  330.9859
  17  259.1137
  18  246.3556
  19  292.638
  20  279.9815
  21  335.6944
  22  393.8163
  23  524.0728
  24  733.9736
  25  824.1165
  26  786.3461
  27  838.7898
  28  747.1263
  29  605.4268
  30  357.2466
  31  283.8924
  32  291.5397
  33  256.9448
  34  331.2903
  35  421.4943
  36  372.6049
  37  460.8621
  38  473.3866
  39  624.9052
  40  558.3032
  41  501.065
  42  556.4011
  43  564.5397
  44  498.2547
  45  403.6499
  46  382.8372
  47  471.2177
  48  441.7132
  49  428.8705
  50  575.0411
  51  635.0981
  52  548.3796
  53  459.8697
  54  401.3138
  55  604.5997
  56  684.6987
  57  687.9821
  58  463.2764
  59  252.087
  60  233.9109
  61  261.3683
  62  379.9525
  63  492.226
  64  617.7161
  65  502.1802
  66  499.5731
  67  523.1398
  68  772.267
  69  733.5464
  70  676.037
  71  513.1122
  72  490.3772
  73  456.7547
  74  440.7676
  75  365.9834
  76  276.348
  77  175.7499
  78  119.6272
  79  151.2552
  80  213.0977
  81  425.3997
  82  472.5279
  83  521.2112
  84  488.8944
  85  429.8784
  86  401.7178
  87  339.5258
  88  412.8704
  89  483.1027
  90  465.7233
  91  372.1836
  92  500.9822
  93  522.606
  94  523.3748
  95  455.8316
  96  432.0016
  97  464.8613
  98  360.1021
  99  419.2538
 100  387.2176
 101  288.7325
 102  337.3006
 103  353.5475
 104  501.5923
 105  414.9306
 106  350.2735
 107  357.2668
 108  357.2929
 109  255.206
 110  272.8402
 111  263.1335
 112  368.4587
 113  578.6348
 114  617.4244
 115  609.8773
 116  472.2592
 117  366.6176
 118  463.6075
 119  494.8025
 120  464.8759
 121  441.7814
 122  393.5844
 123  503.6261
 124  462.6406
 125  361.3368
 126  382.1917
 127  427.4546
 128  513.9597
 129  468.895
 130  434.0074
 131  493.3253
 132  503.7012
 133  625.5033
 134  603.1938
 135  596.816
 136  558.8248
 137  650.316
 138  683.8951
 139  541.6763
 140  384.781
 141  305.1566
 142  399.6899
 143  515.3819
 144  532.6261
 145  557.4935
 146  647.8104
 147  478.1322
 148  239.8717
 149  205.2719
 150  282.1691
 151  373.8128
 152  419.1796
 153  534.0112
 154  547.2332
 155  530.7202
 156  387.0192
 157  387.904
 158  383.9743
 159  444.6695
 160  323.3156
 161  244.7906
 162  192.136
 163  86.96422
 164  74.76453
 165  186.005
 166  181.548
 167  151.5939
 168  114.8136
 169  146.6474
 170  200.0654
 171  263.6838
 172  322.0161
 173  304.3929
 174  195.9161
 175  269.9427
 176  313.4706
 177  300.5607
 178  335.1956
 179  237.9013
 180  247.1355
 181  132.5506
 182  191.2593
 183  215.5194
 184  178.8055
 185  146.1848
 186  240.5122
 187  259.8321
 188  448.0522
 189  450.0722
 190  539.6555
 191  427.1265
 192  338.6272
 193  229.6093
 194  172.0305
 195  98.3435
 196  130.9715
 197  168.2095
 198  289.2953
 199  344.6439
 200  392.4266
 201  515.8957
 202  616.1777
 203  630.821
 204  535.4205
 205  371.3023
 206  464.8128
 207  429.7961
 208  328.4914
 209  160.3791
 210  140.6702
 211  347.7985
 212  433.1556
 213  328.8871
 214  232.7859
 215  268.5236
 216  301.4172
 217  334.1322
 218  266.6536
 219  323.5149
 220  469.827
 221  430.8302
 222  383.3652
 223  186.7871
 224  332.1322
 225  348.0544
 226  310.0214
 227  239.58
 228  239.1076
 229  268.7546
 230  326.0805
 231  343.421
 232  337.9733
 233  351.9874
 234  323.3764
 235  343.0424
 236  461.3689
 237  421.9316
 238  390.5072
 239  279.6727
 240  339.8934
 241  241.4866
 242  251.8333
 243  404.2465
 244  388.0514
 245  448.8912
 246  460.3493
 247  505.2282
 248  529.8244
 249  373.3459
 250  447.9367
 251  509.1244
 252  581.6616
 253  583.523
 254  476.1256
 255  392.0355
 256  424.0229
 257  491.6353
 258  621.7382
 259  568.8256
 260  549.4972
 261  578.759
 262  582.449
 263  702.3715
 264  608.1076
 265  361.9201
 266  151.8563
 267  240.7457
 268  331.0025
 269  368.181
 270  228.0188
 271  311.4014
 272  571.2551
 273  650.8054
 274  604.4728
 275  392.1023
 276  366.2223
 277  309.808
 278  205.4917
 279  249.1791
 280  163.5397
 281  242.2029
 282  325.0995
 283  377.6308
 284  454.6316
 285  402.6417
 286  470.4184
 287  445.1696
 288  569.6589
 289  598.7845
 290  565.7449
 291  400.933
 292  300.0902
 293  277.6397
 294  262.3781
 295  463.4684
 296  594.5333
 297  542.7463
 298  387.1244
 299  312.1399
 300  472.6132
 301  457.1593
 302  371.9174
 303  311.3
 304  434.5451
 305  428.5473
 306  469.8243
 307  456.2224
 308  473.4797
 309  234.4066
 310  267.8872
 311  242.2695
 312  332.8152
 313  333.3964
 314  547.296
 315  561.8607
 316  663.7834
 317  622.5253
 318  708.4258
 319  636.1211
 320  512.4979
 321  560.1794
 322  588.4597
 323  680.4938
 324  594.4315
 325  576.7769
 326  473.894
 327  423.3223
 328  551.585
 329  676.3506
 330  620.8315
 331  555.8976
 332  571.4476
 333  559.1062
 334  518.6761
 335  533.7332
 336  548.0762
 337  600.8359
 338  640.476
 339  721.0479
 340  701.1553
 341  715.5911
 342  609.7317
 343  549.0982
 344  453.6254
 345  630.5128
 346  650.2156
 347  732.056
 348  618.4182
 349  609.2932
 350  801.5844
 351  741.867
 352  775.6812
 353  568.7583
 354  598.3698
 355  540.1202
 356  477.1661
 357  413.002
 358  368.5789
 359  296.9209
 360  503.7395
 361  558.4167
 362  589.4196
 363  595.9106
 364  580.3773
 365  681.3401
 366  658.6208
 367  710.2731
 368  646.3205
 369  476.3798
 370  446.63
 371  523.7653
 372  584.4442
 373  553.6102
 374  427.143
 375  451.8826
 376  392.5657
 377  360.041
 378  206.7991
 379  211.8264
 380  265.6391
 381  448.033
 382  565.7812
 383  661.8245
 384  618.7933
 385  567.7722
 386  518.2482
 387  476.2771
 388  453.3798
 389  426.5514
 390  471.993
 391  536.1141
 392  460.5832
 393  362.2623
 394  419.9464
 395  480.2829
 396  639.9695
 397  537.5381
 398  416.1714
 399  453.6595
 400  465.598
 401  487.1201
 402  428.4505
 403  427.5999
 404  398.753
 405  268.8908
 406  282.6415
 407  281.9091
 408  448.6293
 409  578.6038
 410  695.7335
 411  635.9475
 412  463.2016
 413  347.5482
 414  372.2121
 415  616.1733
 416  644.1181
 417  523.0675
 418  427.2762
 419  462.4779
 420  534.5614
 421  482.8779
 422  563.1574
 423  639.4951
 424  582.8759
 425  634.2762
 426  709.9055
 427  757.7881
 428  611.4117
 429  600.8739
 430  661.8344
 431  689.9815
 432  573.329
 433  595.1484
 434  613.8349
 435  617.6181
 436  665.6462
 437  728.584
 438  784.5417
 439  738.7767
 440  609.3777
 441  536.0377
 442  349.634
 443  425.1197
 444  501.4409
 445  642.9655
 446  771.4596
 447  820.9208
 448  815.8972
 449  710.7086
 450  591.8667
 451  636.5007
 452  558.0754
 453  486.1912
 454  430.0263
 455  357.8139
 456  427.2997
 457  645.2819
 458  753.0601
 459  796.4986
 460  669.3466
 461  713.1521
 462  710.9611
 463  733.4271
 464  644.3328
 465  606.4003
 466  463.59
 467  441.96
 468  356.0734
 469  417.4125
 470  454.0629
 471  435.1006
 472  618.4997
 473  614.1485
 474  527.0506
 475  328.656
 476  294.3102
 477  339.7115
 478  356.7236
 479  417.3436
 480  435.6003
 481  314.8593
 482  285.9059
 483  309.0666
 484  402.3578
 485  336.7232
 486  421.7113
 487  470.25
 488  618.5
 489  591.3409
 490  616.6003
 491  559.1829
 492  427.6063
 493  378.4243
 494  405.6435
 495  373.5692
 496  449.6534
 497  439.7298
 498  534.722
 499  456.0239
 500  384.6991
 501  366.4491
 502  365.2529
 503  386.6002
 504  407.489
 505  435.8549
 506  395.5466
 507  306.453
 508  279.5352
 509  242.2384
 510  177.5868
 511  239.1538
 512  286.4811
 513  316.2609
 514  344.0728
 515  282.139
 516  203.9388
 517  202.0646
 518  196.5801
 519  204.809
 520  109.5378
 521  125.8275
 522  323.9293
 523  258.2071
 524  263.9099
 525  224.5977
 526  215.0237
 527  245.2009
 528  297.4955
 529  541.7199
 530  533.4356
 531  391.9851
 532  391.9919
 533  294.5744
 534  233.1764
 535  176.6464
 536  319.9446
 537  402.1357
 538  255.0141
 539  188.6713
 540  221.7541
 541  288.4082
 542  348.4283
 543  349.3279
 544  283.6838
 545  235.8516
 546  284.015
 547  390.1649
 548  440.449
 549  379.6676
 550  433.2527
 551  472.662
 552  454.5431
 553  439.1339
 554  343.6642
 555  393.9114
 556  470.48
 557  640.0809
 558  794.2333
 559  754.5613
 560  691.8817
 561  680.5779
 562  536.1058
 563  426.1233
 564  258.0064
 565  379.7785
 566  517.03
 567  503.1275
 568  386.1936
 569  398.5817
 570  456.571
 571  481.4285
 572  426.8347
 573  374.4846
 574  491.6638
 575  477.7674
 576  479.6224
 577  395.9558
 578  343.1134
 579  486.133
 580  496.8103
 581  594.1152
 582  657.2326
 583  633.0135
 584  554.3201
 585  379.7585
 586  390.6147
 587  477.1742
 588  452.7175
 589  531.2386
 590  545.3442
 591  541.0596
 592  579.2492
 593  479.0603
 594  423.0145
 595  343.7568
 596  376.4909
 597  475.4347
 598  302.7707
 599  195.2251
 600  266.593
 601  463.6091
 602  575.16
 603  473.4705
 604  375.4232
 605  393.894
 606  518.6776
 607  591.1595
 608  725.1417
 609  691.4656
 610  797.8442
 611  999.1165
 612  1182.134
 613  1305.13
 614  1230.344
 615  1251.273
 616  1254.116
 617  1183.134
 618  1073.088
 619  926.9772
 620  894.8091
 621  617.692
 622  452.7178
 623  417.3715
 624  485.1029
 625  431.6252
 626  489.7597
 627  310.7105
 628  263.9391
 629  260.0427
 630  416.7101
 631  535.1449
 632  580.0984
 633  619.4045
 634  513.5118
 635  392.1389
 636  424.8261
 637  421.8867
 638  459.1899
 639  335.7264
 640  389.8193
 641  307.7372
 642  379.9977
 643  300.1517
 644  548.183
 645  576.764
 646  583.8527
 647  599.418
 648  533.8152
 649  459.2765
 650  421.3229
 651  432.1619
 652  505.7672
 653  442.5656
 654  343.7069
 655  386.1389
 656  347.2246
 657  556.4898
 658  576.5478
 659  612.0812
 660  525.5339
 661  434.4527
 662  604.444
 663  566.3987
 664  479.7144
 665  392.5276
 666  400.6935
 667  382.0876
 668  480.9584
 669  505.2351
 670  474.2606
 671  269.3857
 672  213.0216
 673  272.0717
 674  286.0891
 675  419.9467
 676  690.0648
 677  843.8234
 678  803.4198
 679  551.6379
 680  480.7429
 681  442.4008
 682  284.2372
 683  256.3998
 684  362.8716
 685  467.5117
 686  483.7019
 687  578.8386
 688  733.1586
 689  841.3047
 690  782.9241
 691  733.0981
 692  684.7772
 693  612.7395
 694  488.5099
 695  464.5589
 696  432.2994
 697  521.8802
 698  568.3159
 699  636.2151
 700  574.8619
 701  582.8994
 702  652.0177
 703  626.6039
 704  510.3951
 705  414.302
 706  444.5155
 707  614.0981
 708  634.1146
 709  638.5485
 710  651.5198
 711  609.6768
 712  617.9518
 713  452.0151
 714  392.7724
 715  472.8879
 716  483.3999
 717  575.7095
 718  511.1806
 719  516.2712
 720  454.5422
 721  323.6336
 722  325.7425
 723  287.476
 724  278.5056
 725  371.8969
 726  485.9221
 727  642.6559
 728  537.4824
 729  431.1987
 730  483.2758
 731  476.76
 732  371.3186
 733  348.4324
 734  561.3275
 735  606.9503
 736  403.4703
 737  362.273
 738  425.8447
 739  498.6839
 740  450.3793
 741  498.6407
 742  441.1562
 743  480.6076
 744  529.9282
 745  572.1005
 746  546.0851
 747  330.3108
 748  416.0876
 749  441.6794
 750  434.8562
 751  416.6009
 752  426.9711
 753  490.2843
 754  336.6003
 755  267.3647
 756  284.6556
 757  176.4456
 758  213.1735
 759  356.3921
 760  439.4507
 761  306.3253
 762  186.5858
 763  262.1933
 764  403.3208
 765  315.3161
 766  200.8351
 767  279.8359
 768  281.4091
 769  251.9878
 770  164.5453
 771  230.1289
 772  298.0041
 773  160.2121
 774  134.5711
 775  63.01473
 776  7.337231
 777  162.9327
 778  287.6283
 779  408.8657
 780  387.0315
 781  293.874
 782  241.9509
 783  182.7394
 784  80.80857
 785  90.68038
 786  55.0082
 787  198.9063
 788  268.1218
 789  406.0716
 790  511.0308
 791  474.5882
 792  295.9505
 793  267.9624
 794  381.1569
 795  545.0997
 796  493.0834
 797  379.2393
 798  354.6903
 799  369.6254
 800  495.7619
 801  466.4482
 802  448.0336
 803  408.192
 804  433.2206
 805  459.582
 806  366.4626
 807  290.1226
 808  254.5277
 809  399.0611
 810  462.8506
 811  496.0588
 812  281.3948
 813  215.7513
 814  355.7077
 815  525.5088
 816  589.1295
 817  492.4442
 818  506.76
 819  568.1973
 820  497.5497
 821  536.8512
 822  549.0451
 823  517.6066
 824  617.4315
 825  612.9453
 826  698.5737
 827  596.7252
 828  591.1309
 829  598.6026
 830  564.0717
 831  497.166
 832  559.6152
 833  625.4371
 834  605.3459
 835  499.0231
 836  320.1952
 837  302.7266
 838  182.726
 839  290.7007
 840  303.1728
 841  270.0674
 842  300.2674
 843  275.2801
 844  331.8683
 845  352.8127
 846  329.7561
 847  401.2345
 848  470.8308
 849  506.7592
 850  490.2238
 851  365.8928
 852  345.2939
 853  285.942
 854  181.0293
 855  252.1575
 856  254.0334
 857  368.8691
 858  419.2312
 859  427.6678
 860  403.2021
 861  434.0574
 862  443.7487
 863  600.0368
 864  499.474
 865  526.476
 866  348.765
 867  251.9411
 868  241.9818
 869  277.0501
 870  261.4141
 871  199.9345
 872  173.1025
 873  258.7407
 874  289.5083
 875  304.388
 876  376.5975
 877  477.6537
 878  549.7926
 879  646.1414
 880  583.8847
 881  424.1637
 882  351.2091
 883  322.0417
 884  488.089
 885  445.4299
 886  464.6535
 887  491.9107
 888  478.5591
 889  578.9575
 890  502.9385
 891  514.0578
 892  465.0307
 893  509.4411
 894  620.6074
 895  606.6033
 896  433.5336
 897  425.364
 898  339.4446
 899  333.9122
 900  338.927
 901  401.7687
 902  566.7891
 903  466.6787
 904  469.7797
 905  355.6859
 906  323.0848
 907  426.9389
 908  530.7594
 909  503.6861
 910  385.5226
 911  321.1284
 912  429.5696
 913  490.8958
 914  556.0403
 915  536.9595
 916  538.5337
 917  450.9257
 918  521.2192
 919  494.1699
 920  443.2597
 921  340.4982
 922  361.7776
 923  457.3349
 924  404.6526
 925  375.6806
 926  336.1664
 927  429.1292
 928  466.6082
 929  477.3191
 930  417.8358
 931  514.2186
 932  417.82
 933  565.4261
 934  524.5162
 935  720.997
 936  809.6161
 937  715.6317
 938  706.4231
 939  615.9832
 940  676.9754
 941  621.4529
 942  658.2287
 943  712.4158
 944  725.0632
 945  610.9171
 946  581.9462
 947  681.0995
 948  780.8958
 949  868.7114
 950  908.1412
 951  795.8822
 952  809.4326
 953  702.3746
 954  812.9889
 955  680.4526
 956  523.9005
 957  572.7522
 958  580.7247
 959  746.132
 960  668.6108
 961  681.925
 962  654.6343
 963  514.4984
 964  456.6486
 965  388.2188
 966  374.3802
 967  341.3321
 968  376.1558
 969  418.1956
 970  531.1232
 971  452.0817
 972  546.3817
 973  528.3229
 974  697.4478
 975  583.2784
 976  568.7528
 977  281.7915
 978  276.7377
 979  184.4778
 980  253.268
 981  304.3299
 982  443.7775
 983  441.7048
 984  421.9157
 985  302.6968
 986  189.1725
 987  230.3201
 988  357.5522
 989  420.5221
 990  336.3513
 991  316.8348
 992  299.9705
 993  283.8053
 994  264.1958
 995  329.5814
 996  340.9464
 997  298.0568
 998  235.3441
 999  244.4538
1000  243.7306
1001  352.208
1002  436.117
1003  627.9803
1004  597.2705
1005  529.8064
1006  505.5888
1007  476.4694
1008  412.7441
1009  347.0156
1010  411.9672
1011  474.4052
1012  500.3
1013  481.6752
1014  582.7702
1015  508.1846
1016  478.6339
1017  518.2308
1018  567.9927
1019  637.7849
1020  619.2852
1021  545.7497
1022  565.5979
1023  678.2045
