# Input file       =  1200083424.112911_cleaned.dat
# Candidate        =  PSR_0332+5434
# Telescope        =  AR
# Epoch_topo       =  58133.854665658691
# Epoch_bary       =  N/A
# T_sample         =  0.002
# Data Folded      =  7340032
# Data Avg         =  0.202355365450785
# Data StdDev      =  3.8785486993334  
# Profile Bins     =  256
# Profile Avg      =  5802.00463846351 
# Profile StdDev   =  656.747219602509 
# Reduced chi-sqr  =  0.802
# Prob(Noise)      <  0.991   (~0.0 sigma)
# P_topo (ms)      =  714.567490714795  +/- 0.0007
# P'_topo (s/s)    =  -0                +/- 3.69e-10
# P''_topo (s/s^2) =  0                 +/- 1.63e-13
# P_bary (ms)      =  N/A
# P'_bary (s/s)    =  N/A
# P''_bary (s/s^2) =  N/A
# P_orb (s)        =  N/A
# asin(i)/c (s)    =  N/A
# eccentricity     =  N/A
# w (rad)          =  N/A
# T_peri           =  N/A
######################################################
   0  5760.023
   1  5562.382
   2  5175.3
   3  5204.383
   4  5372.145
   5  5426.583
   6  5300.166
   7  5161.751
   8  5184.217
   9  5636.939
  10  5807.103
  11  5557.617
  12  6194.554
  13  6006.125
  14  5692.096
  15  5941.389
  16  5922.266
  17  5784.618
  18  5811.125
  19  6414.618
  20  6940.164
  21  6341.488
  22  6309.754
  23  6177.978
  24  6266.007
  25  6675.123
  26  5712.769
  27  5489.949
  28  5765.73
  29  5608.429
  30  5859.925
  31  5720.963
  32  5317.256
  33  5726.712
  34  6108.565
  35  6763.419
  36  5902.277
  37  5546.02
  38  5844.65
  39  6224.21
  40  5596.959
  41  5625.322
  42  5487.477
  43  5515.713
  44  5371.45
  45  5890.228
  46  5197.572
  47  5307.303
  48  5674.265
  49  6033.304
  50  5988.095
  51  5453.6
  52  5797.071
  53  6189.313
  54  5653.477
  55  5838.97
  56  5192.123
  57  5703.246
  58  5991.612
  59  5831.02
  60  5670.982
  61  5684.017
  62  5525.418
  63  6149.549
  64  5694.337
  65  5336.351
  66  5597.446
  67  5311.757
  68  5532.156
  69  5466.076
  70  5417.214
  71  5370.196
  72  5999.629
  73  5738.187
  74  6255.039
  75  5831.537
  76  5920.856
  77  6105.745
  78  7126.979
  79  6871.869
  80  6669.488
  81  6027.948
  82  6660.407
  83  6613.888
  84  5560.766
  85  6058.328
  86  6669.584
  87  6135.047
  88  5509.123
  89  5988.099
  90  5697.697
  91  5553.688
  92  5346.295
  93  5363.656
  94  5526.867
  95  5590.784
  96  4899.191
  97  4907.935
  98  5405.343
  99  5760.745
 100  5247.484
 101  5629.834
 102  5645.453
 103  5337.267
 104  5481.989
 105  5580.404
 106  5872.728
 107  5336.022
 108  5441.834
 109  5319.083
 110  4468.998
 111  5398.083
 112  5672.924
 113  5991.847
 114  6127.642
 115  5606.472
 116  5696.544
 117  5744.729
 118  5638.574
 119  6465.652
 120  6419.57
 121  6385.742
 122  6344.51
 123  6408.011
 124  5756.59
 125  5642.984
 126  5765.459
 127  5487.986
 128  5572.878
 129  5257.218
 130  6004.824
 131  5880.48
 132  5684.664
 133  5244.878
 134  5543.696
 135  6041.864
 136  6277.53
 137  5690.715
 138  4919.048
 139  5714.698
 140  5225.488
 141  4883.308
 142  4836.522
 143  5692.062
 144  6145.731
 145  5936.718
 146  6041.045
 147  5972.9
 148  5785.943
 149  5995.109
 150  5866.519
 151  5970.021
 152  6055.269
 153  7245.797
 154  9080.07
 155  8140.419
 156  6437.621
 157  6280.077
 158  6630.529
 159  6303.548
 160  6157.713
 161  6180.253
 162  5662.036
 163  5781.31
 164  5633.978
 165  5429.791
 166  4530.777
 167  5419.062
 168  5349.296
 169  6178.479
 170  5792.981
 171  5426.743
 172  6006.173
 173  5628.127
 174  4803.05
 175  5151.658
 176  5741.482
 177  6239.979
 178  5631.61
 179  5573.357
 180  5784.702
 181  6381.663
 182  5915.364
 183  5419.46
 184  5567.921
 185  5203.442
 186  5359.946
 187  4649.086
 188  5441.142
 189  5240.729
 190  4723.24
 191  5646.408
 192  6013.447
 193  5961.916
 194  5978.223
 195  6265.178
 196  5377.883
 197  6700.28
 198  5885.43
 199  5611.681
 200  6542.59
 201  5647.017
 202  5679.547
 203  5328.252
 204  5888.333
 205  6321.929
 206  6094.187
 207  5711.91
 208  5787.812
 209  5678.648
 210  5703.936
 211  5514.083
 212  5905.474
 213  5601.744
 214  5256.155
 215  5413.701
 216  5665.378
 217  5871.305
 218  5765.874
 219  5291.985
 220  5826.141
 221  5752.003
 222  5686.467
 223  5810.243
 224  6281.796
 225  6054.2
 226  6313.945
 227  6107.894
 228  5641.517
 229  6623.798
 230  6073.094
 231  5895.011
 232  5477.99
 233  5640.748
 234  5036.743
 235  5563.464
 236  5919.006
 237  6142.396
 238  5305.237
 239  5823.689
 240  6012.239
 241  5795.547
 242  5845.024
 243  6689.295
 244  5991.237
 245  5557.373
 246  6465.552
 247  5879.743
 248  5757.579
 249  5710.959
 250  6024.629
 251  6657.755
 252  6291.715
 253  6249.835
 254  6075.283
 255  5842.458
