# Input file       =  1200341954.115353-PSRB0329-2ms-sampling-dd.dat
# Candidate        =  PSR_0332+5434
# Telescope        =  AR
# Epoch_topo       =  58136.846911057328
# Epoch_bary       =  N/A
# T_sample         =  0.002
# Data Folded      =  7340032
# Data Avg         =  6.10900294587336e-10
# Data StdDev      =  83.6805167931613 
# Profile Bins     =  512
# Profile Avg      =  0.598784856158641
# Profile StdDev   =  10019.3223612222 
# Reduced chi-sqr  =  1.315
# Prob(Noise)      <  2.03e-06   (~4.6 sigma)
# P_topo (ms)      =  714.569433239074  +/- 0.000385
# P'_topo (s/s)    =  -0                +/- 2.03e-10
# P''_topo (s/s^2) =  0                 +/- 8.97e-14
# P_bary (ms)      =  N/A
# P'_bary (s/s)    =  N/A
# P''_bary (s/s^2) =  N/A
# P_orb (s)        =  N/A
# asin(i)/c (s)    =  N/A
# eccentricity     =  N/A
# w (rad)          =  N/A
# T_peri           =  N/A
######################################################
   0  13662.23
   1  9341.623
   2  -459.8831
   3  4458.556
   4  11152.36
   5  20558.34
   6  25150.15
   7  21038.2
   8  14385.54
   9  -2837.256
  10  -3092.937
  11  -2613.535
  12  -4431.159
  13  -3686.379
  14  -2579.663
  15  -2066.383
  16  -1192.534
  17  -424.307
  18  -1036.192
  19  -1475.984
  20  -4984.039
  21  -1692.341
  22  119.2781
  23  593.5336
  24  -143.992
  25  -684.0441
  26  -1325.5
  27  -3512.084
  28  -4103.713
  29  -4302.615
  30  -3752.216
  31  -3631.385
  32  -3628.9
  33  -3853.99
  34  -4519.269
  35  -4006.553
  36  -3587.848
  37  -3186.504
  38  -3251.624
  39  1150.666
  40  2320.314
  41  2348.365
  42  2824.772
  43  -2302.879
  44  -2445.453
  45  -312.6067
  46  4194.7
  47  5023.646
  48  6152.218
  49  3180.691
  50  1892.045
  51  1110.197
  52  -390.0851
  53  -307.4473
  54  1709.783
  55  1761.822
  56  1189.226
  57  4323.136
  58  4354.14
  59  3284.302
  60  3048.967
  61  1686.665
  62  -1957.26
  63  -4023.76
  64  -2596.566
  65  -3384.451
  66  -3868.502
  67  -3292.233
  68  -2711.306
  69  -2324.864
  70  -2341.691
  71  -3259.285
  72  -3415.932
  73  -2927.675
  74  -2538.546
  75  -2432.793
  76  -2440.338
  77  -3361.485
  78  -3063.501
  79  -3443.642
  80  -4104.278
  81  -4240.649
  82  -3844.283
  83  -2481.532
  84  -2827.517
  85  -3826.058
  86  -4213.964
  87  -3138.052
  88  -1683.751
  89  -946.7498
  90  -1168.279
  91  -9.647223
  92  709.8331
  93  -1482.245
  94  -491.6532
  95  -539.3848
  96  -429.841
  97  -441.4941
  98  -1752.1
  99  -3040.799
 100  -5095.869
 101  -3941.441
 102  -2422.774
 103  -1681.47
 104  -2583.746
 105  -2955.303
 106  -2989.169
 107  -3290.203
 108  -2855.686
 109  -2905.924
 110  -2559.72
 111  -1512.875
 112  -1514.27
 113  -1808.96
 114  -2921.616
 115  -2453.696
 116  -2000.93
 117  -1983.83
 118  -3623.438
 119  -3951.078
 120  -3727.434
 121  -1122.287
 122  -985.8501
 123  -1051.446
 124  -892.4883
 125  -2543.509
 126  -2287.777
 127  -3089.052
 128  -3899.738
 129  -4260.25
 130  -2931.634
 131  -2900.475
 132  -3554.808
 133  -4265.346
 134  -3474.451
 135  -3084.483
 136  -3472.935
 137  -3828.194
 138  -4575.716
 139  -4812.23
 140  -3711.768
 141  -3456.04
 142  -3225.378
 143  -3686.725
 144  -3299.622
 145  -3196.602
 146  -3212.532
 147  -3826.964
 148  -3999.159
 149  -3832.183
 150  -2023.467
 151  -2527.634
 152  -3218.006
 153  -3482.437
 154  -2957.791
 155  -1841.546
 156  -2804.142
 157  -4761.286
 158  -4395.605
 159  -3644.953
 160  -3437.733
 161  -3145.515
 162  -3268.911
 163  -3039.765
 164  -3345.893
 165  -3888.903
 166  -4154.868
 167  -4300.933
 168  -3084.667
 169  -2948.123
 170  -3045.537
 171  -3037.451
 172  -4686.555
 173  -3478.431
 174  -2213.378
 175  -1743.309
 176  -2000.775
 177  -1689.691
 178  -2007.714
 179  -362.098
 180  5558.035
 181  6837.908
 182  7428.094
 183  8403.664
 184  2640.181
 185  1702.537
 186  4603.043
 187  15458.17
 188  17836.97
 189  19520.17
 190  10674.05
 191  2423.6
 192  -2714.073
 193  -1808.253
 194  -1524.636
 195  -2697.229
 196  -2296.084
 197  -1909.351
 198  -1930.307
 199  -2234.558
 200  -2956.811
 201  -2981.568
 202  -3213.73
 203  -3339.825
 204  -2887.166
 205  -2779.494
 206  -3268.886
 207  -3676.585
 208  -3596.71
 209  -4489.083
 210  -5100.914
 211  -5459.653
 212  -4188.688
 213  -4223.545
 214  -3670.423
 215  -2578.138
 216  -2214.368
 217  -1329.188
 218  -641.6534
 219  -2256.148
 220  -4175.757
 221  -3041.323
 222  -1005.235
 223  -473.2771
 224  816.3916
 225  -625.6178
 226  -1584.688
 227  -4393.672
 228  -3648.556
 229  -4435.829
 230  -4313.853
 231  -3477.656
 232  -3114.658
 233  -3726.839
 234  -3778.091
 235  -3230.841
 236  -2617.405
 237  -3340.104
 238  -4355.834
 239  -4319.805
 240  -2560.668
 241  -1331.02
 242  -1618.049
 243  -2220.33
 244  -4391.874
 245  -3424.996
 246  -1141.244
 247  -775.7695
 248  -1341.424
 249  -1130.959
 250  -1623.757
 251  -2893.033
 252  -3361.075
 253  -3279.139
 254  540.8005
 255  15498.55
 256  17138.59
 257  17062.36
 258  14803
 259  -1352.342
 260  74.93255
 261  3199.688
 262  17922.53
 263  16310.89
 264  15084.94
 265  11983.22
 266  538.9063
 267  -2513.237
 268  -2317.382
 269  -2560.642
 270  -1903.535
 271  -1727.805
 272  -3752.888
 273  -3095.956
 274  -2134.136
 275  -1433.79
 276  -1465.825
 277  -2222.72
 278  -1872.287
 279  -1667.954
 280  -1523.206
 281  -1759.746
 282  -3139.256
 283  -3405
 284  -3581.851
 285  -619.663
 286  -588.6857
 287  -675.5557
 288  -54.54839
 289  -1577.528
 290  -2998.054
 291  -3889.914
 292  -4598.316
 293  -2149.596
 294  -638.2581
 295  283.9279
 296  983.9296
 297  407.8781
 298  -943.2264
 299  -3313.835
 300  -977.1312
 301  2038.791
 302  1228.974
 303  1197.914
 304  728.8562
 305  -3904.556
 306  -5111.465
 307  -5146.31
 308  -3846.781
 309  -2945.654
 310  -490.5503
 311  233.4392
 312  1562.161
 313  1639.694
 314  443.2258
 315  -2852.68
 316  -1974.048
 317  1453.482
 318  4271.308
 319  2730.994
 320  959.3261
 321  -1217.041
 322  -4191.267
 323  -3346.829
 324  -3372.076
 325  -3788.304
 326  -3521.019
 327  -3623.078
 328  -3829.038
 329  -4869.865
 330  -5009.827
 331  -4801.154
 332  -4003.306
 333  -3529.864
 334  -4051.451
 335  -4615.876
 336  -4005.041
 337  -4216.071
 338  -4467.834
 339  -4198.17
 340  -4735.745
 341  1902.639
 342  4548.991
 343  4699.541
 344  4722.988
 345  3362.349
 346  1738.829
 347  -5572.347
 348  95.76486
 349  5959.219
 350  9843.84
 351  11865.36
 352  9400.362
 353  1429.398
 354  -4494.519
 355  -4889.438
 356  -3832.231
 357  -4385.839
 358  -4947.295
 359  -4127.682
 360  -3651.31
 361  -3156.651
 362  -4305.904
 363  -4683.966
 364  -4509.284
 365  -4056.612
 366  -3606.969
 367  -3287.325
 368  -3824.615
 369  -4010.842
 370  -3280.594
 371  -4287.074
 372  -5589
 373  -4537.793
 374  -2506.956
 375  25.67709
 376  -796.314
 377  -1202.097
 378  -1236.228
 379  -4734.186
 380  -1933.032
 381  -687.105
 382  36.6744
 383  536.3644
 384  -46.12582
 385  -1554.767
 386  -3963.753
 387  -4413.352
 388  -4067.429
 389  -3348.088
 390  -3006.279
 391  -3981.045
 392  -4716.379
 393  -4749.147
 394  -4403.469
 395  -4168.634
 396  -3558.261
 397  -3777.001
 398  -3124.942
 399  -2625.41
 400  -3163.849
 401  -4139.812
 402  -3346.863
 403  -2309.002
 404  -1442.553
 405  -1861.885
 406  -2517.932
 407  -3217.892
 408  -3417.042
 409  -991.6878
 410  -1003.227
 411  -797.5013
 412  891.4895
 413  13.00038
 414  -1416.119
 415  -3922.149
 416  -3046.862
 417  -2796.958
 418  -3264.514
 419  -2984.46
 420  -2984.025
 421  -3382.212
 422  -2776.997
 423  -1808.291
 424  -2838.426
 425  -3197.412
 426  -3375.053
 427  -3558.989
 428  -3394.96
 429  -3150.708
 430  -5101.475
 431  -1928.827
 432  2739.366
 433  20554.88
 434  24484.15
 435  25265.25
 436  21709.28
 437  12356.22
 438  9842.731
 439  29948.14
 440  58346.96
 441  64543.52
 442  57723.3
 443  28459.47
 444  32293.77
 445  28411.68
 446  28045.76
 447  50526.91
 448  47809.49
 449  40804.99
 450  26868.04
 451  15498.95
 452  5687.632
 453  -5460.179
 454  -3781.012
 455  -3126.881
 456  -4332.667
 457  -3320.03
 458  -3757.323
 459  -4890.946
 460  -3824.39
 461  -3061.297
 462  -3712.517
 463  -3695.061
 464  -4090.96
 465  -4039.6
 466  -3333.518
 467  -3903.965
 468  -3894.386
 469  -4310.565
 470  -4424.516
 471  -3880.77
 472  -3489.662
 473  -4453.833
 474  -4107.215
 475  -3163.831
 476  -2077.146
 477  -3211.877
 478  -4289.593
 479  -4098.964
 480  -3696.109
 481  -3663.905
 482  -3858.162
 483  -4879.741
 484  -4630.442
 485  -3623.492
 486  -3128.318
 487  -4688.443
 488  -4599.135
 489  -4330.167
 490  -4329.195
 491  -3744.375
 492  -4952.854
 493  -3431.062
 494  385.2091
 495  3058.804
 496  3854.886
 497  5510.411
 498  1930.42
 499  -954.7057
 500  -2339.736
 501  4539.686
 502  5120.366
 503  5155.721
 504  5337.25
 505  -537.4021
 506  -2690.689
 507  -3800.497
 508  -2457.025
 509  5318.91
 510  10063.21
 511  11433.24
