# Input file       =  1200169617.116321_cleaned.dat
# Candidate        =  PSR_0332+5434
# Telescope        =  AR
# Epoch_topo       =  58134.852269864830
# Epoch_bary       =  N/A
# T_sample         =  0.002
# Data Folded      =  7340032
# Data Avg         =  1.32548223514979 
# Data StdDev      =  9.9315986167488  
# Profile Bins     =  512
# Profile Avg      =  18998.9853079863 
# Profile StdDev   =  1189.14045845862 
# Reduced chi-sqr  =  0.527
# Prob(Noise)      <  1   (~0.0 sigma)
# P_topo (ms)      =  714.56815397782   +/- 4.92e-05
# P'_topo (s/s)    =  -0                +/- 2.59e-11
# P''_topo (s/s^2) =  0                 +/- 1.15e-14
# P_bary (ms)      =  N/A
# P'_bary (s/s)    =  N/A
# P''_bary (s/s^2) =  N/A
# P_orb (s)        =  N/A
# asin(i)/c (s)    =  N/A
# eccentricity     =  N/A
# w (rad)          =  N/A
# T_peri           =  N/A
######################################################
   0  18884.45
   1  18132.03
   2  17222.29
   3  18032.98
   4  19804.01
   5  18883.5
   6  17800.41
   7  17827.62
   8  18401.73
   9  18585.53
  10  17641.96
  11  18927.72
  12  18273.86
  13  18209.17
  14  19085.64
  15  19215.03
  16  18022.24
  17  17952.84
  18  18813.28
  19  19234.8
  20  18430.32
  21  19355.42
  22  20022.25
  23  19090.64
  24  19376.37
  25  19580.85
  26  19313.03
  27  19070.78
  28  19353.62
  29  19657.79
  30  18829.28
  31  19296.6
  32  19343.3
  33  19478.92
  34  18653.4
  35  17887.54
  36  18324.83
  37  18809.43
  38  18851.24
  39  19305.38
  40  19408.09
  41  19622.13
  42  19555.74
  43  18893.47
  44  17711.38
  45  17340.76
  46  18232.03
  47  19410.64
  48  19416.87
  49  17946.61
  50  18206.04
  51  18504.54
  52  18847.72
  53  18536.75
  54  18853.17
  55  19195.02
  56  18668.01
  57  18323.66
  58  18521.13
  59  19095.19
  60  18277.55
  61  18789.71
  62  19179.99
  63  18711.75
  64  18379.94
  65  19403.24
  66  19662.65
  67  19503.38
  68  18750.16
  69  18527.83
  70  18968.77
  71  19520.77
  72  19110.92
  73  18160.29
  74  19089.48
  75  18714.45
  76  19136.83
  77  18726.52
  78  18889.88
  79  18991.43
  80  18861.61
  81  18986.33
  82  19476.03
  83  18844.5
  84  18820.16
  85  19250.52
  86  19091.93
  87  18473.87
  88  18061.04
  89  17827.07
  90  19461.46
  91  18839.02
  92  19198.02
  93  20278.4
  94  20416.08
  95  18715.24
  96  18304.1
  97  18409.79
  98  18073.88
  99  19019.5
 100  18692.25
 101  18706.11
 102  18729.19
 103  19597.65
 104  18687.78
 105  17670.48
 106  18426.59
 107  19223.8
 108  18949.44
 109  19023.2
 110  19471.57
 111  18266.12
 112  17812
 113  19118.06
 114  19928.17
 115  19648.92
 116  19300.11
 117  19874.57
 118  19461.18
 119  19586.51
 120  19319.72
 121  18876.17
 122  18581.07
 123  18220.13
 124  18921.73
 125  19254.93
 126  18482.88
 127  18185.66
 128  18292.76
 129  19492.36
 130  18779.4
 131  18311.5
 132  18185.39
 133  18102.72
 134  18711.89
 135  19307.51
 136  19637.58
 137  19429.91
 138  18565.96
 139  19492.12
 140  19717.38
 141  18962.17
 142  19303.9
 143  20170.91
 144  19682.37
 145  18528.8
 146  18798.46
 147  19113.27
 148  18808.72
 149  17510.93
 150  18319.8
 151  19414.03
 152  18642.17
 153  18901.85
 154  19542.79
 155  19203.32
 156  19204.7
 157  19830.57
 158  19249.8
 159  18830.88
 160  19417.36
 161  19750.13
 162  19961.89
 163  19113.4
 164  19454.59
 165  18981.44
 166  18718.18
 167  18594.23
 168  18743.96
 169  18373.31
 170  17387.16
 171  18113.11
 172  19353.24
 173  18406.17
 174  18167.32
 175  19067.32
 176  18806.62
 177  18580.52
 178  18576.27
 179  18907.67
 180  19419.17
 181  19496.53
 182  20019.27
 183  19991.74
 184  19519.91
 185  18391.46
 186  18960.05
 187  19229.79
 188  18690.57
 189  18839.34
 190  20183.38
 191  19676.52
 192  19512.06
 193  19450
 194  18903.05
 195  19052.16
 196  19388.74
 197  20030.84
 198  19687.57
 199  19458.03
 200  19360.64
 201  18628.47
 202  18213.63
 203  19599.01
 204  20241.31
 205  19993.27
 206  18939.69
 207  19259.33
 208  18883.15
 209  18969.4
 210  19720.19
 211  19830.23
 212  18902.82
 213  18886.26
 214  19154.55
 215  20072.77
 216  19829.39
 217  19598.21
 218  20395.44
 219  19895
 220  18764.07
 221  18522.26
 222  18517.03
 223  19130.12
 224  19665.52
 225  19887.86
 226  19518.17
 227  19432.77
 228  19475.47
 229  20111.41
 230  20183.39
 231  19032.7
 232  18397.46
 233  18844.59
 234  19104.7
 235  18156.87
 236  18315.87
 237  18531.86
 238  18818.47
 239  19673.88
 240  20066.21
 241  18797.03
 242  18530.18
 243  19026.89
 244  19527.41
 245  18767.39
 246  18806.55
 247  19572
 248  19893
 249  19989.58
 250  19473.6
 251  18767.66
 252  19141.92
 253  19269.64
 254  19131.01
 255  18709.09
 256  18607.71
 257  19058.4
 258  18998.16
 259  18322.96
 260  18757.47
 261  19358.42
 262  20174.08
 263  19874.6
 264  18770.35
 265  18840.53
 266  18995.2
 267  18541.35
 268  19364.56
 269  19448.74
 270  19378.92
 271  19206.71
 272  19620.58
 273  19623.39
 274  19315.99
 275  19591.32
 276  20096.92
 277  19866.76
 278  19830.76
 279  20392.09
 280  19461.84
 281  18871.86
 282  18866.67
 283  18202.09
 284  18483.14
 285  19634.14
 286  19252.12
 287  18741.43
 288  18026.36
 289  18947.87
 290  18902
 291  19256.87
 292  19493.14
 293  19870.04
 294  19455.8
 295  18843.4
 296  18542.58
 297  19759.89
 298  19560.73
 299  19860.84
 300  19771.67
 301  19378.54
 302  18640.4
 303  19537.32
 304  20230.82
 305  20442.91
 306  19623.3
 307  20072.13
 308  20623.23
 309  20954.84
 310  20619.39
 311  20550.66
 312  20202.52
 313  19462.64
 314  18797.53
 315  19241.45
 316  19406.07
 317  19218.29
 318  18831.34
 319  19398.11
 320  18771.16
 321  18796.98
 322  19144.57
 323  19427.02
 324  18564.85
 325  19461.19
 326  19160.08
 327  18617.36
 328  18943.37
 329  19396.51
 330  19280.62
 331  18891.89
 332  19421.3
 333  19290.22
 334  19014.05
 335  18535.23
 336  19812.57
 337  20085.51
 338  19814.32
 339  19566.29
 340  19720.91
 341  19226.16
 342  19060.21
 343  19511.53
 344  20025.88
 345  19665.26
 346  19920.86
 347  19856.36
 348  19671.7
 349  19627.78
 350  19072.29
 351  19583.72
 352  19454.24
 353  19025.66
 354  19262.12
 355  19500.45
 356  18376.37
 357  19237.21
 358  20073.37
 359  19683.12
 360  19461.58
 361  19386.79
 362  19219.48
 363  19855.89
 364  19805.08
 365  19834.19
 366  19526.17
 367  18654.19
 368  18733.07
 369  19222.1
 370  19389.32
 371  18428.44
 372  18116.96
 373  19107.43
 374  18596.26
 375  19082.95
 376  19342.43
 377  18466.19
 378  18319.58
 379  18088.58
 380  18052.37
 381  18365.86
 382  18918.88
 383  18857.86
 384  18333.78
 385  18889.55
 386  19110.37
 387  18999.84
 388  18239.76
 389  18502.07
 390  18808.61
 391  18549.74
 392  18360.19
 393  19375.85
 394  19486.98
 395  18331.17
 396  17916.89
 397  18850.04
 398  19450.76
 399  18840.05
 400  17932.6
 401  18255.59
 402  19155.64
 403  18055.69
 404  18602.81
 405  19904.9
 406  19376.35
 407  19261.29
 408  19477.16
 409  18293.69
 410  18675.55
 411  18718.95
 412  19304.04
 413  19028.46
 414  18830.54
 415  17581.77
 416  18565.1
 417  17932.56
 418  18933.35
 419  19393.05
 420  18723.55
 421  19110.17
 422  19452.91
 423  18636.06
 424  18404.7
 425  19779.96
 426  19931.98
 427  18868.25
 428  18691.2
 429  18940.49
 430  19031.99
 431  18093.28
 432  18287.53
 433  18529.9
 434  18660.52
 435  19179.78
 436  19136.26
 437  18745.36
 438  18866.32
 439  18644.26
 440  18702.34
 441  18139.02
 442  18614.65
 443  19173.23
 444  19018.52
 445  17673.08
 446  17830.79
 447  18584.19
 448  18501.14
 449  18512.4
 450  18730.79
 451  18913.32
 452  18988.04
 453  19499
 454  19113.15
 455  18418.07
 456  18323.11
 457  18492.69
 458  18922.36
 459  19611.52
 460  18450.22
 461  18289.59
 462  18904.02
 463  18437.98
 464  18215.2
 465  17798.96
 466  17336.66
 467  17910.96
 468  19607.65
 469  19535.73
 470  18355.36
 471  18689.74
 472  19071.52
 473  19062.57
 474  19409.51
 475  18687.86
 476  18314.39
 477  18061.67
 478  18636.6
 479  19305.12
 480  18402.29
 481  18040.86
 482  18232.34
 483  18521.57
 484  19139.8
 485  17838.6
 486  17266.33
 487  18319.24
 488  18537.95
 489  18012.56
 490  18333.23
 491  19227.58
 492  19038.53
 493  18872.23
 494  19839.3
 495  18876.66
 496  18981.62
 497  19722.17
 498  19747.4
 499  17999.71
 500  18674.87
 501  19024.31
 502  19479.99
 503  18516
 504  18479.43
 505  18054.42
 506  18516.09
 507  19082.39
 508  19269.47
 509  18687.57
 510  18055.73
 511  17816.87
