# Input file       =  1200656871.114483_cleaned.dat
# Candidate        =  PSR_0332+5434
# Telescope        =  AR
# Epoch_topo       =  58140.491783732446
# Epoch_bary       =  N/A
# T_sample         =  0.002
# Data Folded      =  7274496
# Data Avg         =  0.0204814072485531
# Data StdDev      =  1.00011032782771 
# Profile Bins     =  512
# Profile Avg      =  291.090798670014 
# Profile StdDev   =  119.210466186888 
# Reduced chi-sqr  =  1.589
# Prob(Noise)      <  4.65e-16   (~8.0 sigma)
# P_topo (ms)      =  714.571257727333  +/- 0.000161
# P'_topo (s/s)    =  -0                +/- 8.59e-11
# P''_topo (s/s^2) =  0                 +/- 3.83e-14
# P_bary (ms)      =  N/A
# P'_bary (s/s)    =  N/A
# P''_bary (s/s^2) =  N/A
# P_orb (s)        =  N/A
# asin(i)/c (s)    =  N/A
# eccentricity     =  N/A
# w (rad)          =  N/A
# T_peri           =  N/A
######################################################
   0  443.7475
   1  434.3029
   2  338.2908
   3  373.2522
   4  365.002
   5  374.9685
   6  226.4793
   7  350.8733
   8  489.4507
   9  382.0743
  10  303.5159
  11  167.6333
  12  306.1271
  13  334.6431
  14  405.9287
  15  280.5107
  16  274.4121
  17  252.2771
  18  185.3823
  19  253.1396
  20  267.8885
  21  277.8705
  22  204.4469
  23  214.5244
  24  342.4619
  25  274.8348
  26  289.8674
  27  364.8557
  28  440.0641
  29  379.8305
  30  263.5856
  31  358.0153
  32  329.5858
  33  268.3361
  34  230.1213
  35  246.1295
  36  365.9508
  37  313.6176
  38  276.3218
  39  432.4875
  40  430.1694
  41  218.1043
  42  184.1256
  43  226.6762
  44  342.4135
  45  303.8862
  46  375.4823
  47  317.0816
  48  187.2787
  49  249.541
  50  213.6418
  51  217.4201
  52  398.993
  53  633.7091
  54  801.8312
  55  957.835
  56  1087.727
  57  1046.592
  58  840.0377
  59  650.7128
  60  410.3784
  61  256.8068
  62  342.8775
  63  336.8751
  64  416.4285
  65  383.8956
  66  360.772
  67  442.5566
  68  350.2794
  69  333.0362
  70  527.3891
  71  538.734
  72  371.6752
  73  239.549
  74  178.2032
  75  254.8689
  76  238.8046
  77  237.9255
  78  296.7588
  79  136.8937
  80  211.6631
  81  219.4858
  82  142.7346
  83  127.6281
  84  239.7288
  85  359.1007
  86  321.8942
  87  230.1393
  88  334.683
  89  287.2102
  90  193.3581
  91  357.9523
  92  454.0278
  93  244.9569
  94  176.8384
  95  299.6746
  96  372.134
  97  329.983
  98  364.0369
  99  326.6133
 100  235.9727
 101  247.8926
 102  343.3182
 103  325.7559
 104  266.5796
 105  272.1187
 106  360.4466
 107  357.3312
 108  248.9062
 109  282.4314
 110  214.096
 111  314.6938
 112  436.7516
 113  314.8068
 114  294.9453
 115  352.3671
 116  385.589
 117  269.0886
 118  254.0951
 119  199.5753
 120  184.7492
 121  192.7586
 122  217.9222
 123  209.1419
 124  232.3221
 125  311.921
 126  313.4537
 127  315.1725
 128  389.9805
 129  325.6708
 130  344.8616
 131  254.2808
 132  264.7499
 133  310.2572
 134  363.1782
 135  391.5579
 136  315.2935
 137  313.4942
 138  491.8061
 139  466.1826
 140  312.7765
 141  377.2482
 142  344.5185
 143  368.5523
 144  375.3935
 145  319.6717
 146  303.378
 147  270.6839
 148  249.872
 149  329.2779
 150  394.6048
 151  429.795
 152  344.3638
 153  410.8725
 154  296.5706
 155  282.4889
 156  293.7473
 157  249.3945
 158  176.2894
 159  189.2248
 160  297.6902
 161  240.0634
 162  236.6078
 163  422.8425
 164  272.4521
 165  226.1382
 166  193.0011
 167  109.9978
 168  214.0118
 169  363.1862
 170  349.3046
 171  239.0582
 172  268.8844
 173  274.9695
 174  227.3925
 175  161.4552
 176  326.3298
 177  430.9286
 178  386.4619
 179  341.0264
 180  363.9527
 181  322.1544
 182  174.2678
 183  64.62096
 184  143.5941
 185  173.379
 186  178.4685
 187  274.2794
 188  290.4486
 189  366.718
 190  273.4987
 191  204.7843
 192  222.513
 193  212.9731
 194  270.2834
 195  329.04
 196  252.9251
 197  232.7133
 198  243.4627
 199  277.9475
 200  333.0404
 201  373.9527
 202  305.2092
 203  283.9841
 204  206.7726
 205  269.1749
 206  321.7718
 207  224.9312
 208  346.5082
 209  450.0562
 210  351.5474
 211  336.8052
 212  360.4649
 213  406.5518
 214  349.4625
 215  264.8895
 216  285.2774
 217  386.0367
 218  374.6647
 219  298.1775
 220  338.9319
 221  300.481
 222  249.7173
 223  340.7477
 224  281.3558
 225  160.1075
 226  273.3561
 227  304.4736
 228  273.1825
 229  359.4655
 230  339.623
 231  196.8535
 232  220.7672
 233  252.8559
 234  296.0061
 235  512.2883
 236  353.8286
 237  304.1597
 238  248.4257
 239  345.5503
 240  353.6191
 241  357.1507
 242  431.0197
 243  376.8936
 244  337.4108
 245  378.5696
 246  400.8123
 247  317.9597
 248  316.5797
 249  328.5872
 250  298.4919
 251  98.69785
 252  246.3544
 253  362.4153
 254  310.0484
 255  312.2022
 256  217.141
 257  252.6401
 258  258.4014
 259  65.97508
 260  197.6238
 261  270.3687
 262  270.1092
 263  223.2157
 264  118.563
 265  192.0246
 266  175.3552
 267  110.928
 268  230.3484
 269  178.4172
 270  234.6175
 271  222.0246
 272  94.24922
 273  146.954
 274  221.2079
 275  277.8879
 276  350.1672
 277  283.1111
 278  369.0147
 279  236.4497
 280  155.9871
 281  214.3686
 282  241.5683
 283  315.5891
 284  242.0017
 285  251.8842
 286  262.1153
 287  338.3372
 288  241.5371
 289  325.3328
 290  408.0742
 291  341.0068
 292  274.4778
 293  314.982
 294  435.8994
 295  490.4962
 296  431.4594
 297  359.5767
 298  305.1638
 299  348.3854
 300  503.2134
 301  285.5884
 302  286.3356
 303  252.6121
 304  287.4907
 305  175.3246
 306  207.3931
 307  206.8751
 308  261.0492
 309  296.4164
 310  427.3345
 311  304.0192
 312  290.0094
 313  364.5476
 314  192.4162
 315  182.8475
 316  176.1136
 317  223.7086
 318  268.9403
 319  244.0767
 320  265.2893
 321  328.5686
 322  140.9497
 323  246.9482
 324  190.5869
 325  195.8029
 326  233.626
 327  208.9756
 328  144.6644
 329  240.1983
 330  244.4847
 331  230.9859
 332  222.1879
 333  222.5858
 334  195.2089
 335  364.2786
 336  273.1667
 337  251.2341
 338  305.539
 339  253.9746
 340  307.3539
 341  364.9735
 342  329.4741
 343  285.9438
 344  304.2358
 345  427.9591
 346  442.2788
 347  330.2542
 348  330.0312
 349  279.4342
 350  185.2017
 351  168.3513
 352  321.8329
 353  331.197
 354  280.3102
 355  203.5785
 356  222.3912
 357  183.647
 358  229.6798
 359  229.4524
 360  216.9733
 361  215.927
 362  230.1521
 363  257.649
 364  322.9935
 365  374.608
 366  213.9491
 367  55.1478
 368  125.7443
 369  235.0676
 370  321.8647
 371  250.4228
 372  168.6965
 373  92.50668
 374  138.5397
 375  176.6896
 376  293.8504
 377  321.1799
 378  318.3272
 379  180.9202
 380  119.4727
 381  175.1215
 382  177.1906
 383  277.0432
 384  222.4952
 385  227.8235
 386  247.0918
 387  248.6513
 388  157.5498
 389  128.7095
 390  162.1133
 391  233.0905
 392  288.4065
 393  301.471
 394  356.159
 395  211.7792
 396  277.8072
 397  283.7851
 398  245.9325
 399  112.9495
 400  107.8866
 401  140.8052
 402  320.8523
 403  305.7161
 404  151.9058
 405  193.5005
 406  251.0322
 407  311.0422
 408  184.7914
 409  248.5856
 410  263.1567
 411  94.72541
 412  140.0666
 413  339.9328
 414  213.0652
 415  191.265
 416  254.3482
 417  344.5662
 418  403.9192
 419  397.0808
 420  316.8487
 421  239.123
 422  215.8213
 423  372.6099
 424  327.7068
 425  423.8571
 426  289.7245
 427  287.2501
 428  315.1046
 429  222.0152
 430  288.325
 431  324.6447
 432  307.8404
 433  283.4946
 434  222.5846
 435  368.7156
 436  230.9153
 437  307.4497
 438  343.5369
 439  189.9317
 440  221.4393
 441  285.1328
 442  268.4172
 443  280.8819
 444  276.1258
 445  218.6467
 446  338.1618
 447  346.0898
 448  374.2644
 449  220.3295
 450  289.3621
 451  399.7263
 452  278.2685
 453  350.646
 454  206.4854
 455  218.073
 456  282.8463
 457  367.0864
 458  367.015
 459  338.477
 460  417.3377
 461  514.5443
 462  272.7979
 463  126.5891
 464  200.2621
 465  132.5991
 466  -5.136529
 467  172.7789
 468  272.5867
 469  336.6373
 470  387.1917
 471  190.7188
 472  256.9315
 473  202.4977
 474  219.5885
 475  414.7823
 476  191.3178
 477  190.2074
 478  230.2843
 479  335.4618
 480  186.8163
 481  229.7109
 482  335.6729
 483  419.7023
 484  388.9514
 485  318.6906
 486  314.1245
 487  235.1015
 488  276.4405
 489  289.9156
 490  219.6409
 491  225.4426
 492  259.7277
 493  270.7617
 494  215.2712
 495  256.8661
 496  241.141
 497  200.5958
 498  169.9172
 499  206.2169
 500  402.3781
 501  379.1973
 502  327.8514
 503  344.336
 504  343.9714
 505  330.4786
 506  237.7114
 507  366.5132
 508  421.5751
 509  359.6766
 510  429.2879
 511  416.6148
