# Input file       =  1200484724.120746-PSRB0329-2ms-sampling-dd.dat
# Candidate        =  PSR_0332+5434
# Telescope        =  AR
# Epoch_topo       =  58138.499341675299
# Epoch_bary       =  N/A
# T_sample         =  0.002
# Data Folded      =  7208960
# Data Avg         =  -7.34764114687192e-09
# Data StdDev      =  340.004365246536 
# Profile Bins     =  512
# Profile Avg      =  0.0471418705443234
# Profile StdDev   =  40344.6377463565 
# Reduced chi-sqr  =  0.922
# Prob(Noise)      <  0.896   (~0.0 sigma)
# P_topo (ms)      =  714.570094877248  +/- 0.000219
# P'_topo (s/s)    =  -0                +/- 1.18e-10
# P''_topo (s/s^2) =  0                 +/- 5.3e-14
# P_bary (ms)      =  N/A
# P'_bary (s/s)    =  N/A
# P''_bary (s/s^2) =  N/A
# P_orb (s)        =  N/A
# asin(i)/c (s)    =  N/A
# eccentricity     =  N/A
# w (rad)          =  N/A
# T_peri           =  N/A
######################################################
   0  34762.6
   1  24975.25
   2  13473.88
   3  -1158.522
   4  -5134.266
   5  -21458.33
   6  -30668.39
   7  -29231.99
   8  -30854.38
   9  -33218.54
  10  -30540.14
  11  -31817.03
  12  -27650.84
  13  -3026.999
  14  14074.48
  15  20563.94
  16  19756.13
  17  5298.146
  18  -12864.5
  19  -35569.12
  20  32537.41
  21  54084.3
  22  77701.8
  23  76755.68
  24  42400.46
  25  18840.35
  26  -25265.66
  27  4125.392
  28  44125.7
  29  62037.07
  30  59404.51
  31  53163.91
  32  21714.79
  33  -3155.801
  34  1574.393
  35  31804.81
  36  42174.27
  37  38042.75
  38  28106.09
  39  -995.3556
  40  -16147.75
  41  -9654.543
  42  558.5101
  43  -944.0052
  44  -4553.79
  45  -12708.65
  46  -28612.74
  47  -28157.7
  48  -26180.38
  49  -17809.05
  50  -14323.69
  51  -14272.99
  52  -13684.07
  53  -20842.18
  54  -31227.23
  55  -20264.76
  56  -12024.47
  57  -6059.731
  58  -5546.6
  59  -12522.57
  60  -19256.75
  61  -28389.21
  62  -26249.23
  63  -27164.91
  64  -28581.84
  65  -28589.73
  66  -28810.38
  67  -28835.71
  68  -27651.88
  69  -28678.4
  70  -21495.05
  71  -15810.23
  72  -7675.775
  73  -2873.228
  74  -4383.404
  75  -10314.12
  76  -22664.51
  77  -20212.56
  78  -16275.84
  79  -8927.05
  80  -6854.742
  81  -8259.877
  82  -18272.49
  83  -25114.21
  84  -28132.02
  85  -31373.82
  86  -30482.89
  87  -30973.72
  88  -31887.79
  89  -30984.16
  90  -31304.02
  91  -32000.6
  92  -30954.79
  93  -32512.34
  94  -28899.1
  95  -17325.97
  96  -6754.182
  97  -7919.841
  98  -9332.746
  99  -13437.66
 100  -26980.52
 101  -31762.19
 102  -8825.275
 103  -9642.481
 104  11341.93
 105  26595.48
 106  22936.02
 107  15603.94
 108  4390.111
 109  -9910.875
 110  -28462.06
 111  -2800.992
 112  21361.15
 113  32052.84
 114  32174.68
 115  30254.3
 116  7340.57
 117  26167.12
 118  24185.79
 119  25238.5
 120  35936.68
 121  21330.34
 122  22092.36
 123  26493.82
 124  58467.25
 125  43916.16
 126  43008.14
 127  51834.56
 128  19112.91
 129  5760.985
 130  -2567.097
 131  -19976.75
 132  -23204.25
 133  -23902.38
 134  -17631.11
 135  -8314.183
 136  -7680.929
 137  -12362.8
 138  -12983.29
 139  -21925.05
 140  -32526.32
 141  -22431.33
 142  -12139.2
 143  -3688.392
 144  -1845.918
 145  -11330.73
 146  -20546.57
 147  -32447.98
 148  -31998.68
 149  -33347.95
 150  -33781.68
 151  -32043.08
 152  -32848.61
 153  -32571.62
 154  -31844.54
 155  -32923.31
 156  -32878.2
 157  -32030.46
 158  -31366.25
 159  -29853.75
 160  -25425.36
 161  -15770.63
 162  5308.195
 163  20931.31
 164  21180.01
 165  16268.69
 166  -787.8773
 167  -16493.81
 168  -5460.396
 169  11792.03
 170  28264.9
 171  20350.12
 172  7899.219
 173  -8983.885
 174  -30212.78
 175  -31379.5
 176  15028.19
 177  29771.73
 178  39699.44
 179  38227.13
 180  13388.39
 181  -6384.804
 182  -31694.91
 183  27410.04
 184  45423.7
 185  56566.88
 186  52956.39
 187  19182.82
 188  -9401.787
 189  -31598.83
 190  -28010.27
 191  -27278.5
 192  -30278.95
 193  -30721.26
 194  -31548.61
 195  -28494.81
 196  -27696.55
 197  -26326.01
 198  -25960.75
 199  -21830.7
 200  3556.77
 201  16345.69
 202  19360.98
 203  15641.07
 204  844.6268
 205  -21239.07
 206  -15323.18
 207  4731.002
 208  20927.75
 209  15870.44
 210  7064.133
 211  -4376.483
 212  -28910.51
 213  -28466.59
 214  -29639.22
 215  -31565.62
 216  -31290.88
 217  -31535.49
 218  -31699.65
 219  -30117.89
 220  -30719.85
 221  -30713.37
 222  -30644.7
 223  -31693.58
 224  -32093.58
 225  -32262.53
 226  -32743.08
 227  -31445.9
 228  -28308.17
 229  -23693.77
 230  -6437.267
 231  6254.012
 232  20740.19
 233  33015.79
 234  19362.43
 235  21614.12
 236  15456.83
 237  10557.66
 238  40329.17
 239  65010.12
 240  85658.07
 241  79316.91
 242  52807.26
 243  45443.49
 244  28805.75
 245  39308.83
 246  46724.84
 247  29872.11
 248  12289.82
 249  -384.9203
 250  2008.581
 251  17086.43
 252  37455.34
 253  26609.88
 254  21418.43
 255  7845.562
 256  -21153.77
 257  -6429.148
 258  10011.72
 259  48751.57
 260  52175.42
 261  45045.21
 262  25940.11
 263  -14563.53
 264  -8650.53
 265  13764.23
 266  21525.73
 267  18227.07
 268  12870.08
 269  -8068.362
 270  -29501.64
 271  -27581.92
 272  -21396.26
 273  -12645.29
 274  -6663.15
 275  10365.73
 276  9669.701
 277  -2.904997
 278  -2424.651
 279  -14918.04
 280  -32235.66
 281  -13535.58
 282  -1449.236
 283  5132.412
 284  186.7403
 285  -5789.019
 286  -12126.39
 287  -25407.6
 288  -17244.72
 289  -14468.21
 290  -10098.92
 291  -8954.181
 292  7950.721
 293  30789.36
 294  42988.04
 295  49292.82
 296  58287.6
 297  35004.5
 298  18317.06
 299  33681.53
 300  62353.42
 301  50791.78
 302  51109.72
 303  50891.44
 304  20969.01
 305  9863.391
 306  271.0389
 307  -8491.064
 308  -27894.9
 309  -30014.74
 310  -28736.42
 311  -3478.35
 312  27526.05
 313  46858.69
 314  51279.99
 315  73001.15
 316  48730.3
 317  3239.656
 318  48438.94
 319  58930.3
 320  77169.01
 321  94658.19
 322  84273.08
 323  62837.57
 324  12050.29
 325  3197.349
 326  -9333.451
 327  -27516.28
 328  -24475.93
 329  -25917.45
 330  -28620.2
 331  -23892.06
 332  -13467.52
 333  -7798.546
 334  67.73437
 335  3119.487
 336  -5046.749
 337  -13005.73
 338  -17547.88
 339  -4021.827
 340  2706.702
 341  36091.86
 342  52878.42
 343  40228.17
 344  31780.29
 345  7874.183
 346  -21372.7
 347  -15185.9
 348  14577.43
 349  33480.38
 350  31881.73
 351  18709.51
 352  547.5798
 353  -27442.01
 354  -28325.94
 355  -29884.06
 356  -30671.83
 357  -29181.77
 358  -29998.15
 359  -30544.2
 360  -30167.95
 361  -30505.23
 362  -30127.07
 363  -29877.71
 364  -29610.45
 365  -28271.48
 366  -25865.76
 367  -26702.04
 368  -26187.83
 369  -24367.2
 370  -21178.01
 371  -15303.42
 372  -15551.2
 373  -8675.406
 374  -11215.9
 375  -21108.58
 376  -15343.53
 377  -16324.01
 378  -16205.79
 379  -18729.68
 380  -15263.97
 381  -14286.87
 382  -19509.98
 383  -20674.96
 384  -23867.47
 385  -27775.49
 386  -29003.55
 387  -16095.71
 388  9710.585
 389  12991.79
 390  35939.82
 391  49989.65
 392  16373.3
 393  9282.603
 394  3555.271
 395  23235.89
 396  23774.37
 397  40615.19
 398  52712.99
 399  17864
 400  6576.937
 401  -5216.934
 402  -29242.96
 403  -32113.73
 404  -31492.06
 405  -29980.47
 406  -33561.16
 407  -21624.64
 408  -3565.286
 409  15219.66
 410  15462.58
 411  13928.4
 412  240.1508
 413  -23930.46
 414  -22110
 415  18732.38
 416  29671.42
 417  30748.87
 418  30765.22
 419  -8281.602
 420  -21374.31
 421  -31401.72
 422  -28429.02
 423  -31280.56
 424  -32189.55
 425  -30495.44
 426  -31074.72
 427  -30388.08
 428  -30418.39
 429  -31698.48
 430  -32082.21
 431  -32059.31
 432  -33843.34
 433  -24850.41
 434  -10482.01
 435  -938.8819
 436  1118.35
 437  2926.013
 438  -6410.52
 439  -15152.87
 440  5202.433
 441  30700.13
 442  52548.41
 443  47675.4
 444  30679.81
 445  1902.397
 446  -7787.908
 447  4700.45
 448  18292.12
 449  13601.59
 450  5259.912
 451  -9306.986
 452  -26895.98
 453  -17271.93
 454  4771.562
 455  1982.487
 456  3922.638
 457  4110.349
 458  -14287.95
 459  92.1596
 460  13201.28
 461  38868.22
 462  35278.48
 463  14180.7
 464  -807.436
 465  -16761.4
 466  9662.35
 467  16747.44
 468  22825.47
 469  28433.67
 470  -675.4857
 471  -9752.707
 472  -16954.19
 473  -17892.32
 474  10802.81
 475  43997.48
 476  58155.73
 477  56503.98
 478  39427.36
 479  136.3939
 480  -11812.24
 481  33861.61
 482  60551.56
 483  59311.09
 484  56748.06
 485  21677.26
 486  -14486.53
 487  -16064.7
 488  -5922.536
 489  -5900.835
 490  -3995.27
 491  -5904.065
 492  -15063.2
 493  -22462.22
 494  -22497.21
 495  -26928.77
 496  -31655.38
 497  -31804.95
 498  -33919.22
 499  -31760.24
 500  -30745.53
 501  -28580.6
 502  -13578.22
 503  1283.012
 504  1619.237
 505  21406
 506  22337.07
 507  20069.53
 508  12220.13
 509  35030.39
 510  35195.91
 511  18940.3
