# Input file       =  1200757855.109703_cleaned.dat
# Candidate        =  PSR_0332+5434
# Telescope        =  AR
# Epoch_topo       =  58141.660579973417
# Epoch_bary       =  N/A
# T_sample         =  0.002
# Data Folded      =  7340032
# Data Avg         =  0.272708692338451
# Data StdDev      =  4.61267415281823 
# Profile Bins     =  512
# Profile Avg      =  3909.56296733576 
# Profile StdDev   =  552.289482133554 
# Reduced chi-sqr  =  0.790
# Prob(Noise)      <  1   (~0.0 sigma)
# P_topo (ms)      =  714.571919966461  +/- 6.36e-05
# P'_topo (s/s)    =  -0                +/- 3.36e-11
# P''_topo (s/s^2) =  0                 +/- 1.48e-14
# P_bary (ms)      =  N/A
# P'_bary (s/s)    =  N/A
# P''_bary (s/s^2) =  N/A
# P_orb (s)        =  N/A
# asin(i)/c (s)    =  N/A
# eccentricity     =  N/A
# w (rad)          =  N/A
# T_peri           =  N/A
######################################################
   0  3459.444
   1  3711.502
   2  3863.846
   3  3569.002
   4  3450.019
   5  3644.235
   6  4036.739
   7  4077.854
   8  3730.581
   9  3416.358
  10  4028.456
  11  4021.182
  12  3986.924
  13  3617.607
  14  3740.908
  15  3557.9
  16  4289.23
  17  4135.186
  18  3679.469
  19  3793.834
  20  4461.392
  21  3947.337
  22  3553.402
  23  4004.228
  24  4094.607
  25  3977.838
  26  3555.681
  27  3534.841
  28  3562.03
  29  3442.525
  30  3641.006
  31  4002.875
  32  3948.594
  33  4125.916
  34  4517.285
  35  4210.784
  36  3224.742
  37  3789.271
  38  4127.349
  39  4296.936
  40  3914.329
  41  3844.824
  42  4192.673
  43  3539.916
  44  3879.892
  45  3819.947
  46  3993.464
  47  4010.36
  48  3936.735
  49  3747.961
  50  3388.014
  51  3552.254
  52  3723.059
  53  3924.573
  54  3473.775
  55  3225.183
  56  3379.237
  57  3583.244
  58  3702.197
  59  3994.5
  60  3720.005
  61  3778.72
  62  4036.757
  63  4675.375
  64  5144.288
  65  5186.193
  66  5256.276
  67  5224.855
  68  4471.209
  69  4116.547
  70  4240.071
  71  4129.734
  72  3979.93
  73  3895.301
  74  3956.366
  75  4094.495
  76  4198.808
  77  4402.058
  78  4264.837
  79  4445.089
  80  4306.892
  81  4011.943
  82  3885.341
  83  3705.582
  84  3660.699
  85  3724.405
  86  3645.553
  87  3579.434
  88  3470.023
  89  3330.445
  90  3648.535
  91  3572.95
  92  3956.12
  93  3736.781
  94  3992.696
  95  4071.861
  96  4110.508
  97  3770.159
  98  3961.829
  99  4038.982
 100  3919.219
 101  3427.616
 102  3800.865
 103  3712.684
 104  3516.573
 105  3661.5
 106  3801.231
 107  4062.167
 108  4120.727
 109  4172.197
 110  3999.59
 111  3891.949
 112  4044.289
 113  3969.351
 114  4115.428
 115  4028.96
 116  4235.003
 117  4567.549
 118  4343.929
 119  3870.94
 120  3416.005
 121  3735.397
 122  4013.733
 123  4394.622
 124  4375.488
 125  4242.292
 126  3607.44
 127  3520.175
 128  3801.305
 129  3450.772
 130  3290.918
 131  3760.747
 132  3828.403
 133  3808.667
 134  3976.166
 135  4048.044
 136  4156.853
 137  4400.022
 138  4485.582
 139  3952.683
 140  4238.173
 141  4357.51
 142  4304.193
 143  4319.813
 144  3681.51
 145  3617.86
 146  3772.062
 147  3862.154
 148  3529.318
 149  3933.454
 150  4037.728
 151  3900.453
 152  3843.548
 153  3798.134
 154  3558.571
 155  3500.111
 156  3643.435
 157  3703.388
 158  3886.987
 159  3874.392
 160  3837.427
 161  3668.752
 162  3825.976
 163  3998.373
 164  3958.753
 165  3878.293
 166  4095.909
 167  3762.176
 168  3376.584
 169  3026.679
 170  3639.882
 171  3689.032
 172  4028.837
 173  3361.063
 174  3717.709
 175  3779.806
 176  3697.25
 177  3725.979
 178  4167.099
 179  4124.578
 180  4026.939
 181  4242.488
 182  3939.832
 183  3529.447
 184  3689.865
 185  4328.537
 186  4059.435
 187  3945.293
 188  4377.541
 189  4280.688
 190  3964.88
 191  4004.559
 192  4079.86
 193  3926.266
 194  3762.068
 195  4191.034
 196  3870.892
 197  3396.519
 198  3513.831
 199  3852.842
 200  4076.542
 201  3682.388
 202  3538.754
 203  3598.731
 204  3581.341
 205  3445.383
 206  3707.811
 207  3802.299
 208  3552.783
 209  3860.987
 210  4133.655
 211  3766.867
 212  3332.203
 213  3894.011
 214  3833.207
 215  3567.717
 216  3498.045
 217  3948.548
 218  3909.72
 219  3791.116
 220  3736.21
 221  4056.787
 222  3700.329
 223  3848.449
 224  3717.297
 225  3776.413
 226  3397.179
 227  3582.548
 228  3643.468
 229  3462.957
 230  3188.356
 231  3640.125
 232  3616.142
 233  3785.247
 234  3956.191
 235  3879.916
 236  3739.062
 237  3640.556
 238  3773.449
 239  3711.498
 240  3605.109
 241  3571.184
 242  3595.72
 243  3691.723
 244  3814.338
 245  4014.917
 246  4060.07
 247  4533.564
 248  4646.603
 249  5165.418
 250  4879.863
 251  4502.865
 252  4343.445
 253  4091.515
 254  3745.717
 255  3802.054
 256  4302.211
 257  4526.663
 258  4080.051
 259  4283.274
 260  4548.908
 261  3943.969
 262  4108.444
 263  4412.504
 264  4690.226
 265  4492.12
 266  4446.605
 267  4731.466
 268  4224.624
 269  4018.379
 270  4136.817
 271  4186.815
 272  3991.386
 273  3589.031
 274  4065.552
 275  4011.857
 276  3587.003
 277  3739.146
 278  4050.99
 279  4243.834
 280  4387.812
 281  4336.672
 282  4457.242
 283  4142.801
 284  3628.428
 285  3901.153
 286  3470.709
 287  3367.776
 288  3629.901
 289  3553.017
 290  3321.681
 291  3260.689
 292  4015.746
 293  3749.68
 294  3541.391
 295  3643.483
 296  3934.896
 297  3653.092
 298  3386.946
 299  3947.43
 300  3771.882
 301  3235.511
 302  3682.98
 303  3797.302
 304  3851.734
 305  3986.487
 306  3788.88
 307  3504.207
 308  3626.572
 309  3790.978
 310  3638.085
 311  3713.71
 312  3803.361
 313  3694.228
 314  3569.828
 315  3926.58
 316  4467.06
 317  4238.954
 318  4421.052
 319  4027.279
 320  4237.156
 321  4201.379
 322  4417.255
 323  4371.04
 324  4457.591
 325  4615.435
 326  4265.408
 327  3789.338
 328  4259.437
 329  3874.549
 330  3480.903
 331  3556.785
 332  3814.759
 333  3497.598
 334  3797.526
 335  4686.474
 336  4297.019
 337  3647.097
 338  3997.486
 339  4261.886
 340  4123.26
 341  4241.4
 342  4637.067
 343  4543.066
 344  4535.854
 345  4351.704
 346  4322.611
 347  4232.24
 348  4366.967
 349  4736.608
 350  4378.647
 351  4056.59
 352  3881.726
 353  4304.108
 354  4872.968
 355  3957.8
 356  3885.825
 357  3917.585
 358  3732.316
 359  4042.343
 360  4330.438
 361  4319.881
 362  4418.442
 363  4333.209
 364  4360.48
 365  3889.612
 366  3848.676
 367  3965.885
 368  4195.2
 369  4057.466
 370  3782.219
 371  4379.066
 372  3815.652
 373  4062.345
 374  4226.74
 375  3713.363
 376  3598.269
 377  3920.312
 378  4394.555
 379  4286.264
 380  4102.884
 381  4093.537
 382  4229.052
 383  3905.652
 384  3920.663
 385  3685.976
 386  3560.822
 387  3615.826
 388  3968.531
 389  4430.322
 390  4545.768
 391  4390.046
 392  4110.283
 393  4234.225
 394  3933.623
 395  3951.682
 396  4076.8
 397  3645.021
 398  3733.778
 399  3795.5
 400  3444.604
 401  3487.127
 402  3546.453
 403  3716.083
 404  3456.503
 405  3666.292
 406  3760.113
 407  3986.133
 408  3691.459
 409  3407.899
 410  3489.378
 411  3633.1
 412  3517.662
 413  3731.089
 414  3820.712
 415  3753.072
 416  4054.458
 417  4048.435
 418  4002.994
 419  3691.608
 420  4027.535
 421  4669.539
 422  4639.595
 423  4462.873
 424  4316.682
 425  4278.409
 426  3866.358
 427  4269.977
 428  4077.937
 429  3907.979
 430  3810.486
 431  4018.879
 432  4120.102
 433  3772.05
 434  3567.23
 435  3564.482
 436  3632.69
 437  3581.602
 438  3835.46
 439  3849.547
 440  3478.697
 441  3574.39
 442  4032.542
 443  3894.789
 444  3598.036
 445  3367.774
 446  3847.894
 447  3759.658
 448  4100.996
 449  4476.636
 450  4520.233
 451  3841.637
 452  3713.946
 453  3971.559
 454  3895.598
 455  4112.994
 456  4354.066
 457  4165.408
 458  3857.502
 459  3733.267
 460  3616.28
 461  3402.102
 462  3713.917
 463  3965.071
 464  4016.59
 465  4041.722
 466  3633.772
 467  4134.379
 468  4077.55
 469  4408.043
 470  3938.493
 471  4050.816
 472  3866.958
 473  3594.43
 474  3626.844
 475  3883.321
 476  4063.208
 477  4266.9
 478  4425.949
 479  4362.149
 480  4105.652
 481  3949.262
 482  3590.169
 483  3850.647
 484  3849.546
 485  3970.001
 486  3682.2
 487  3466.769
 488  3408.425
 489  3566.494
 490  3313.98
 491  3133.051
 492  3684.954
 493  3686.176
 494  3274.991
 495  3670.067
 496  3708.12
 497  3407.57
 498  3250.277
 499  3146.772
 500  3187.109
 501  3481.786
 502  3370.669
 503  3551.627
 504  3516.172
 505  3661.011
 506  3511.097
 507  3824.589
 508  3204.314
 509  3115.601
 510  3751.773
 511  3766.766
