# Input file       =  1200772773.113199-PSRB0329-2ms-sampling-dd.dat
# Candidate        =  PSR_0332+5434
# Telescope        =  AR
# Epoch_topo       =  58141.833242050918
# Epoch_bary       =  N/A
# T_sample         =  0.002
# Data Folded      =  7340032
# Data Avg         =  1.58653738378508e-09
# Data StdDev      =  8.33670337600574 
# Profile Bins     =  512
# Profile Avg      =  0.302102603816725
# Profile StdDev   =  998.178808581605 
# Reduced chi-sqr  =  0.521
# Prob(Noise)      <  1   (~0.0 sigma)
# P_topo (ms)      =  714.572349267451  +/- 3.97e-05
# P'_topo (s/s)    =  -0                +/- 2.1e-11
# P''_topo (s/s^2) =  0                 +/- 9.26e-15
# P_bary (ms)      =  N/A
# P'_bary (s/s)    =  N/A
# P''_bary (s/s^2) =  N/A
# P_orb (s)        =  N/A
# asin(i)/c (s)    =  N/A
# eccentricity     =  N/A
# w (rad)          =  N/A
# T_peri           =  N/A
######################################################
   0  621.3716
   1  325.4552
   2  -75.01257
   3  -86.53834
   4  822.5073
   5  334.5969
   6  137.7771
   7  290.3789
   8  -478.8365
   9  -451.0191
  10  -548.1076
  11  104.0471
  12  -75.22138
  13  -737.9412
  14  -544.1166
  15  -414.1464
  16  41.15229
  17  104.6663
  18  -489.0703
  19  -223.1137
  20  -444.086
  21  -350.3051
  22  -337.8803
  23  -741.9668
  24  -396.3993
  25  -754.5176
  26  -477.3863
  27  -500.0917
  28  217.0871
  29  137.275
  30  -98.02962
  31  -223.054
  32  -17.29993
  33  -111.5908
  34  -707.838
  35  -201.3916
  36  92.327
  37  355.6325
  38  -433.5545
  39  -247.6953
  40  751.0739
  41  186.7886
  42  -160.0062
  43  374.4966
  44  392.7929
  45  -260.0503
  46  -125.7594
  47  -328.2428
  48  -356.6929
  49  -299.1249
  50  317.4504
  51  -567.4281
  52  -1378.841
  53  -360.8524
  54  632.3321
  55  491.2909
  56  -237.505
  57  253.1746
  58  398.4609
  59  -428.3434
  60  -338.3626
  61  -609.6172
  62  -623.5949
  63  -1196.756
  64  -546.7789
  65  -196.522
  66  -378.5843
  67  -615.4395
  68  -288.2478
  69  -4.024533
  70  -318.4673
  71  -486.0976
  72  -569.6052
  73  -117.908
  74  226.0498
  75  193.5322
  76  -127.2018
  77  -83.05936
  78  16.43719
  79  -278.6635
  80  -678.1599
  81  -848.2559
  82  397.823
  83  878.7135
  84  336.6675
  85  902.1675
  86  667.0408
  87  232.617
  88  -634.1447
  89  -881.496
  90  -635.67
  91  -959.0082
  92  -33.53426
  93  254.6909
  94  -435.6456
  95  -466.4855
  96  -464.2339
  97  -11.3726
  98  -777.752
  99  -557.6939
 100  -155.4889
 101  151.8765
 102  -349.2938
 103  -329.1067
 104  214.3512
 105  338.748
 106  113.1402
 107  283.9452
 108  -95.36858
 109  -1024.75
 110  -510.3596
 111  -201.4267
 112  52.20807
 113  -1085.327
 114  -669.836
 115  30.50183
 116  -372.6362
 117  -71.20461
 118  -6.293578
 119  267.407
 120  50.90718
 121  463.2454
 122  721.889
 123  -313.2074
 124  -751.3507
 125  -272.9364
 126  375.1229
 127  80.16698
 128  245.8889
 129  85.13554
 130  -523.2322
 131  -61.68677
 132  283.356
 133  142.1316
 134  150.0468
 135  139.258
 136  124.9066
 137  -334.4427
 138  -800.5963
 139  -541.4991
 140  -390.3445
 141  -1054.397
 142  -775.4037
 143  -56.27969
 144  446.7618
 145  -182.6054
 146  -74.1654
 147  77.89937
 148  606.1994
 149  1147.898
 150  1711.716
 151  1882.368
 152  1320.702
 153  968.8617
 154  292.9497
 155  333.6313
 156  400.48
 157  228.8685
 158  324.0157
 159  -289.6537
 160  283.898
 161  787.9467
 162  433.7158
 163  -224.7696
 164  -42.04461
 165  -403.0724
 166  -512.5332
 167  -53.8428
 168  202.3133
 169  550.1483
 170  243.8352
 171  416.6679
 172  292.3244
 173  1.681975
 174  -393.5667
 175  -195.9472
 176  -353.6198
 177  -19.60657
 178  146.962
 179  349.3345
 180  498.7141
 181  -309.4847
 182  -36.31511
 183  -78.83093
 184  -363.4328
 185  169.1333
 186  418.7211
 187  32.74529
 188  264.2449
 189  607.5481
 190  -176.2185
 191  -42.20525
 192  -316.556
 193  352.4438
 194  -105.2078
 195  -286.9335
 196  -117.0993
 197  273.0136
 198  836.751
 199  4.343666
 200  -553.34
 201  -24.49177
 202  -362.4735
 203  -867.9867
 204  99.02439
 205  406.4193
 206  37.64744
 207  345.2043
 208  825.8466
 209  349.4442
 210  99.21456
 211  208.9699
 212  611.9178
 213  618.5882
 214  635.97
 215  813.7996
 216  700.3212
 217  311.7857
 218  967.8032
 219  822.7905
 220  -127.6795
 221  186.0034
 222  508.4331
 223  416.6258
 224  -315.9226
 225  -351.9176
 226  372.8659
 227  -50.19928
 228  -197.9919
 229  -441.4431
 230  25.68698
 231  -365.8696
 232  -624.1482
 233  -115.913
 234  -34.77896
 235  -73.68889
 236  625.0981
 237  706.4871
 238  -554.0538
 239  -214.8779
 240  219.3382
 241  -412.9966
 242  -562.0005
 243  168.7742
 244  1075.224
 245  155.3066
 246  -26.01801
 247  305.6901
 248  459.7307
 249  536.2886
 250  790.626
 251  1378.067
 252  862.1705
 253  629.7857
 254  1070.629
 255  605.1815
 256  -411.2163
 257  11.74768
 258  505.1698
 259  131.6156
 260  197.8832
 261  1033.641
 262  1300
 263  730.636
 264  487.8708
 265  599.2628
 266  610.9083
 267  529.0085
 268  349.505
 269  576.5161
 270  -144.9391
 271  129.0012
 272  860.4564
 273  -19.44851
 274  -404.502
 275  435.0495
 276  202.1169
 277  -62.81635
 278  -227.6598
 279  -181.1328
 280  -186.8646
 281  -693.2971
 282  23.05067
 283  200.8837
 284  277.4173
 285  -451.7071
 286  -497.1537
 287  -402.7278
 288  -283.8188
 289  -86.7044
 290  -13.6459
 291  129.2726
 292  -131.2517
 293  565.2132
 294  376.0111
 295  -598.3871
 296  -402.8229
 297  -40.1318
 298  -163.5983
 299  -138.8393
 300  117.2624
 301  11.47584
 302  -284.6416
 303  -423.8868
 304  352.3582
 305  493.3359
 306  -19.36007
 307  -338.4176
 308  -252.7398
 309  -384.0149
 310  -862.9372
 311  -684.6107
 312  -298.4557
 313  -829.8201
 314  -1057.325
 315  -906.0964
 316  -482.3278
 317  -622.8966
 318  140.8802
 319  -406.6911
 320  -654.1693
 321  -331.8152
 322  -448.9523
 323  -24.75104
 324  -1328.431
 325  -1259.604
 326  -660.4337
 327  -269.4501
 328  -310.3017
 329  -615.8052
 330  -651.4169
 331  -1076.573
 332  -394.8138
 333  407.0629
 334  297.4071
 335  -564.2372
 336  -596.9567
 337  -724.6732
 338  -908.522
 339  -709.6003
 340  -263.009
 341  219.1379
 342  -148.1413
 343  -607.4741
 344  -1083.584
 345  -643.777
 346  -115.4398
 347  1028.091
 348  693.1896
 349  -441.4056
 350  -227.631
 351  -673.1942
 352  -919.6259
 353  -736.7914
 354  174.8714
 355  695.6359
 356  -294.4542
 357  48.75916
 358  -244.3557
 359  -357.1211
 360  -301.6389
 361  -43.73324
 362  888.7243
 363  595.136
 364  -20.25288
 365  -573.7971
 366  -382.0957
 367  -1097.613
 368  -542.1174
 369  -112.952
 370  -87.92944
 371  465.4805
 372  79.11145
 373  613.0168
 374  -186.3325
 375  -435.2713
 376  -99.84894
 377  -773.0341
 378  -930.8695
 379  -517.1511
 380  -570.4896
 381  -1364.643
 382  -1593.423
 383  -598.5922
 384  -484.0316
 385  -257.2043
 386  34.67092
 387  402.8151
 388  371.1164
 389  419.3843
 390  553.3488
 391  -129.3694
 392  -423.1422
 393  76.97176
 394  424.7587
 395  430.0271
 396  707.0096
 397  662.1102
 398  1217.294
 399  565.0638
 400  159.8794
 401  145.7328
 402  233.2661
 403  727.0441
 404  1201.677
 405  1056.822
 406  399.0373
 407  -87.88168
 408  -85.00956
 409  -328.5787
 410  -1028.281
 411  -634.4627
 412  -215.4111
 413  -83.66595
 414  -209.8447
 415  220.4056
 416  753.4626
 417  87.24815
 418  557.7834
 419  1269.204
 420  1178.152
 421  126.5881
 422  -13.53799
 423  -81.84013
 424  -491.7331
 425  -390.5345
 426  128.5295
 427  -183.7072
 428  -305.5839
 429  -20.66854
 430  514.9086
 431  -109.1295
 432  144.4349
 433  557.4849
 434  435.2839
 435  -328.1725
 436  329.8364
 437  651.6949
 438  398.3965
 439  -45.10806
 440  429.6112
 441  1051.477
 442  -102.7499
 443  -165.199
 444  677.2581
 445  1092.719
 446  631.5242
 447  733.4205
 448  705.3051
 449  238.5352
 450  -33.44793
 451  256.6433
 452  -111.8662
 453  192.5202
 454  856.0477
 455  1258.546
 456  498.6265
 457  437.2478
 458  135.7647
 459  197.7547
 460  245.6926
 461  792.0248
 462  1401.003
 463  574.6899
 464  -691.5125
 465  -696.2115
 466  -696.3919
 467  -823.4774
 468  -241.9345
 469  401.6338
 470  531.257
 471  123.623
 472  -101.3197
 473  252.5247
 474  398.5838
 475  349.7646
 476  37.92585
 477  185.0652
 478  101.7938
 479  248.5843
 480  337.0723
 481  -22.54173
 482  -295.9834
 483  599.6175
 484  265.6473
 485  -100.7348
 486  692.3235
 487  473.294
 488  582.9227
 489  143.7251
 490  168.944
 491  153.5452
 492  -714.8831
 493  -565.1068
 494  37.05555
 495  343.7297
 496  259.7027
 497  160.5866
 498  609.032
 499  57.97887
 500  -653.6481
 501  -362.6269
 502  81.21126
 503  -776.7783
 504  -196.3535
 505  114.3141
 506  -107.0597
 507  70.14977
 508  -290.6114
 509  55.69326
 510  -439.0081
 511  -2.4166
