# Input file       =  1200327044.107096_cleaned.dat
# Candidate        =  PSR_0332+5434
# Telescope        =  AR
# Epoch_topo       =  58136.674341517311
# Epoch_bary       =  N/A
# T_sample         =  0.002
# Data Folded      =  7340032
# Data Avg         =  0.118082809663876
# Data StdDev      =  1.00077715597925 
# Profile Bins     =  512
# Profile Avg      =  1692.83725506274 
# Profile StdDev   =  119.8260876219   
# Reduced chi-sqr  =  0.779
# Prob(Noise)      <  1   (~0.0 sigma)
# P_topo (ms)      =  714.56898962011   +/- 0.000169
# P'_topo (s/s)    =  -0                +/- 8.91e-11
# P''_topo (s/s^2) =  0                 +/- 3.93e-14
# P_bary (ms)      =  N/A
# P'_bary (s/s)    =  N/A
# P''_bary (s/s^2) =  N/A
# P_orb (s)        =  N/A
# asin(i)/c (s)    =  N/A
# eccentricity     =  N/A
# w (rad)          =  N/A
# T_peri           =  N/A
######################################################
   0  1635.491
   1  1664.712
   2  1701.217
   3  1754.655
   4  1770.595
   5  1709.806
   6  1834.366
   7  1779.067
   8  1728.33
   9  1719.576
  10  1631.535
  11  1704.541
  12  1722.446
  13  1618.464
  14  1607.069
  15  1603.392
  16  1686.27
  17  1753.264
  18  1603.885
  19  1585.347
  20  1582.342
  21  1582.472
  22  1676.822
  23  1656.718
  24  1647.437
  25  1542.837
  26  1587.963
  27  1633.206
  28  1707.952
  29  1662.091
  30  1670.7
  31  1736.38
  32  1788.718
  33  1740.446
  34  1640.834
  35  1628.945
  36  1650.557
  37  1733.064
  38  1739.205
  39  1650.903
  40  1714.168
  41  1620.909
  42  1619.224
  43  1596.654
  44  1521.369
  45  1516.039
  46  1598.131
  47  1644.37
  48  1543.582
  49  1557.973
  50  1652.819
  51  1626.392
  52  1503.277
  53  1543.314
  54  1575.78
  55  1604.501
  56  1497.164
  57  1608.142
  58  1724.084
  59  1700.699
  60  1582.792
  61  1685.007
  62  1610.13
  63  1561.839
  64  1605.038
  65  1604.61
  66  1542.509
  67  1656.084
  68  1702.968
  69  1684.26
  70  1688.375
  71  1623.916
  72  1661.426
  73  1706.539
  74  1657.5
  75  1533.475
  76  1573.92
  77  1748.885
  78  1759.527
  79  1713.66
  80  1704.114
  81  1704.17
  82  1570.497
  83  1623.781
  84  1717.067
  85  1732.7
  86  1733.213
  87  1673.978
  88  1699.276
  89  1678.184
  90  1551.609
  91  1616.38
  92  1617.931
  93  1586.216
  94  1560.793
  95  1689.714
  96  1784.594
  97  1784.252
  98  1748.517
  99  1568.088
 100  1659.953
 101  1614.649
 102  1628.504
 103  1697.744
 104  1718.156
 105  1697.096
 106  1700.798
 107  1650.878
 108  1616.622
 109  1687.745
 110  1722.04
 111  1755.385
 112  1844.568
 113  1776.433
 114  1773.345
 115  1766.604
 116  1819.214
 117  1743.401
 118  1686.762
 119  1723.322
 120  1699.474
 121  1694.553
 122  1670.42
 123  1655.728
 124  1636.345
 125  1668.932
 126  1693.408
 127  1746.476
 128  1797.095
 129  1772.455
 130  1712.011
 131  1745.924
 132  1618.462
 133  1676.024
 134  1673.341
 135  1770.317
 136  1787.378
 137  1697.46
 138  1674.013
 139  1605.86
 140  1626.552
 141  1752.867
 142  1718.456
 143  1734.518
 144  1717.963
 145  1729.046
 146  1770.637
 147  1694.628
 148  1699.234
 149  1733.392
 150  1693.362
 151  1842.183
 152  1858.679
 153  1862.61
 154  1882.982
 155  1728.582
 156  1596.075
 157  1552.915
 158  1620.171
 159  1760.631
 160  1804.706
 161  1742.941
 162  1667.925
 163  1655.874
 164  1661.534
 165  1664.752
 166  1655.483
 167  1634.885
 168  1698.782
 169  1744.641
 170  1846.326
 171  1737.197
 172  1702.696
 173  1686.652
 174  1663.975
 175  1781.547
 176  1765.208
 177  1804.894
 178  1840.657
 179  1781.719
 180  1717.19
 181  1682.738
 182  1750.313
 183  1728.464
 184  1725.078
 185  1720.776
 186  1778.105
 187  1778.683
 188  1759.369
 189  1752.486
 190  1775.557
 191  1794.313
 192  1843.52
 193  1872.277
 194  1905.452
 195  1779.592
 196  1806.479
 197  1705.06
 198  1729.532
 199  1774.337
 200  1773.158
 201  1816.831
 202  1863.169
 203  1703.956
 204  1685.951
 205  1778.367
 206  1796.047
 207  1675.108
 208  1684.61
 209  1787.305
 210  1873.204
 211  1787.404
 212  1629.777
 213  1607.276
 214  1641.525
 215  1666.367
 216  1744.961
 217  1728.356
 218  1688.281
 219  1747.222
 220  1702.088
 221  1673.287
 222  1659.837
 223  1691.416
 224  1737.469
 225  1768.974
 226  1789.254
 227  1746.745
 228  1643.822
 229  1601.471
 230  1670.349
 231  1751.545
 232  1719.613
 233  1682.559
 234  1703.751
 235  1803.498
 236  1707.726
 237  1619.514
 238  1583.888
 239  1577.432
 240  1689.875
 241  1770.249
 242  1598.699
 243  1606.855
 244  1637.664
 245  1654.164
 246  1729.489
 247  1714.113
 248  1616.485
 249  1704.366
 250  1681.554
 251  1692.312
 252  1702.299
 253  1694.594
 254  1675.766
 255  1739.608
 256  1749.567
 257  1666.323
 258  1614.073
 259  1677.852
 260  1650.698
 261  1658.789
 262  1726.791
 263  1759.96
 264  1807.991
 265  1779.488
 266  1729.015
 267  1792.477
 268  1760.292
 269  1733.317
 270  1656.886
 271  1644.426
 272  1555.453
 273  1555.835
 274  1563.838
 275  1707.716
 276  1718.112
 277  1638.86
 278  1671.531
 279  1647.797
 280  1659.391
 281  1662.148
 282  1658.398
 283  1707.445
 284  1695.186
 285  1718.134
 286  1699.251
 287  1694.239
 288  1707.605
 289  1570.112
 290  1656.934
 291  1760.565
 292  1776.837
 293  1782.796
 294  1786.702
 295  1722.423
 296  1725.298
 297  1699.858
 298  1809.304
 299  1720.915
 300  1623.555
 301  1662.49
 302  1675.547
 303  1750.73
 304  1751.821
 305  1776.097
 306  1680.455
 307  1777.716
 308  1773.219
 309  1689.688
 310  1640.769
 311  1693.012
 312  1735.43
 313  1571.625
 314  1527.958
 315  1542.697
 316  1573.86
 317  1663.367
 318  1633.083
 319  1724.818
 320  1562.831
 321  1699.839
 322  1758.453
 323  1711.807
 324  1676.375
 325  1709.89
 326  1669.181
 327  1638.046
 328  1687.188
 329  1678.67
 330  1685.211
 331  1822.771
 332  1854.366
 333  1752.243
 334  1680.003
 335  1738.184
 336  1749.938
 337  1673.955
 338  1682.726
 339  1665.239
 340  1713.64
 341  1730.81
 342  1702.317
 343  1788.713
 344  1794.936
 345  1788.084
 346  1769.928
 347  1709.362
 348  1657.89
 349  1701.664
 350  1720.799
 351  1682.998
 352  1726.14
 353  1790.462
 354  1729.382
 355  1564.116
 356  1592.738
 357  1560.468
 358  1647.276
 359  1583.074
 360  1685.254
 361  1760.382
 362  1831.223
 363  1865.431
 364  1826.721
 365  1696.636
 366  1690.13
 367  1722.273
 368  1703.896
 369  1702.805
 370  1684.243
 371  1666.478
 372  1635.652
 373  1615.896
 374  1699.9
 375  1627.413
 376  1703.73
 377  1587.331
 378  1699.011
 379  1714.677
 380  1650.737
 381  1710.35
 382  1671.056
 383  1612.158
 384  1619.515
 385  1736.577
 386  1651.254
 387  1605.787
 388  1640.447
 389  1711.46
 390  1693.12
 391  1720.582
 392  1721.611
 393  1751.868
 394  1741.664
 395  1626.13
 396  1575.645
 397  1603.625
 398  1611.312
 399  1618.158
 400  1668.262
 401  1635.574
 402  1615.868
 403  1635.492
 404  1638.749
 405  1639.626
 406  1592.019
 407  1718.775
 408  1668.342
 409  1650.172
 410  1670.894
 411  1578.406
 412  1592.953
 413  1581.707
 414  1589.391
 415  1672.726
 416  1702.09
 417  1679.169
 418  1684.518
 419  1677.509
 420  1616.538
 421  1667.246
 422  1680.42
 423  1717.987
 424  1675.374
 425  1730.369
 426  1698.967
 427  1648.959
 428  1646.533
 429  1658.535
 430  1594.351
 431  1600.345
 432  1646.735
 433  1613.858
 434  1653.729
 435  1663.69
 436  1710.482
 437  1616.233
 438  1582.883
 439  1550
 440  1578.868
 441  1649.697
 442  1731.234
 443  1695.627
 444  1692.55
 445  1693.103
 446  1743.119
 447  1682.92
 448  1775.784
 449  1814.962
 450  1701.766
 451  1623.37
 452  1746.895
 453  1794.169
 454  1797.933
 455  1779.726
 456  1677.367
 457  1774.781
 458  1760.589
 459  1700.489
 460  1718.958
 461  1769.908
 462  1751.983
 463  1716.039
 464  1808.61
 465  1966.956
 466  1988.031
 467  2000.513
 468  1933.294
 469  1856.465
 470  1739.232
 471  1698.57
 472  1612.352
 473  1546.155
 474  1532.337
 475  1741.298
 476  1703.859
 477  1775.904
 478  1675.511
 479  1663.786
 480  1646.716
 481  1628.459
 482  1649.655
 483  1675.892
 484  1651.578
 485  1731.639
 486  1666.522
 487  1622.042
 488  1645.903
 489  1646.56
 490  1647.652
 491  1726.489
 492  1774.219
 493  1729.352
 494  1575.713
 495  1698.871
 496  1734.993
 497  1651.26
 498  1608.211
 499  1617.424
 500  1705.304
 501  1697.817
 502  1728.542
 503  1759.814
 504  1774.062
 505  1731.082
 506  1615.023
 507  1788.183
 508  1750.804
 509  1706.423
 510  1787.803
 511  1799.025
