# Input file       =  1200398598.099281_cleaned.dat
# Candidate        =  PSR_0332+5434
# Telescope        =  AR
# Epoch_topo       =  58137.502512723164
# Epoch_bary       =  N/A
# T_sample         =  0.002
# Data Folded      =  7143424
# Data Avg         =  0.0181290680941087
# Data StdDev      =  1.0001481868349  
# Profile Bins     =  512
# Profile Avg      =  252.865718231072 
# Profile StdDev   =  118.136088101045 
# Reduced chi-sqr  =  1.315
# Prob(Noise)      <  2.06e-06   (~4.6 sigma)
# P_topo (ms)      =  714.569488448075  +/- 0.000151
# P'_topo (s/s)    =  -0                +/- 8.17e-11
# P''_topo (s/s^2) =  0                 +/- 3.71e-14
# P_bary (ms)      =  N/A
# P'_bary (s/s)    =  N/A
# P''_bary (s/s^2) =  N/A
# P_orb (s)        =  N/A
# asin(i)/c (s)    =  N/A
# eccentricity     =  N/A
# w (rad)          =  N/A
# T_peri           =  N/A
######################################################
   0  878.9998
   1  694.9233
   2  546.8759
   3  327.0579
   4  303.5326
   5  273.8205
   6  214.641
   7  322.0226
   8  248.7259
   9  279.415
  10  225.7821
  11  235.7191
  12  275.0957
  13  319.9086
  14  410.5704
  15  445.2314
  16  384.3531
  17  369.8044
  18  308.0531
  19  272.7316
  20  199.4786
  21  223.7648
  22  268.6424
  23  147.6051
  24  173.3792
  25  191.9031
  26  262.0456
  27  194.7105
  28  111.7009
  29  284.3683
  30  259.1835
  31  184.5438
  32  261.8735
  33  251.5095
  34  195.6343
  35  218.9573
  36  290.3918
  37  209.6713
  38  177.1849
  39  300.486
  40  264.0781
  41  319.4538
  42  342.8994
  43  271.7144
  44  254.3147
  45  153.8318
  46  136.7912
  47  287.8417
  48  279.9878
  49  135.911
  50  174.3566
  51  297.0777
  52  205.3122
  53  303.3028
  54  302.2982
  55  288.0918
  56  294.0146
  57  289.6312
  58  406.9426
  59  260.9927
  60  159.2919
  61  107.4454
  62  207.4506
  63  217.1569
  64  259.6824
  65  347.4193
  66  316.0736
  67  321.8345
  68  246.7048
  69  229.1772
  70  183.3143
  71  174.3366
  72  318.2995
  73  195.1216
  74  232.095
  75  204.5931
  76  187.4065
  77  159.8497
  78  127.0773
  79  168.0939
  80  127.8676
  81  171.7977
  82  146.4846
  83  134.8397
  84  71.90192
  85  -12.75261
  86  63.08918
  87  192.0271
  88  341.0774
  89  264.9784
  90  128.5042
  91  196.7364
  92  158.3526
  93  217.9844
  94  131.0887
  95  236.3442
  96  361.5828
  97  322.4947
  98  212.9728
  99  76.46617
 100  132.9617
 101  324.93
 102  265.0573
 103  90.52492
 104  167.2823
 105  156.7298
 106  209.5094
 107  269.3652
 108  325.0383
 109  249.1729
 110  294.3471
 111  274.8533
 112  308.8417
 113  264.5621
 114  211.7906
 115  251.9916
 116  322.8025
 117  356.7205
 118  320.4467
 119  280.4568
 120  272.2505
 121  303.6537
 122  314.6515
 123  349.8852
 124  212.0299
 125  146.651
 126  216.4276
 127  164.4855
 128  316.2769
 129  326.8286
 130  250.4131
 131  220.2426
 132  363.5846
 133  417.2196
 134  286.9243
 135  198.5795
 136  162.7892
 137  134.6682
 138  195.667
 139  280.8563
 140  346.1585
 141  302.4764
 142  386.7171
 143  176.7727
 144  158.9798
 145  196.8643
 146  274.9475
 147  347.1195
 148  272.3032
 149  262.9577
 150  217.391
 151  149.926
 152  84.20883
 153  130.5219
 154  241.9196
 155  254.5123
 156  295.3545
 157  362.3756
 158  243.8269
 159  94.80724
 160  119.4091
 161  217.6629
 162  335.6424
 163  363.7812
 164  274.8463
 165  364.8448
 166  250.2213
 167  216.0464
 168  171.8638
 169  247.6424
 170  209.1246
 171  279.5584
 172  269.2576
 173  185.4426
 174  100.8187
 175  215.8698
 176  231.8789
 177  234.8048
 178  224.8344
 179  216.5028
 180  150.2113
 181  256.7332
 182  226.1812
 183  283.8023
 184  275.0705
 185  221.9794
 186  300.3791
 187  271.8932
 188  264.9998
 189  328.277
 190  340.0781
 191  400.0445
 192  262.5853
 193  216.1832
 194  196.2666
 195  102.708
 196  267.437
 197  200.8243
 198  204.4137
 199  309.0067
 200  182.1755
 201  171.3205
 202  158.8156
 203  248.2547
 204  311.9698
 205  308.6134
 206  308.0126
 207  236.2141
 208  142.7446
 209  27.44903
 210  111.5611
 211  209.8302
 212  272.5814
 213  232.3554
 214  222.682
 215  289.656
 216  298.0661
 217  305.7591
 218  236.0011
 219  157.1092
 220  174.0565
 221  140.1623
 222  155.0349
 223  285.5272
 224  365.1729
 225  213.9728
 226  101.7983
 227  198.1323
 228  290.2478
 229  244.3189
 230  346.5022
 231  261.4892
 232  215.1303
 233  292.0821
 234  166.8372
 235  211.3148
 236  286.2654
 237  294.946
 238  230.2315
 239  128.216
 240  370.7435
 241  364.4516
 242  230.4972
 243  157.7518
 244  178.5202
 245  253.0914
 246  271.7608
 247  226.712
 248  167.8423
 249  160.5639
 250  197.6906
 251  262.0258
 252  188.052
 253  282.9592
 254  222.2397
 255  279.2793
 256  271.7263
 257  244.209
 258  286.0565
 259  319.6248
 260  309.1115
 261  368.3663
 262  278.1472
 263  135.862
 264  162.6488
 265  361.9946
 266  376.8375
 267  223.571
 268  234.5844
 269  146.2596
 270  348.6445
 271  316.5903
 272  390.7475
 273  479.765
 274  332.961
 275  137.4547
 276  227.9634
 277  440.4533
 278  338.6512
 279  145.8305
 280  380.3992
 281  349.867
 282  268.558
 283  362.2485
 284  282.7907
 285  202.8491
 286  251.6653
 287  227.8847
 288  200.6783
 289  231.6023
 290  424.2698
 291  215.661
 292  103.8739
 293  187.679
 294  138.9342
 295  152.9706
 296  218.8871
 297  262.9753
 298  318.0256
 299  292.4729
 300  282.3185
 301  293.7106
 302  330.8686
 303  327.8224
 304  277.131
 305  317.1
 306  347.8659
 307  389.7345
 308  416.058
 309  322.1689
 310  196.6879
 311  196.1938
 312  206.3407
 313  369.2238
 314  454.7961
 315  345.3552
 316  240.0715
 317  115.935
 318  168.0647
 319  351.2204
 320  435.5412
 321  286.628
 322  288.7565
 323  226.9861
 324  129.8922
 325  141.9023
 326  212.3996
 327  277.2101
 328  176.8809
 329  246.6832
 330  298.0845
 331  386.3994
 332  290.2774
 333  362.9514
 334  259.6821
 335  310.2301
 336  369.9934
 337  333.1536
 338  291.2066
 339  366.8344
 340  297.3848
 341  218.9234
 342  247.5003
 343  347.6277
 344  282.4445
 345  192.3946
 346  160.1251
 347  279.9884
 348  148.9907
 349  75.15936
 350  168.5419
 351  270.7483
 352  223.8149
 353  252.2647
 354  218.8744
 355  337.2937
 356  284.886
 357  158.241
 358  207.6149
 359  294.2509
 360  322.6456
 361  329.041
 362  255.4991
 363  179.2352
 364  209.9479
 365  316.6662
 366  418.5345
 367  311.6183
 368  222.6214
 369  198.7328
 370  219.3546
 371  360.6515
 372  276.8911
 373  277.8235
 374  247.9471
 375  283.398
 376  318.1476
 377  285.098
 378  292.8374
 379  406.708
 380  339.6507
 381  217.3646
 382  255.9787
 383  336.7295
 384  253.4622
 385  187.5019
 386  186.5672
 387  231.1512
 388  246.5131
 389  137.0079
 390  154.3431
 391  228.0172
 392  316.342
 393  282.5318
 394  285.4568
 395  228.8518
 396  159.3321
 397  167.6759
 398  254.1778
 399  198.9853
 400  66.97645
 401  157.7427
 402  168.0854
 403  180.3342
 404  161.2592
 405  59.74397
 406  180.0534
 407  223.4427
 408  176.3957
 409  173.2305
 410  223.2278
 411  342.8494
 412  232.8224
 413  252.696
 414  172.8763
 415  162.3348
 416  311.3936
 417  347.6677
 418  328.39
 419  299.1716
 420  294.3019
 421  340.8533
 422  262.1457
 423  186.4121
 424  365.4203
 425  341.5428
 426  322.0257
 427  243.5729
 428  263.2238
 429  186.8029
 430  204.5191
 431  170.1855
 432  102.1313
 433  141.5311
 434  172.0047
 435  360.521
 436  405.1517
 437  217.6962
 438  199.1022
 439  209.6491
 440  196.0748
 441  148.1954
 442  142.1467
 443  282.2702
 444  294.5958
 445  253.9919
 446  187.9292
 447  182.9606
 448  221.8098
 449  256.1251
 450  250.922
 451  196.0677
 452  275.0003
 453  287.5919
 454  241.981
 455  90.20217
 456  178.5304
 457  225.1933
 458  263.8741
 459  333.1172
 460  207.0787
 461  159.6088
 462  121.9449
 463  65.11983
 464  71.30441
 465  88.64213
 466  196.5306
 467  155.0234
 468  165.3768
 469  157.0669
 470  187.754
 471  211.8335
 472  169.7531
 473  193.9574
 474  340.3375
 475  294.853
 476  236.0762
 477  281.8705
 478  314.1732
 479  379.1956
 480  332.9329
 481  345.3273
 482  238.2474
 483  266.0723
 484  235.0542
 485  205.2218
 486  168.1515
 487  156.6812
 488  232.3406
 489  306.5765
 490  328.1186
 491  213.7628
 492  177.9253
 493  251.1866
 494  321.7406
 495  394.1293
 496  401.2265
 497  176.9319
 498  193.2544
 499  372.4815
 500  148.1776
 501  227.3018
 502  360.1311
 503  297.6127
 504  281.1433
 505  420.3044
 506  523.7627
 507  321.0455
 508  257.9819
 509  541.0383
 510  816.918
 511  991.1436
