# Input file       =  1200859475.122465_cleaned.dat
# Candidate        =  PSR_0332+5434
# Telescope        =  AR
# Epoch_topo       =  58142.836737528531
# Epoch_bary       =  N/A
# T_sample         =  0.002
# Data Folded      =  7340032
# Data Avg         =  0.0641392741433394
# Data StdDev      =  3.12562125807193 
# Profile Bins     =  256
# Profile Avg      =  1838.41972610354 
# Profile StdDev   =  529.25545865185  
# Reduced chi-sqr  =  0.878
# Prob(Noise)      <  0.92   (~0.0 sigma)
# P_topo (ms)      =  714.572900115806  +/- 0.00136
# P'_topo (s/s)    =  -0                +/- 7.2e-10
# P''_topo (s/s^2) =  0                 +/- 3.18e-13
# P_bary (ms)      =  N/A
# P'_bary (s/s)    =  N/A
# P''_bary (s/s^2) =  N/A
# P_orb (s)        =  N/A
# asin(i)/c (s)    =  N/A
# eccentricity     =  N/A
# w (rad)          =  N/A
# T_peri           =  N/A
######################################################
   0  1591.86
   1  2044.473
   2  1699.172
   3  1744.925
   4  1506.031
   5  1781.882
   6  1978.44
   7  2029.68
   8  1877.208
   9  1661.887
  10  1686.522
  11  1253.11
  12  1654.041
  13  1855.515
  14  1461.848
  15  1430.357
  16  2268.895
  17  2107.114
  18  1373.358
  19  1535.744
  20  1483.769
  21  2022.252
  22  1879.916
  23  1795.233
  24  1716.298
  25  2147.923
  26  1945.162
  27  1860.706
  28  2038.224
  29  2144.027
  30  2001.748
  31  1786.06
  32  1752.564
  33  2179.116
  34  2214.813
  35  2043.97
  36  1954.146
  37  2038.665
  38  1889.381
  39  1680.472
  40  1551.365
  41  2260.659
  42  2027.305
  43  2668.971
  44  1672.312
  45  1415.491
  46  1255.838
  47  2189.259
  48  2601.862
  49  2340.857
  50  1299.977
  51  1642.521
  52  1438.044
  53  1398.96
  54  1459.405
  55  1711.409
  56  1840.744
  57  1902.735
  58  1232.435
  59  1768.924
  60  1964.285
  61  1604.197
  62  2231.052
  63  1865.536
  64  913.221
  65  927.0293
  66  1338.228
  67  1540.832
  68  1824.719
  69  2240.721
  70  1576.256
  71  1975.549
  72  2586.009
  73  2429.879
  74  2357.536
  75  2205.888
  76  2389.331
  77  2145.279
  78  2450.032
  79  2100.564
  80  1851.996
  81  1920.314
  82  1396.688
  83  1203.949
  84  1492.023
  85  1652.08
  86  1695.129
  87  1888.574
  88  1741.637
  89  1889.9
  90  2031.427
  91  1720.402
  92  2235.729
  93  2161.837
  94  1599.758
  95  1590.94
  96  1764.725
  97  1261.319
  98  2091.128
  99  1623.457
 100  1963.961
 101  2265.248
 102  2037.069
 103  1607.964
 104  1421.184
 105  1917.5
 106  2038.693
 107  1576.415
 108  1614.252
 109  2234.795
 110  2515.757
 111  2002.62
 112  2141.346
 113  2135.216
 114  1767.948
 115  1868.817
 116  1813.489
 117  1900.873
 118  1350.437
 119  1634.548
 120  2036.97
 121  2066.726
 122  1630.392
 123  1513.302
 124  1788.6
 125  1482.997
 126  975.8141
 127  1574.722
 128  1442.151
 129  2119.808
 130  1685.167
 131  1513.629
 132  936.376
 133  1287.013
 134  1993.959
 135  1688.893
 136  2055.626
 137  1636.691
 138  1650.53
 139  2112.917
 140  2060.594
 141  1938.981
 142  1644.387
 143  1803.352
 144  2276.872
 145  2268.9
 146  2762.659
 147  2231.319
 148  2019.96
 149  1699.13
 150  2043.673
 151  2113.321
 152  2472.33
 153  4123.099
 154  3965.5
 155  3464.978
 156  1750.116
 157  1506.954
 158  2206.137
 159  2322.101
 160  2006.759
 161  1788.995
 162  1999.161
 163  1836.872
 164  2530.172
 165  1370.007
 166  1689.124
 167  2205.672
 168  2640.552
 169  3007.942
 170  1598.495
 171  1647.382
 172  2154.093
 173  1900.345
 174  2174.845
 175  1887.87
 176  1796.47
 177  2063.127
 178  2330.256
 179  1686.509
 180  1809.468
 181  1669.793
 182  2284.868
 183  2272.409
 184  2332.885
 185  1568.41
 186  1851.041
 187  1505.999
 188  1952.396
 189  2014.732
 190  1424.446
 191  1778.678
 192  1758.557
 193  1542.524
 194  1645.732
 195  2324.35
 196  2313.227
 197  1682.229
 198  1599.171
 199  1822.842
 200  2716.18
 201  2731.141
 202  1865.001
 203  1575.735
 204  1864.226
 205  2305.34
 206  1066.081
 207  1298.605
 208  1791.897
 209  1648.586
 210  1312.955
 211  1642.317
 212  1180.776
 213  1297.712
 214  1478.473
 215  1323.709
 216  1692.31
 217  1952.901
 218  1589.061
 219  1156.62
 220  1774.313
 221  2328.53
 222  1595.395
 223  1675.797
 224  1599.107
 225  1346.334
 226  1655.028
 227  1953.646
 228  1726.329
 229  1681.223
 230  1855.073
 231  1568.385
 232  1647.206
 233  1102.092
 234  1709.213
 235  1952.322
 236  1554.674
 237  1558.433
 238  1156.07
 239  1211.189
 240  2149.7
 241  1311.026
 242  2262.401
 243  1557.093
 244  1267.317
 245  1376.918
 246  1419.096
 247  2098.672
 248  1767.59
 249  1616.229
 250  863.7146
 251  2015.577
 252  1892.698
 253  2168.238
 254  1430.599
 255  1880.686
