# Input file       =  1200312473.104338_cleaned.dat
# Candidate        =  PSR_0332+5434
# Telescope        =  AR
# Epoch_topo       =  58136.505695652057
# Epoch_bary       =  N/A
# T_sample         =  0.002
# Data Folded      =  7143424
# Data Avg         =  0.178917345534284
# Data StdDev      =  4.89558644947137 
# Profile Bins     =  256
# Profile Avg      =  4992.82608101102 
# Profile StdDev   =  817.782769173603 
# Reduced chi-sqr  =  1.569
# Prob(Noise)      <  1.66e-08   (~5.5 sigma)
# P_topo (ms)      =  714.568868016074  +/- 2.76e-05
# P'_topo (s/s)    =  -0                +/- 1.5e-11
# P''_topo (s/s^2) =  0                 +/- 6.79e-15
# P_bary (ms)      =  N/A
# P'_bary (s/s)    =  N/A
# P''_bary (s/s^2) =  N/A
# P_orb (s)        =  N/A
# asin(i)/c (s)    =  N/A
# eccentricity     =  N/A
# w (rad)          =  N/A
# T_peri           =  N/A
######################################################
   0  4229.223
   1  4038.774
   2  5496.338
   3  4630.483
   4  4364.182
   5  4910.513
   6  6671.985
   7  6470.368
   8  4316.262
   9  4208.613
  10  6185.8
  11  5732.347
  12  4466.5
  13  4889.75
  14  6034.733
  15  6082.894
  16  3607.422
  17  4598.478
  18  5056.194
  19  5168.698
  20  3787.609
  21  5143.592
  22  5841.883
  23  5877.53
  24  3971.01
  25  3642.086
  26  4166.912
  27  5520.396
  28  4646.031
  29  3987.594
  30  5456.373
  31  6626.741
  32  4635.103
  33  4048.941
  34  4520.612
  35  5744.837
  36  4726.005
  37  4347.916
  38  5416.235
  39  6450.448
  40  5663.317
  41  3761.023
  42  4392.134
  43  5717.133
  44  5229.497
  45  3753.072
  46  4484.685
  47  6731.203
  48  5913.327
  49  4082.346
  50  4320.866
  51  4942.551
  52  5493.658
  53  4091.288
  54  4862.817
  55  6074.419
  56  6426.577
  57  4114.751
  58  4035.758
  59  4616.753
  60  5434.055
  61  4399.774
  62  4668.135
  63  5298.86
  64  6392.111
  65  4987.916
  66  4311.641
  67  4439.138
  68  4929.846
  69  4719.99
  70  3751.396
  71  4023.197
  72  6068.512
  73  4885.167
  74  3270.543
  75  5024.032
  76  4911.363
  77  4780.397
  78  3596.454
  79  4844.604
  80  6275.494
  81  5994.143
  82  4226.274
  83  4446.896
  84  4948.958
  85  5137.554
  86  3029.726
  87  4625.449
  88  5293.607
  89  5457.659
  90  3864.513
  91  3936.662
  92  4910.97
  93  6057.73
  94  3795.439
  95  4411.362
  96  5560.191
  97  6585.049
  98  4449.309
  99  3652.883
 100  3776.444
 101  5376.476
 102  5299.664
 103  4235.755
 104  4101.268
 105  6078.456
 106  5615.79
 107  3758.859
 108  5099.181
 109  5548.291
 110  5025.001
 111  3421.394
 112  5004.819
 113  5952.222
 114  5907.241
 115  3558.511
 116  3840.259
 117  4995.232
 118  6092.546
 119  3422.922
 120  4875.397
 121  5934.492
 122  6375.618
 123  4441.042
 124  4685.554
 125  4256.34
 126  5023.922
 127  3894.128
 128  4555.502
 129  5341.722
 130  6211.286
 131  4974.809
 132  3916.4
 133  4085.532
 134  4745.665
 135  4377.182
 136  3843.159
 137  4785.272
 138  5477.358
 139  6014.385
 140  3830.092
 141  4096.172
 142  4281.726
 143  5740.485
 144  4520.007
 145  5282.078
 146  6250.299
 147  6504.522
 148  4530.9
 149  4820.031
 150  5383.979
 151  6218.194
 152  4870.73
 153  6418.663
 154  8393.349
 155  8283.379
 156  4964.18
 157  4448.485
 158  4146.082
 159  5316.543
 160  4079.158
 161  4362.432
 162  4916.472
 163  6079.704
 164  4967.722
 165  3786.016
 166  4328.92
 167  4885.896
 168  5191.277
 169  4696.999
 170  5634.579
 171  5859.65
 172  6183.16
 173  4110.495
 174  4777.799
 175  4995.958
 176  5753.247
 177  3897.41
 178  4968.85
 179  5782.736
 180  6000.86
 181  3958.151
 182  4866.487
 183  4201.534
 184  4883.037
 185  3861.888
 186  4517.685
 187  5225.556
 188  6148.462
 189  4544.29
 190  4331.247
 191  4593.439
 192  5171.821
 193  3366.25
 194  4310.234
 195  5695.249
 196  6611.392
 197  5589.836
 198  4301.174
 199  4952.744
 200  5124.221
 201  4016.571
 202  4049.502
 203  5656.639
 204  6409.743
 205  5969.608
 206  4256.625
 207  5194.406
 208  5042.234
 209  5760.73
 210  3481.755
 211  4713.66
 212  6377.035
 213  6815.719
 214  4794.301
 215  4939.538
 216  4892.513
 217  5792.537
 218  4112.875
 219  5409.418
 220  5560.987
 221  6322.797
 222  4692.79
 223  4814.702
 224  5070.203
 225  5626.246
 226  4497.506
 227  4779.162
 228  5527.736
 229  6723.025
 230  5756.012
 231  4247.827
 232  4899.285
 233  5731.395
 234  5591.099
 235  4112.949
 236  5111.624
 237  5671.517
 238  5463.331
 239  4179.621
 240  4790.425
 241  5114.355
 242  5850.947
 243  3847.768
 244  4660.56
 245  6094.341
 246  6434.081
 247  4488.489
 248  4510.402
 249  5140.554
 250  5954.98
 251  3857.629
 252  4735.739
 253  5779.531
 254  6302.884
 255  4974.955
