# Input file       =  1200140058.09837_cleaned.dat
# Candidate        =  PSR_0332+5434
# Telescope        =  AR
# Epoch_topo       =  58134.510151601506
# Epoch_bary       =  N/A
# T_sample         =  0.002
# Data Folded      =  7208960
# Data Avg         =  0.0178616331257948
# Data StdDev      =  0.999534744146343
# Profile Bins     =  512
# Profile Avg      =  251.486083685864 
# Profile StdDev   =  118.603968917403 
# Reduced chi-sqr  =  1.772
# Prob(Noise)      <  2.04e-24   (~10.1 sigma)
# P_topo (ms)      =  714.567577955999  +/- 6.56e-05
# P'_topo (s/s)    =  -0                +/- 3.53e-11
# P''_topo (s/s^2) =  0                 +/- 1.58e-14
# P_bary (ms)      =  N/A
# P'_bary (s/s)    =  N/A
# P''_bary (s/s^2) =  N/A
# P_orb (s)        =  N/A
# asin(i)/c (s)    =  N/A
# eccentricity     =  N/A
# w (rad)          =  N/A
# T_peri           =  N/A
######################################################
   0  1079.87
   1  955.0667
   2  632.5352
   3  419.8632
   4  225.3842
   5  320.717
   6  305.2791
   7  235.4998
   8  236.1982
   9  386.341
  10  396.9008
  11  371.7468
  12  350.4927
  13  348.9485
  14  336.6597
  15  426.5303
  16  387.1775
  17  209.9619
  18  111.888
  19  161.4168
  20  266.6043
  21  298.9229
  22  134.7392
  23  119.4753
  24  285.362
  25  209.2036
  26  271.0171
  27  255.8194
  28  176.1088
  29  146.1873
  30  194.6972
  31  182.6058
  32  213.981
  33  181.3506
  34  129.0766
  35  214.6302
  36  244.8494
  37  308.3563
  38  220.0204
  39  199.3446
  40  312.9799
  41  250.4814
  42  255.6238
  43  227.3643
  44  93.03259
  45  114.982
  46  286.716
  47  260.3956
  48  315.7695
  49  338.1656
  50  297.955
  51  170.208
  52  137.8061
  53  220.7123
  54  164.7157
  55  82.20149
  56  174.3499
  57  184.4125
  58  226.9821
  59  168.6326
  60  295.0333
  61  221.914
  62  212.6527
  63  145.8278
  64  233.7539
  65  323.2195
  66  300.1389
  67  310.9057
  68  132.5323
  69  155.8374
  70  243.1268
  71  122.7739
  72  108.5517
  73  163.2682
  74  212.948
  75  337.7385
  76  214.3716
  77  198.8033
  78  207.9158
  79  177.3713
  80  186.0541
  81  159.0319
  82  155.894
  83  106.1502
  84  259.561
  85  97.79962
  86  205.9536
  87  300.1838
  88  239.3961
  89  223.0312
  90  155.2328
  91  159.1861
  92  298.0499
  93  242.1324
  94  160.5745
  95  91.43076
  96  41.11165
  97  114.3386
  98  235.6004
  99  275.7498
 100  299.9536
 101  287.0744
 102  249.2657
 103  109.5209
 104  107.1763
 105  230.9349
 106  302.5429
 107  318.6335
 108  331.0403
 109  218.7332
 110  256.1129
 111  195.5149
 112  210.8649
 113  107.2354
 114  165.4554
 115  266.2077
 116  277.6447
 117  308.9748
 118  281.5274
 119  182.2042
 120  86.0705
 121  149.3457
 122  182.4738
 123  211.849
 124  235.9158
 125  225.3755
 126  274.6406
 127  232.7158
 128  184.0054
 129  221.3406
 130  312.1615
 131  436.6666
 132  263.0869
 133  76.10475
 134  140.4537
 135  214.3143
 136  186.2853
 137  255.5593
 138  301.8474
 139  200.8981
 140  201.8054
 141  157.2907
 142  96.61154
 143  135.7173
 144  186.4926
 145  258.3089
 146  278.5463
 147  261.6813
 148  255.3031
 149  415.5291
 150  378.2952
 151  322.4981
 152  306.9734
 153  275.6194
 154  251.1886
 155  235.6411
 156  261.1056
 157  354.7273
 158  333.7939
 159  191.8866
 160  207.4855
 161  165.2175
 162  205.9249
 163  300.6632
 164  348.5077
 165  374.7687
 166  271.7288
 167  132.316
 168  221.1649
 169  130.378
 170  168.3809
 171  203.9287
 172  132.575
 173  257.443
 174  235.9444
 175  175.1659
 176  200.6431
 177  345.9636
 178  193.9169
 179  153.4482
 180  229.5628
 181  422.1535
 182  494.1906
 183  416.8079
 184  244.6554
 185  286.5557
 186  306.4215
 187  175.7023
 188  109.3199
 189  180.6503
 190  251.8324
 191  219.8676
 192  240.015
 193  203.6459
 194  263.7053
 195  314.3582
 196  302.7335
 197  397.1071
 198  453.567
 199  258.1746
 200  156.5119
 201  222.3828
 202  207.5538
 203  236.8803
 204  114.9126
 205  264.9038
 206  315.2501
 207  407.1104
 208  319.8454
 209  161.6346
 210  244.0437
 211  286.1327
 212  390.0151
 213  397.3028
 214  466.4271
 215  416.5746
 216  356.1017
 217  274.651
 218  381.5428
 219  384.5989
 220  408.2913
 221  280.216
 222  381.325
 223  383.2215
 224  290.4088
 225  233.6422
 226  303.6633
 227  284.4529
 228  367.639
 229  414.9167
 230  428.0292
 231  423.5714
 232  384.9098
 233  364.1215
 234  370.304
 235  269.0598
 236  272.0005
 237  216.8232
 238  220.8768
 239  323.3514
 240  270.7559
 241  284.7156
 242  163.3312
 243  161.9879
 244  257.955
 245  239.3384
 246  223.9574
 247  286.7919
 248  290.1659
 249  156.6984
 250  142.2677
 251  141.0749
 252  239.9381
 253  307.1649
 254  304.8192
 255  291.5338
 256  276.8107
 257  340.7041
 258  315.3013
 259  138.6484
 260  178.2978
 261  218.4345
 262  228.3765
 263  257.2206
 264  349.3054
 265  223.2075
 266  174.8484
 267  124.9461
 268  164.1618
 269  98.62445
 270  236.9388
 271  377.3687
 272  445.4956
 273  447.393
 274  391.4735
 275  345.4428
 276  285.7668
 277  163.6605
 278  325.6016
 279  455.3772
 280  361.7774
 281  377.3106
 282  337.8139
 283  263.3617
 284  226.4078
 285  271.7016
 286  143.9632
 287  130.0768
 288  199.7868
 289  342.0515
 290  267.8638
 291  263.0039
 292  285.7107
 293  258.8952
 294  157.9589
 295  235.4315
 296  374.8939
 297  377.7395
 298  308.1604
 299  353.2292
 300  402.6671
 301  338.0679
 302  275.9566
 303  214.0752
 304  272.5991
 305  379.9345
 306  352.6417
 307  372.5415
 308  258.326
 309  146.297
 310  137.3221
 311  258.0214
 312  258.356
 313  379.1172
 314  452.641
 315  435.352
 316  303.2698
 317  226.9131
 318  195.5083
 319  228.3026
 320  300.0378
 321  295.2268
 322  302.3067
 323  228.3962
 324  132.4182
 325  175.828
 326  104.9582
 327  89.49309
 328  180.2177
 329  264.8183
 330  383.1544
 331  280.8796
 332  135.4824
 333  98.69908
 334  251.7097
 335  306.9393
 336  199.5508
 337  272.1907
 338  349.9153
 339  378.664
 340  325.8224
 341  149.8255
 342  146.6764
 343  284.4879
 344  307.9101
 345  136.7298
 346  198.4037
 347  325.1791
 348  341.8551
 349  272.9005
 350  164.1561
 351  218.9787
 352  255.05
 353  244.6348
 354  382.4764
 355  374.8629
 356  367.7707
 357  353.0394
 358  210.7103
 359  245.0385
 360  145.8545
 361  202.6804
 362  88.74565
 363  201.7297
 364  284.2948
 365  320.2211
 366  334.9476
 367  299.4024
 368  268.2754
 369  166.865
 370  262.0178
 371  269.7303
 372  300.2085
 373  361.2986
 374  120.0866
 375  132.0895
 376  189.3974
 377  106.3703
 378  130.4201
 379  207.4926
 380  271.1495
 381  220.1579
 382  127.7481
 383  174.9564
 384  199.4733
 385  175.2514
 386  258.947
 387  267.1601
 388  128.6872
 389  177.917
 390  241.1335
 391  273.4437
 392  221.9429
 393  158.2825
 394  158.061
 395  200.0169
 396  252.2903
 397  246.4145
 398  308.2645
 399  181.225
 400  177.0674
 401  139.8305
 402  141.7905
 403  191.793
 404  277.7796
 405  222.7431
 406  98.11966
 407  94.47277
 408  246.826
 409  220.2033
 410  189.7691
 411  269.4014
 412  194.46
 413  118.0567
 414  90.14723
 415  97.64297
 416  139.1806
 417  102.6461
 418  243.8057
 419  382.0645
 420  389.1205
 421  285.2367
 422  202.0889
 423  216.7267
 424  205.5199
 425  105.6065
 426  132.13
 427  267.1971
 428  325.3647
 429  316.9021
 430  277.9417
 431  191.3227
 432  163.442
 433  206.5576
 434  175.1306
 435  79.73694
 436  187.6526
 437  264.5247
 438  306.1844
 439  326.4775
 440  260.9901
 441  180.6871
 442  118.2775
 443  133.9638
 444  137.1064
 445  194.2407
 446  209.5464
 447  228.8916
 448  247.5312
 449  224.3079
 450  139.9339
 451  142.7395
 452  212.4313
 453  230.2408
 454  240.5823
 455  189.5995
 456  92.53868
 457  166.0777
 458  232.3901
 459  81.53548
 460  85.30876
 461  73.64559
 462  65.71456
 463  120.4213
 464  188.0453
 465  164.8452
 466  135.3558
 467  213.4786
 468  116.7227
 469  124.4228
 470  232.3437
 471  191.022
 472  262.3006
 473  293.6108
 474  129.7875
 475  78.14374
 476  128.2381
 477  274.3865
 478  299.8583
 479  300.0369
 480  373.468
 481  242.6367
 482  185.0044
 483  225.3927
 484  160.336
 485  279.6289
 486  392.4728
 487  492.6958
 488  319.0805
 489  378.0547
 490  264.8701
 491  312.1271
 492  225.6579
 493  293.3071
 494  412.1529
 495  398.4878
 496  285.5945
 497  333.0615
 498  375.9355
 499  232.7677
 500  111.6146
 501  219.8829
 502  234.1937
 503  200.679
 504  393.7103
 505  419.4685
 506  304.2608
 507  207.1811
 508  442.8838
 509  712.6214
 510  915.9685
 511  1050.718
