# Input file       =  1200844563.106615-PSRB0329-2ms-sampling-dd.dat
# Candidate        =  PSR_0332+5434
# Telescope        =  AR
# Epoch_topo       =  58142.664144752489
# Epoch_bary       =  N/A
# T_sample         =  0.002
# Data Folded      =  7340032
# Data Avg         =  6.93723112257535e-10
# Data StdDev      =  86.4913702564362 
# Profile Bins     =  512
# Profile Avg      =  -0.0101592611605794
# Profile StdDev   =  10355.8743811902 
# Reduced chi-sqr  =  1.302
# Prob(Noise)      <  4.55e-06   (~4.4 sigma)
# P_topo (ms)      =  714.572467714413  +/- 0.000351
# P'_topo (s/s)    =  -0                +/- 1.85e-10
# P''_topo (s/s^2) =  0                 +/- 8.17e-14
# P_bary (ms)      =  N/A
# P'_bary (s/s)    =  N/A
# P''_bary (s/s^2) =  N/A
# P_orb (s)        =  N/A
# asin(i)/c (s)    =  N/A
# eccentricity     =  N/A
# w (rad)          =  N/A
# T_peri           =  N/A
######################################################
   0  -2858.837
   1  -4034.399
   2  -4136.272
   3  -4310.742
   4  -4032.252
   5  -3599.919
   6  -3119.621
   7  -2875.95
   8  -2559.469
   9  -2297.723
  10  -1499.847
  11  -368.9461
  12  -322.9688
  13  -857.621
  14  -852.9925
  15  -736.2917
  16  -963.3769
  17  -293.7811
  18  -1348.316
  19  -3027.152
  20  -3974.547
  21  -4709.06
  22  -5636.977
  23  -6479.573
  24  -6079.919
  25  -5283.619
  26  -4562.634
  27  -4465.975
  28  -4665.128
  29  -4718.271
  30  -5304.691
  31  -5860.327
  32  -4752.944
  33  -4480.858
  34  -5166.811
  35  -4020.76
  36  -5143.889
  37  -6486.268
  38  -5536.545
  39  -5649.485
  40  -3587.594
  41  14242.8
  42  16716.23
  43  20764.46
  44  28143.62
  45  18462.13
  46  13602.38
  47  9107.308
  48  6182.036
  49  14356.75
  50  26782.46
  51  59740.63
  52  47832.82
  53  36535.64
  54  27321.3
  55  -3543.396
  56  3488.026
  57  9227.164
  58  12590.05
  59  5465.119
  60  1781.289
  61  473.1598
  62  -4375.2
  63  -5015.213
  64  -4941.307
  65  -4797.54
  66  -4899.572
  67  -4967.586
  68  -4466.259
  69  -3784.695
  70  -2869.406
  71  -2639.189
  72  -3000.972
  73  -4888.617
  74  -4606.469
  75  -4245.457
  76  -3879.777
  77  -3614.103
  78  -4037.083
  79  -4786.825
  80  -5645.373
  81  -5485.917
  82  -5101.702
  83  -4330.45
  84  -4472.665
  85  -5073.469
  86  -4946.057
  87  -5111.458
  88  -4931.047
  89  -5172.603
  90  -4691.016
  91  -5100.23
  92  -5196.711
  93  -6101.744
  94  -6086
  95  -6382.02
  96  -6453.751
  97  -5857.892
  98  -5901.327
  99  -5985.95
 100  -5791.197
 101  -6190.662
 102  -6596.869
 103  -6473.947
 104  -6030.352
 105  -5940.501
 106  -5798.044
 107  -5655.978
 108  -5417.769
 109  -5234.224
 110  -5001.513
 111  -4232.396
 112  -4255.21
 113  -3825.185
 114  -4406.255
 115  -5057.319
 116  -5321.293
 117  -4836.666
 118  -4838.669
 119  -5148.545
 120  -4720.891
 121  -4518.961
 122  -4126.192
 123  -3783.275
 124  -4092.266
 125  -4172.461
 126  -4873.294
 127  -3398.021
 128  -3007.413
 129  -2677.14
 130  -3638.996
 131  -4284.619
 132  -5308.78
 133  -4872.756
 134  -4888.133
 135  -5056.813
 136  -4897.295
 137  -5018.113
 138  -5800.947
 139  -5102.381
 140  -2185.635
 141  1393.525
 142  2591.903
 143  2289.519
 144  1020.153
 145  -3628.378
 146  -3863.225
 147  -3160.888
 148  -3206.445
 149  -4028.152
 150  -4227.742
 151  -2960.427
 152  -3567.28
 153  -2614.683
 154  -2384.714
 155  -2391.828
 156  -3325.651
 157  -4315.972
 158  -4458.751
 159  -3656.263
 160  -3096.132
 161  -2991.56
 162  -3298.913
 163  -4917.195
 164  -5221.565
 165  -5978.709
 166  -5959.046
 167  -5930.53
 168  -5748.341
 169  -5698.895
 170  -5439.515
 171  -5226.375
 172  -4590.12
 173  -5105.708
 174  -5554.656
 175  -6291.178
 176  -5971.618
 177  -5980.349
 178  -6061.659
 179  -6054.735
 180  -5750.28
 181  -5277.508
 182  -4543.642
 183  -4493.358
 184  -4154.831
 185  -4181.486
 186  -5319.488
 187  -5146.879
 188  -5372.44
 189  -3443.674
 190  1466.995
 191  8851.613
 192  14538.58
 193  19033.6
 194  26508.32
 195  10231.5
 196  10525.93
 197  11928.83
 198  35410.43
 199  39862.16
 200  43408.55
 201  43143.4
 202  23324.43
 203  15338.18
 204  8256.272
 205  7136.451
 206  4740.112
 207  2687.47
 208  6789.988
 209  4040.456
 210  2338.086
 211  -341.0806
 212  269.9743
 213  132.7957
 214  201.3508
 215  767.9301
 216  1457.121
 217  1799.76
 218  253.7595
 219  -1903.845
 220  -3449.955
 221  -3832.979
 222  -2431.683
 223  -1975.913
 224  -2299.946
 225  -3530.143
 226  -4191.409
 227  -4997.727
 228  -4291.139
 229  -2732.76
 230  -2396.693
 231  -1849.574
 232  -2674.374
 233  -3588.981
 234  -5573.942
 235  -3562.162
 236  -2525.24
 237  -1466.396
 238  -2246.713
 239  -3127.647
 240  -3948.103
 241  -5006.625
 242  -4623.397
 243  -4619.002
 244  -3317.731
 245  -1765.292
 246  834.1276
 247  5332.818
 248  4837.503
 249  4700.225
 250  1583.61
 251  879.0162
 252  -60.35275
 253  -1544.265
 254  -373.5334
 255  -1300.421
 256  -1564.481
 257  -1981.058
 258  -2283.207
 259  -3414.838
 260  -3414.526
 261  -1763.73
 262  272.2912
 263  3334.646
 264  3581.52
 265  1307
 266  814.3445
 267  -3438.133
 268  -3110.274
 269  -253.1346
 270  308.4427
 271  6285.398
 272  12385.9
 273  20601.37
 274  23252.02
 275  26511.36
 276  28871.72
 277  21789.7
 278  16383.55
 279  15466.59
 280  3281.658
 281  3353.075
 282  8693.684
 283  2891.756
 284  1091.48
 285  87.8709
 286  -221.1566
 287  -1075.607
 288  -2212.692
 289  -3607.159
 290  -2685.718
 291  -4368.057
 292  -4419.436
 293  -4283.479
 294  -2748.539
 295  -2999.563
 296  -3553.423
 297  -4100.443
 298  -5158.246
 299  -5115.092
 300  -5040.176
 301  -3748.63
 302  -3727.765
 303  -3554.526
 304  -3668.591
 305  -4278.831
 306  -4731.909
 307  -4043.729
 308  -2662.385
 309  -2382.378
 310  -3168.99
 311  -3779.344
 312  -4912.173
 313  -5715.651
 314  -4558.411
 315  -3007.138
 316  -2499.897
 317  -2004.392
 318  -2815.691
 319  -3464.693
 320  -4179.825
 321  -5217.561
 322  -4742.348
 323  -2828.57
 324  -3116.402
 325  -3213.236
 326  3286.647
 327  19449.29
 328  25188.48
 329  20769.88
 330  17051.04
 331  8836.275
 332  -2793.432
 333  4446.807
 334  6059.753
 335  7259.359
 336  414.0499
 337  724.1644
 338  1606.404
 339  320.8159
 340  1628.257
 341  2766.084
 342  -1427.548
 343  -2552.808
 344  -4257.469
 345  -4150.385
 346  -3699.647
 347  -4531.596
 348  -4567.971
 349  -4475.521
 350  -3927.802
 351  -2440.997
 352  -926.2763
 353  -630.0938
 354  289.1387
 355  -412.08
 356  -2422.138
 357  -1920.294
 358  -2741.167
 359  -1532.117
 360  -2749.73
 361  -3273.164
 362  -3370.768
 363  -4505.708
 364  -3949.995
 365  -3136.457
 366  -4229.569
 367  -2759.66
 368  12374.09
 369  15062.51
 370  13921.51
 371  11698.76
 372  1055.724
 373  -1988.92
 374  -3289.118
 375  5566.47
 376  5748.252
 377  3551.963
 378  3387.039
 379  977.4546
 380  -1978.566
 381  -3347.342
 382  -2879.631
 383  -2422.529
 384  -2400.982
 385  -3363.019
 386  -4356.211
 387  -4761.72
 388  -5327.049
 389  -5193.838
 390  -5423.274
 391  -5223.428
 392  -4908.646
 393  -4217.805
 394  -4021.987
 395  -3898.956
 396  -3838.882
 397  -3369.694
 398  -3450.902
 399  -4001.715
 400  -2278.93
 401  -1428.765
 402  -1416.349
 403  -1580.94
 404  -2383.383
 405  -3575.662
 406  -3534.375
 407  -1203.379
 408  -1063.235
 409  -514.5387
 410  -1491.159
 411  -2330.014
 412  -3814.085
 413  -4385.529
 414  -3664.927
 415  -3912.531
 416  -3841.348
 417  -3832.199
 418  -4296.528
 419  -4509.389
 420  -5179.537
 421  -5197.541
 422  -5284.442
 423  -5272.496
 424  -5373.007
 425  -5203.375
 426  -4858.945
 427  -4948.904
 428  -4934.05
 429  -4945.789
 430  -4338.075
 431  -4444.869
 432  -5030.744
 433  -5242.913
 434  -5268.487
 435  -5225.364
 436  -4172.955
 437  -3090.451
 438  -2667.809
 439  -3099.124
 440  -3159.036
 441  -4020.533
 442  -4198.317
 443  -2649.974
 444  -2166.979
 445  -2105.544
 446  -1792.589
 447  -2910.638
 448  -3138.003
 449  -4933.126
 450  -3412.61
 451  3161.947
 452  21657.09
 453  31434.49
 454  26642.79
 455  21026.17
 456  10678.37
 457  -4015.299
 458  2385.823
 459  6662.885
 460  9580.659
 461  1328.204
 462  1338.694
 463  -847.0544
 464  -4199.596
 465  -3530.664
 466  -3255.821
 467  -2727.003
 468  -3183.298
 469  -4310.842
 470  -3550.326
 471  -2999.488
 472  -2492.165
 473  11010.7
 474  13047.51
 475  13243.99
 476  11314.43
 477  1366.906
 478  -1585.806
 479  -710.5052
 480  5577.927
 481  6996.638
 482  11546.23
 483  16212.17
 484  13635.42
 485  10414.47
 486  2395.889
 487  975.815
 488  138.4367
 489  4535.057
 490  2439.471
 491  1896.712
 492  1843.847
 493  1125.041
 494  1774.157
 495  1917.47
 496  1915.071
 497  -50.90987
 498  -782.0292
 499  -732.082
 500  711.0781
 501  -74.76285
 502  -1408.334
 503  -1559.231
 504  -2216.562
 505  -3000.609
 506  -3166.031
 507  -3853.754
 508  -4599.021
 509  -3522.221
 510  -3206.338
 511  -3211.892
