# Input file       =  1200327044.107096_cleaned.dat
# Candidate        =  PSR_0332+5434
# Telescope        =  AR
# Epoch_topo       =  58136.674341517311
# Epoch_bary       =  N/A
# T_sample         =  0.002
# Data Folded      =  7340032
# Data Avg         =  0.810744762063095
# Data StdDev      =  6.44118384168076 
# Profile Bins     =  512
# Profile Avg      =  11622.8432384741 
# Profile StdDev   =  771.222499225401 
# Reduced chi-sqr  =  0.566
# Prob(Noise)      <  1   (~0.0 sigma)
# P_topo (ms)      =  714.56898962011   +/- 0.000143
# P'_topo (s/s)    =  -0                +/- 7.52e-11
# P''_topo (s/s^2) =  0                 +/- 3.32e-14
# P_bary (ms)      =  N/A
# P'_bary (s/s)    =  N/A
# P''_bary (s/s^2) =  N/A
# P_orb (s)        =  N/A
# asin(i)/c (s)    =  N/A
# eccentricity     =  N/A
# w (rad)          =  N/A
# T_peri           =  N/A
######################################################
   0  11535.98
   1  11599.74
   2  11481.72
   3  11580.71
   4  11690.71
   5  11329.67
   6  12161.15
   7  11955.13
   8  11633.54
   9  11496.23
  10  11144.23
  11  11704.87
  12  11733.38
  13  10992.54
  14  11037.12
  15  11182.19
  16  11814.55
  17  11905.33
  18  11082.22
  19  11069.97
  20  10749.35
  21  10875.69
  22  11430.46
  23  11408.37
  24  11303.24
  25  10865.31
  26  11220.77
  27  11352.27
  28  11647.5
  29  11527.55
  30  11560.2
  31  11792.49
  32  11663.75
  33  11524.32
  34  11302.71
  35  11467.32
  36  11467.82
  37  11747
  38  11926.13
  39  11556.94
  40  12147.32
  41  11640.12
  42  11447.43
  43  11340.51
  44  10768.35
  45  10631.11
  46  10765.43
  47  11130.42
  48  10667.58
  49  11056.01
  50  11572.71
  51  11668.13
  52  10844.92
  53  10726.26
  54  10759.4
  55  10986.37
  56  10774.6
  57  11251.87
  58  11625.57
  59  11508.75
  60  10890.49
  61  11214.06
  62  11134.17
  63  10971.94
  64  11250.29
  65  10786.34
  66  10448.5
  67  11027.59
  68  11307.83
  69  11572.94
  70  11334.57
  71  11137.63
  72  11441.49
  73  11538.95
  74  11537.3
  75  10832.49
  76  10671.54
  77  11409.51
  78  11462.75
  79  11589.5
  80  11672.77
  81  11854.66
  82  10997.75
  83  11040.2
  84  11638.83
  85  11522.95
  86  11548.17
  87  11388.23
  88  11356.19
  89  11434.82
  90  11060.24
  91  11015.43
  92  11269.88
  93  11137.28
  94  11170.66
  95  11565.56
  96  11941.1
  97  11828.26
  98  11795.4
  99  11190
 100  11666.67
 101  11217.72
 102  11185.56
 103  11606.5
 104  11900.94
 105  11736.9
 106  11677.73
 107  11263.94
 108  11155.44
 109  11460.14
 110  11691.71
 111  11648.3
 112  12297.98
 113  11799.07
 114  11613.04
 115  11676.45
 116  11998.53
 117  11848.52
 118  11779.48
 119  12012.7
 120  11326.81
 121  11510.85
 122  11392.7
 123  11384.55
 124  11251.18
 125  11446.6
 126  11695.64
 127  12113.14
 128  12403.4
 129  12078.74
 130  11594.25
 131  11899.64
 132  11293.42
 133  11382.16
 134  11469.39
 135  11909.12
 136  12217.13
 137  11660.84
 138  11514.07
 139  11444.79
 140  11582.02
 141  12191.29
 142  11866.75
 143  11809
 144  11616.55
 145  11661.82
 146  11602.62
 147  11363.32
 148  11721.48
 149  11715.2
 150  11497.93
 151  12651.41
 152  12854.07
 153  12674.15
 154  12830.17
 155  12039.25
 156  11228.39
 157  10982.95
 158  11664.17
 159  11826.9
 160  12027.69
 161  11900.56
 162  11572.45
 163  11489.49
 164  11603.79
 165  11649.42
 166  11543.34
 167  11440.14
 168  11618.4
 169  11792
 170  12607.64
 171  12061.12
 172  11619.02
 173  11443.84
 174  11478.26
 175  12148.39
 176  12256.46
 177  12571.36
 178  12935.3
 179  12407.46
 180  12004.42
 181  11651.57
 182  12087.64
 183  11977.96
 184  12040.25
 185  12142.02
 186  12434.9
 187  12236.35
 188  11932.31
 189  11825.56
 190  12235.28
 191  12226.82
 192  12611.01
 193  12492.95
 194  12663.67
 195  11991.83
 196  12218.63
 197  11724.83
 198  11809.59
 199  12171.58
 200  12124.87
 201  12027.22
 202  12361.68
 203  11933.9
 204  11722.41
 205  11972.39
 206  12091.75
 207  11395.5
 208  11451.25
 209  11940.45
 210  12226.49
 211  11986.26
 212  11153.55
 213  11035.16
 214  11193.18
 215  11623.07
 216  11771.76
 217  11739.45
 218  11835.82
 219  12446.12
 220  11691.54
 221  11245.73
 222  11341.25
 223  11428.06
 224  11599.99
 225  12100.31
 226  12429.43
 227  12061.89
 228  11182.41
 229  10833.81
 230  11177.45
 231  11483.46
 232  11675.56
 233  11880.32
 234  11873.11
 235  12258.86
 236  11647.6
 237  10809.53
 238  10910.28
 239  10975.44
 240  11406.24
 241  11799.47
 242  11243.3
 243  11124.93
 244  11374.23
 245  11416.87
 246  11715.98
 247  11729.57
 248  11553.51
 249  12061.97
 250  11702.09
 251  11537.93
 252  12015.35
 253  11939.27
 254  11587.8
 255  11757.09
 256  11697.57
 257  11766.53
 258  11399.72
 259  11167.81
 260  11300.92
 261  11587.39
 262  11841.28
 263  12001.61
 264  12122.08
 265  12184.72
 266  11658.84
 267  11791.19
 268  11594.94
 269  11476.94
 270  11135.44
 271  11115.57
 272  10766.63
 273  10678.96
 274  10774.55
 275  11557.84
 276  11754.77
 277  11055.7
 278  11296.47
 279  11274.52
 280  11566.87
 281  11750.79
 282  11461.1
 283  11614.86
 284  11520.47
 285  11616.17
 286  11429.75
 287  11644.14
 288  11697.9
 289  11235.85
 290  11844.38
 291  12116.98
 292  11991.1
 293  11939.28
 294  11881.51
 295  11812.99
 296  11902.31
 297  11896.5
 298  12017.37
 299  11527.79
 300  11214.04
 301  11585.14
 302  11475.46
 303  11801.2
 304  12048.67
 305  12229.29
 306  11412.94
 307  11821.53
 308  12064.39
 309  11712.48
 310  11390.11
 311  11640.84
 312  11702.33
 313  10938.98
 314  10880.73
 315  10879.89
 316  11078.62
 317  11418.25
 318  11176.6
 319  11389.66
 320  10941.6
 321  11697.25
 322  11721.93
 323  11591.7
 324  11475.93
 325  11671.51
 326  11565.8
 327  11730.14
 328  12063.17
 329  11892.89
 330  11670.43
 331  12111.63
 332  12394.18
 333  11963.03
 334  11433.46
 335  11787.78
 336  11675.52
 337  11527.55
 338  11646.21
 339  11481.29
 340  11564.83
 341  11252.66
 342  11366.33
 343  12046.38
 344  12454.67
 345  12411.5
 346  12242.45
 347  11954.44
 348  11146.14
 349  11494.65
 350  11758.3
 351  11728.27
 352  12275.7
 353  12462.53
 354  11868.86
 355  10879.31
 356  11163.27
 357  10870.62
 358  11361.03
 359  11098.91
 360  11733.14
 361  12020.77
 362  12297.62
 363  12283.02
 364  12137.98
 365  11802.55
 366  11732.51
 367  11960.87
 368  11987.36
 369  11679.16
 370  11628.68
 371  11414.89
 372  11458.84
 373  11291.26
 374  11724.32
 375  11320.56
 376  11590.42
 377  11367.72
 378  12025.21
 379  12115.33
 380  11897.86
 381  12247.03
 382  11761.84
 383  11377.71
 384  11452.31
 385  12342.67
 386  11812.97
 387  11520.9
 388  11379.79
 389  11976.05
 390  12022.54
 391  12157.51
 392  12221.13
 393  12126.39
 394  12135.64
 395  11267.99
 396  10821.54
 397  10985.87
 398  11117.21
 399  11489.04
 400  11765.79
 401  11806.07
 402  11358.95
 403  11333.31
 404  11334.94
 405  11129.08
 406  10905.66
 407  11610.01
 408  11321.42
 409  11232.64
 410  11630.71
 411  11314.56
 412  11347.78
 413  11168.94
 414  11365.62
 415  11787.4
 416  11979.99
 417  11966.14
 418  12128.12
 419  11751.12
 420  11409.83
 421  11545.1
 422  11782.76
 423  11934.88
 424  11695.49
 425  11860.29
 426  11774.74
 427  11386.94
 428  11293.64
 429  11627.24
 430  11555.86
 431  11555.3
 432  11795.88
 433  11409.89
 434  11490.78
 435  11555.76
 436  11725.15
 437  11230.31
 438  11210.43
 439  10858.34
 440  11038.57
 441  11591.11
 442  11909.16
 443  11577.62
 444  11856.43
 445  11643.34
 446  11913.49
 447  11396.87
 448  11638.97
 449  11758.33
 450  11830.96
 451  11573.59
 452  11911.85
 453  12200.09
 454  12040.05
 455  11992.1
 456  11219.38
 457  11866.68
 458  11913.33
 459  11678.42
 460  11477.53
 461  11630.47
 462  11899.3
 463  11548.39
 464  11995.15
 465  12712.14
 466  12681.4
 467  12568.33
 468  12187.9
 469  12002
 470  11446.25
 471  11433.66
 472  10831.05
 473  10557.5
 474  10802.49
 475  11892.88
 476  11803.54
 477  11838.45
 478  11404.19
 479  11235.55
 480  11224.5
 481  11330.93
 482  11437.72
 483  11550.64
 484  11415.12
 485  11910.82
 486  11884.01
 487  11598.29
 488  11150.22
 489  11282.47
 490  11801.08
 491  12184.61
 492  12289.45
 493  12296.52
 494  11346.6
 495  11758.79
 496  11941.82
 497  11593.53
 498  11565.32
 499  11520.08
 500  11851.12
 501  11434.02
 502  11475.52
 503  12157.15
 504  12053.62
 505  11882.67
 506  11199.06
 507  11648.4
 508  11605.76
 509  11722.93
 510  12165.17
 511  12045.48
