# Input file       =  1200844563.106615_cleaned.dat
# Candidate        =  PSR_0332+5434
# Telescope        =  AR
# Epoch_topo       =  58142.664144752489
# Epoch_bary       =  N/A
# T_sample         =  0.002
# Data Folded      =  7340032
# Data Avg         =  0.020484485301289
# Data StdDev      =  1.00007975353516 
# Profile Bins     =  512
# Profile Avg      =  293.657659591984 
# Profile StdDev   =  119.742585509692 
# Reduced chi-sqr  =  1.374
# Prob(Noise)      <  3.64e-08   (~5.4 sigma)
# P_topo (ms)      =  714.572466515487  +/- 0.000189
# P'_topo (s/s)    =  -0                +/- 9.97e-11
# P''_topo (s/s^2) =  0                 +/- 4.4e-14
# P_bary (ms)      =  N/A
# P'_bary (s/s)    =  N/A
# P''_bary (s/s^2) =  N/A
# P_orb (s)        =  N/A
# asin(i)/c (s)    =  N/A
# eccentricity     =  N/A
# w (rad)          =  N/A
# T_peri           =  N/A
######################################################
   0  979.0212
   1  864.3428
   2  639.3158
   3  413.9562
   4  297.5005
   5  311.0134
   6  269.6653
   7  299.4271
   8  276.0817
   9  237.4303
  10  258.1264
  11  147.9056
  12  214.515
  13  392.2835
  14  402.507
  15  346.9048
  16  287.7174
  17  303.8067
  18  350.942
  19  319.1422
  20  333.7117
  21  342.8036
  22  343.0856
  23  389.6064
  24  360.4993
  25  252.1634
  26  307.3971
  27  308.4866
  28  245.2831
  29  215.9103
  30  200.8472
  31  151.888
  32  235.7845
  33  279.6009
  34  221.4474
  35  291.4302
  36  367.7511
  37  274.5473
  38  209.1769
  39  214.855
  40  315.5424
  41  308.2706
  42  346.9543
  43  360.9044
  44  406.5441
  45  371.0143
  46  355.9126
  47  332.8519
  48  341.4823
  49  342.7736
  50  308.8579
  51  490.7512
  52  425.705
  53  188.2192
  54  206.1555
  55  273.0837
  56  366.7657
  57  475.6067
  58  379.6955
  59  369.8976
  60  391.8584
  61  337.7657
  62  416.9869
  63  360.4135
  64  304.2369
  65  408.1683
  66  356.2967
  67  318.8445
  68  319.7177
  69  241.3089
  70  193.2451
  71  351.2733
  72  493.4394
  73  655.7681
  74  476.3379
  75  314.9694
  76  319.1986
  77  321.3467
  78  350.421
  79  327.0952
  80  363.1821
  81  475.9433
  82  350.0355
  83  375.286
  84  388.0731
  85  292.9073
  86  310.5377
  87  344.0354
  88  343.9858
  89  347.4553
  90  315.6813
  91  291.1894
  92  374.1559
  93  460.967
  94  535.5899
  95  437.4728
  96  431.7112
  97  493.1526
  98  365.2004
  99  221.3252
 100  229.3742
 101  205.8561
 102  284.2226
 103  434.9856
 104  441.2381
 105  436.1619
 106  412.3311
 107  303.1345
 108  275.0789
 109  383.4878
 110  384.5021
 111  296.3088
 112  293.7041
 113  333.9235
 114  353.2755
 115  385.1107
 116  329.7879
 117  320.6682
 118  291.8364
 119  361.7024
 120  328.2975
 121  362.5052
 122  343.0641
 123  356.1392
 124  296.1711
 125  388.6632
 126  465.6349
 127  495.1653
 128  392.1271
 129  364.3607
 130  442.2886
 131  297.9661
 132  333.7921
 133  272.8949
 134  307.9516
 135  278.4841
 136  257.071
 137  423.5207
 138  342.3019
 139  265.3504
 140  336.4492
 141  413.11
 142  302.0953
 143  188.1559
 144  217.8486
 145  303.7284
 146  380.9911
 147  321.5125
 148  307.5866
 149  375.642
 150  295.6364
 151  308.8335
 152  288.063
 153  284.0942
 154  414.8527
 155  258.1541
 156  211.1117
 157  338.1893
 158  317.0685
 159  328.457
 160  360.6231
 161  406.929
 162  374.3167
 163  206.8766
 164  249.2001
 165  217.282
 166  283.5244
 167  318.409
 168  290.6212
 169  249.7545
 170  280.5149
 171  245.5005
 172  332.337
 173  369.9648
 174  357.6438
 175  268.3774
 176  286.2882
 177  322.8789
 178  303.0425
 179  397.6253
 180  360.288
 181  342.4433
 182  302.131
 183  241.0375
 184  352.0966
 185  426.1387
 186  349.2995
 187  326.1226
 188  289.6486
 189  434.1417
 190  397.8259
 191  312.148
 192  267.0249
 193  364.4886
 194  238.8136
 195  201.0412
 196  421.853
 197  348.6428
 198  176.5295
 199  257.4801
 200  343.0279
 201  324.0716
 202  214.1266
 203  367.8988
 204  394.5247
 205  387.2902
 206  362.1058
 207  274.4863
 208  218.6492
 209  299.0242
 210  357.6412
 211  352.3611
 212  282.0824
 213  239.8161
 214  302.0439
 215  231.8802
 216  150.2999
 217  213.3004
 218  297.347
 219  377.6419
 220  314.4383
 221  318.3242
 222  293.0312
 223  321.6769
 224  347.6892
 225  381.0982
 226  207.9733
 227  232.746
 228  308.1415
 229  226.5019
 230  198.2596
 231  143.5794
 232  212.0916
 233  181.6798
 234  186.9525
 235  206.4086
 236  311.7
 237  241.2957
 238  249.7207
 239  275.1258
 240  273.0743
 241  221.6601
 242  131.8692
 243  151.8367
 244  216.1791
 245  228.5934
 246  260.2172
 247  368.9416
 248  286.6685
 249  312.3314
 250  405.6878
 251  393.2405
 252  211.1169
 253  168.795
 254  172.9535
 255  313.0065
 256  323.9166
 257  353.16
 258  334.4355
 259  120.7252
 260  172.7318
 261  273.0179
 262  236.0607
 263  244.3026
 264  246.8204
 265  322.427
 266  334.6295
 267  292.6914
 268  248.1293
 269  230.3503
 270  255.3832
 271  292.234
 272  108.7822
 273  159.0121
 274  207.3912
 275  323.1575
 276  290.8532
 277  303.5744
 278  159.3431
 279  251.5711
 280  214.5411
 281  194.9032
 282  210.4821
 283  98.77209
 284  206.8992
 285  150.2076
 286  186.5761
 287  125.8613
 288  144.4821
 289  324.9438
 290  373.8671
 291  242.064
 292  392.8883
 293  266.0533
 294  169.0708
 295  208.3869
 296  330.9355
 297  211.0105
 298  169.3523
 299  218.1329
 300  356.3764
 301  337.6574
 302  351.6041
 303  346.271
 304  366.3882
 305  394.1077
 306  397.6479
 307  374.583
 308  285.7297
 309  224.2504
 310  327.3543
 311  270.7816
 312  220.8135
 313  273.6434
 314  303.2273
 315  341.5058
 316  233.1701
 317  168.6948
 318  202.2315
 319  149.2655
 320  128.2239
 321  218.899
 322  340.5452
 323  321.1751
 324  171.3952
 325  201.1613
 326  312.942
 327  272.5357
 328  290.445
 329  217.1053
 330  325.2199
 331  238.4783
 332  225.5185
 333  228.9646
 334  220.0638
 335  188.1825
 336  144.6895
 337  177.7545
 338  177.4463
 339  197.0947
 340  175.8216
 341  171.1384
 342  98.70119
 343  153.2472
 344  64.08307
 345  225.7415
 346  336.705
 347  369.1727
 348  347.006
 349  248.9387
 350  287.2342
 351  319.3352
 352  279.3474
 353  223.0518
 354  147.7584
 355  220.7762
 356  251.9925
 357  213.0935
 358  210.4738
 359  190.5798
 360  281.7794
 361  275.6868
 362  302.551
 363  350.2575
 364  327.0044
 365  194.1989
 366  215.1194
 367  219.3983
 368  218.6548
 369  289.868
 370  296.2144
 371  269.1769
 372  268.6085
 373  193.1196
 374  244.2459
 375  256.6025
 376  125.3456
 377  142.2299
 378  296.7032
 379  249.1363
 380  205.5581
 381  142.1806
 382  255.9397
 383  115.1337
 384  161.4084
 385  279.0774
 386  342.4393
 387  296.4369
 388  184.3035
 389  268.3479
 390  309.4786
 391  312.5499
 392  281.1016
 393  231.7304
 394  237.0385
 395  373.5183
 396  320.3669
 397  216.6648
 398  226.9789
 399  245.8934
 400  174.7146
 401  223.5964
 402  253.8133
 403  235.0057
 404  177.1431
 405  256.5695
 406  315.6264
 407  362.5034
 408  300.2242
 409  306.5515
 410  277.1733
 411  140.7193
 412  165.4852
 413  121.794
 414  219.7358
 415  181.0984
 416  268.1149
 417  281.2952
 418  217.4095
 419  137.41
 420  152.6203
 421  274.9734
 422  237.821
 423  193.7755
 424  137.8637
 425  225.2874
 426  253.9176
 427  280.706
 428  244.7585
 429  254.3176
 430  338.2299
 431  284.5404
 432  226.692
 433  323.9549
 434  239.3416
 435  140.0116
 436  117.7314
 437  46.14425
 438  171.0093
 439  224.9521
 440  159.3303
 441  126.0385
 442  120.3778
 443  153.1171
 444  241.2255
 445  325.7748
 446  306.2089
 447  445.9231
 448  361.1273
 449  279.2108
 450  340.9827
 451  200.0876
 452  264.0279
 453  288.3502
 454  312.0373
 455  378.7456
 456  398.5938
 457  321.2605
 458  283.4977
 459  257.756
 460  351.4172
 461  402.1053
 462  298.7003
 463  296.9818
 464  326.9405
 465  312.5247
 466  338.2473
 467  205.1333
 468  185.8465
 469  280.7709
 470  356.5958
 471  273.5175
 472  246.5989
 473  314.5151
 474  300.6888
 475  357.9437
 476  361.9265
 477  262.1389
 478  138.3285
 479  103.7258
 480  289.2076
 481  350.9031
 482  356.5155
 483  368.8437
 484  263.0031
 485  334.8911
 486  259.4833
 487  300.7636
 488  262.8098
 489  262.6869
 490  329.7164
 491  169.9856
 492  195.6221
 493  227.9333
 494  366.2179
 495  472.7547
 496  415.6128
 497  411.5218
 498  353.1384
 499  330.7029
 500  350.3134
 501  214.7394
 502  299.9601
 503  378.934
 504  339.4231
 505  326.3321
 506  299.9016
 507  393.9034
 508  490.3268
 509  706.0908
 510  823.8266
 511  881.5849
