# Input file       =  1200915502.113506_cleaned.dat
# Candidate        =  PSR_0332+5434
# Telescope        =  AR
# Epoch_topo       =  58143.485198072987
# Epoch_bary       =  N/A
# T_sample         =  0.002
# Data Folded      =  7274496
# Data Avg         =  0.013203167285326
# Data StdDev      =  1.000186320538   
# Profile Bins     =  512
# Profile Avg      =  187.572662298809 
# Profile StdDev   =  119.219524313946 
# Reduced chi-sqr  =  1.340
# Prob(Noise)      <  3.86e-07   (~4.9 sigma)
# P_topo (ms)      =  714.572873653112  +/- 0.000229
# P'_topo (s/s)    =  -0                +/- 1.22e-10
# P''_topo (s/s^2) =  0                 +/- 5.44e-14
# P_bary (ms)      =  N/A
# P'_bary (s/s)    =  N/A
# P''_bary (s/s^2) =  N/A
# P_orb (s)        =  N/A
# asin(i)/c (s)    =  N/A
# eccentricity     =  N/A
# w (rad)          =  N/A
# T_peri           =  N/A
######################################################
   0  925.2518
   1  799.9342
   2  587.5305
   3  317.3742
   4  140.259
   5  158.3583
   6  159.9203
   7  133.7308
   8  148.8713
   9  193.1328
  10  291.0519
  11  211.708
  12  215.1079
  13  43.1165
  14  62.42396
  15  128.9522
  16  185.5526
  17  117.9611
  18  173.7928
  19  231.8448
  20  193.1054
  21  219.543
  22  147.0173
  23  247.9839
  24  171.2252
  25  150.8222
  26  211.148
  27  197.9902
  28  129.528
  29  98.27932
  30  175.1668
  31  369.7426
  32  333.3777
  33  246.7267
  34  245.04
  35  144.6835
  36  122.6989
  37  64.00888
  38  328.602
  39  157.1687
  40  114.0927
  41  130.765
  42  29.79044
  43  89.59401
  44  127.5769
  45  211.4941
  46  164.6963
  47  233.9644
  48  348.6108
  49  137.21
  50  221.6254
  51  280.1823
  52  156.6699
  53  244.9224
  54  206.5215
  55  228.306
  56  156.703
  57  160.7816
  58  284.5435
  59  232.174
  60  340.029
  61  302.7133
  62  223.9219
  63  257.2243
  64  76.03919
  65  77.23462
  66  229.4564
  67  286.5098
  68  125.0409
  69  175.3164
  70  285.0443
  71  164.0193
  72  55.61144
  73  61.9767
  74  164.3507
  75  219.1456
  76  82.36008
  77  167.595
  78  137.7996
  79  197.948
  80  302.94
  81  165.4298
  82  152.3408
  83  201.6884
  84  165.1323
  85  167.4195
  86  99.81421
  87  136.7789
  88  238.1705
  89  -29.05862
  90  -59.89317
  91  72.60745
  92  180.3981
  93  215.9372
  94  246.1078
  95  182.0181
  96  201.4274
  97  149.4196
  98  150.6437
  99  26.77228
 100  121.2327
 101  178.3347
 102  97.23948
 103  122.3795
 104  213.9846
 105  136.3479
 106  118.929
 107  47.66177
 108  94.20702
 109  58.32704
 110  56.96983
 111  69.3694
 112  199.5315
 113  246.9091
 114  101.2818
 115  105.2229
 116  80.12531
 117  138.1084
 118  181.0506
 119  257.023
 120  104.9913
 121  87.59142
 122  166.4795
 123  163.4055
 124  154.1873
 125  97.21072
 126  182.5192
 127  378.8584
 128  344.2852
 129  206.2445
 130  177.5611
 131  163.39
 132  332.2364
 133  278.112
 134  233.5064
 135  226.7504
 136  55.57827
 137  137.7797
 138  262.1344
 139  210.0295
 140  214.2879
 141  120.1886
 142  199.6684
 143  142.0932
 144  144.8028
 145  118.8513
 146  273.2656
 147  228.4387
 148  186.6236
 149  257.1662
 150  281.7347
 151  137.4467
 152  64.36265
 153  163.117
 154  173.0214
 155  235.2316
 156  129.9192
 157  54.27361
 158  112.5748
 159  317.854
 160  173.6429
 161  212.2489
 162  293.8417
 163  194.2965
 164  153.1146
 165  154.4723
 166  209.4701
 167  274.3939
 168  163.7125
 169  205.4736
 170  201.3624
 171  149.1426
 172  147.6499
 173  172.6868
 174  165.6205
 175  176.8201
 176  164.8509
 177  193.1407
 178  65.90273
 179  26.83077
 180  261.2191
 181  290.4511
 182  300.9602
 183  307.374
 184  209.0507
 185  230.9779
 186  189.8746
 187  65.06087
 188  140.9942
 189  192.8877
 190  99.66322
 191  102.1834
 192  218.3822
 193  200.3519
 194  29.69159
 195  103.4174
 196  174.7334
 197  261.9179
 198  278.017
 199  80.71423
 200  128.0666
 201  184.8534
 202  242.2182
 203  281.7791
 204  210.5223
 205  -66.43414
 206  -64.20594
 207  17.41977
 208  76.7577
 209  119.5418
 210  195.4754
 211  106.0542
 212  153.2097
 213  251.0602
 214  174.9436
 215  273.8681
 216  155.8516
 217  91.73103
 218  163.8576
 219  280.0991
 220  193.2182
 221  256.8264
 222  153.8351
 223  222.2224
 224  199.9136
 225  165.8291
 226  167.8885
 227  175.3166
 228  210.6625
 229  193.1743
 230  332.8362
 231  207.9097
 232  49.87216
 233  189.8733
 234  355.968
 235  274.616
 236  38.97176
 237  119.4181
 238  133.7762
 239  -14.41024
 240  164.9515
 241  57.30509
 242  70.38352
 243  120.2562
 244  200.7551
 245  202.554
 246  147.8418
 247  177.5457
 248  178.5409
 249  285.8952
 250  177.4696
 251  204.1607
 252  247.697
 253  173.616
 254  39.99762
 255  92.95922
 256  180.6727
 257  113.475
 258  48.28625
 259  124.3722
 260  251.4975
 261  126.7705
 262  96.0817
 263  118.087
 264  189.1853
 265  169.0682
 266  218.3478
 267  206.7443
 268  223.8672
 269  80.85654
 270  185.1553
 271  226.8775
 272  189.3363
 273  196.9816
 274  167.3591
 275  141.3751
 276  179.7717
 277  56.9315
 278  80.60793
 279  174.8115
 280  235.1328
 281  307.9889
 282  125.974
 283  99.09422
 284  190.2731
 285  7.091129
 286  87.61516
 287  154.6232
 288  249.3903
 289  256.1708
 290  211.5461
 291  200.3483
 292  129.2272
 293  207.4136
 294  198.5577
 295  141.1645
 296  160.7988
 297  177.9986
 298  276.6107
 299  212.9653
 300  221.0999
 301  196.7399
 302  163.0368
 303  197.1613
 304  201.8103
 305  41.30434
 306  187.9205
 307  317.7251
 308  178.7791
 309  129.6105
 310  307.6021
 311  305.5395
 312  86.27048
 313  146.652
 314  197.0851
 315  133.9467
 316  216.9317
 317  85.32304
 318  45.5447
 319  104.2428
 320  26.13018
 321  37.05103
 322  172.4523
 323  242.1649
 324  182.0908
 325  51.14365
 326  93.6665
 327  212.0883
 328  25.81524
 329  131.686
 330  174.1602
 331  259.5244
 332  252.9713
 333  240.245
 334  189.3519
 335  166.5139
 336  177.4154
 337  185.3033
 338  236.9663
 339  270.4593
 340  145.5677
 341  105.5556
 342  273.3371
 343  265.862
 344  204.6884
 345  242.021
 346  195.8912
 347  213.6913
 348  367.1327
 349  346.2689
 350  228.7668
 351  201.3277
 352  152.0629
 353  126.3572
 354  111.035
 355  172.1102
 356  312.7765
 357  214.006
 358  210.152
 359  199.3993
 360  137.1357
 361  102.0325
 362  101.6449
 363  71.48019
 364  122.6488
 365  305.5916
 366  334.6931
 367  161.0708
 368  297.2069
 369  256.6742
 370  36.37096
 371  141.3661
 372  119.4196
 373  180.6214
 374  151.8224
 375  198.7678
 376  221.3286
 377  232.9619
 378  296.944
 379  298.1462
 380  332.9764
 381  294.0618
 382  285.6639
 383  147.5355
 384  235.5181
 385  256.1842
 386  139.7325
 387  205.7405
 388  41.99664
 389  -2.471746
 390  172.5218
 391  227.43
 392  69.38041
 393  112.5791
 394  161.5937
 395  306.4337
 396  190.2044
 397  205.329
 398  232.8577
 399  220.9707
 400  318.1065
 401  170.5494
 402  218.7948
 403  213.9716
 404  54.833
 405  99.27126
 406  155.1773
 407  250.0191
 408  132.5833
 409  304.6034
 410  243.754
 411  268.9073
 412  243.4112
 413  202.3985
 414  196.7396
 415  249.3268
 416  227.4638
 417  257.4102
 418  265.3614
 419  309.6031
 420  313.5681
 421  220.2772
 422  251.5158
 423  215.7313
 424  101.8116
 425  80.94592
 426  116.1629
 427  195.5207
 428  160.7192
 429  68.73982
 430  217.8677
 431  111.837
 432  88.37794
 433  87.17352
 434  179.5646
 435  163.4897
 436  117.2631
 437  150.0747
 438  292.4901
 439  209.6728
 440  193.0616
 441  190.6282
 442  141.2922
 443  194.8604
 444  88.47088
 445  149.9415
 446  137.5799
 447  74.55731
 448  156.7712
 449  257.0395
 450  151.0075
 451  223.0726
 452  128.8806
 453  104.556
 454  109.809
 455  258.0633
 456  212.8139
 457  167.5015
 458  221.0423
 459  188.1398
 460  102.0983
 461  141.509
 462  248.6874
 463  91.23093
 464  228.5691
 465  207.246
 466  89.46772
 467  184.5908
 468  213.9159
 469  110.1508
 470  180.9056
 471  142.0348
 472  106.0218
 473  282.7637
 474  113.7711
 475  190.2114
 476  208.0015
 477  305.313
 478  151.2418
 479  225.9403
 480  46.89594
 481  165.4135
 482  254.6016
 483  302.1352
 484  236.2105
 485  236.4808
 486  174.1356
 487  164.8896
 488  201.111
 489  206.8191
 490  278.9019
 491  311.9629
 492  377.4923
 493  257.7175
 494  148.3981
 495  171.2607
 496  288.7373
 497  365.2384
 498  167.4382
 499  161.7491
 500  256.7417
 501  277.6042
 502  285.484
 503  315.3347
 504  223.8394
 505  234.2052
 506  267.8259
 507  417.55
 508  418.5469
 509  522.8965
 510  684.7689
 511  896.4509
