# Input file       =  1200255831.105539_cleaned.dat
# Candidate        =  PSR_0332+5434
# Telescope        =  AR
# Epoch_topo       =  58135.850116962261
# Epoch_bary       =  N/A
# T_sample         =  0.002
# Data Folded      =  7340032
# Data Avg         =  0.0190239311996864
# Data StdDev      =  1.00005499883132 
# Profile Bins     =  512
# Profile Avg      =  272.667851330414 
# Profile StdDev   =  119.739621553837 
# Reduced chi-sqr  =  1.001
# Prob(Noise)      <  0.484   (~0.0 sigma)
# P_topo (ms)      =  714.568801737959  +/- 6.75e-05
# P'_topo (s/s)    =  -0                +/- 3.56e-11
# P''_topo (s/s^2) =  0                 +/- 1.57e-14
# P_bary (ms)      =  N/A
# P'_bary (s/s)    =  N/A
# P''_bary (s/s^2) =  N/A
# P_orb (s)        =  N/A
# asin(i)/c (s)    =  N/A
# eccentricity     =  N/A
# w (rad)          =  N/A
# T_peri           =  N/A
######################################################
   0  722.215
   1  540.9922
   2  400.6387
   3  392.3295
   4  388.021
   5  237.1237
   6  309.6427
   7  323.4163
   8  272.324
   9  280.8832
  10  196.5339
  11  386.5958
  12  349.42
  13  444.8635
  14  452.2347
  15  325.9361
  16  418.3782
  17  416.5297
  18  296.9403
  19  321.7568
  20  283.2722
  21  317.1168
  22  280.1998
  23  260.5906
  24  197.6642
  25  189.1311
  26  176.1887
  27  319.3611
  28  398.6533
  29  283.8337
  30  256.5081
  31  336.2573
  32  234.797
  33  177.2969
  34  243.4736
  35  284.3346
  36  290.7807
  37  230.1507
  38  278.4295
  39  243.8662
  40  194.4355
  41  268.3668
  42  294.5245
  43  302.9165
  44  187.476
  45  166.1935
  46  250.8463
  47  295.994
  48  291.5431
  49  367.0331
  50  483.9925
  51  377.8145
  52  292.0377
  53  211.8882
  54  185.1134
  55  170.5118
  56  205.7551
  57  239.9166
  58  283.3018
  59  315.2691
  60  338.971
  61  331.7432
  62  202.0709
  63  96.18956
  64  231.9674
  65  214.228
  66  273.7841
  67  284.1294
  68  346.2083
  69  312.726
  70  165.9746
  71  169.2757
  72  204.3187
  73  208.3153
  74  238.985
  75  223.6371
  76  212.2018
  77  150.4057
  78  138.2224
  79  205.9706
  80  183.0141
  81  107.6898
  82  331.7808
  83  390.1677
  84  311.2407
  85  267.0159
  86  190.9608
  87  204.4276
  88  181.5836
  89  332.9146
  90  307.0417
  91  211.8257
  92  312.6902
  93  330.6142
  94  324.0785
  95  214.7612
  96  189.6246
  97  289.1469
  98  250.0665
  99  200.2176
 100  212.9016
 101  245.9633
 102  162.6361
 103  263.213
 104  297.8462
 105  162.637
 106  147.6076
 107  238.9943
 108  210.427
 109  154.5968
 110  167.0771
 111  237.8275
 112  249.2527
 113  207.2372
 114  249.0163
 115  239.2759
 116  237.252
 117  233.8797
 118  381.5677
 119  409.7852
 120  183.9111
 121  211.3595
 122  264.5012
 123  292.1569
 124  434.2504
 125  445.4306
 126  387.2291
 127  271.0514
 128  242.552
 129  325.9165
 130  165.7366
 131  177.6946
 132  326.9646
 133  359.5905
 134  337.0749
 135  270.0023
 136  337.9685
 137  434.7418
 138  443.4924
 139  380.1534
 140  377.0535
 141  326.8694
 142  317.7517
 143  358.7661
 144  254.5487
 145  231.1259
 146  287.1925
 147  270.6576
 148  274.265
 149  362.7469
 150  371.4865
 151  299.1749
 152  313.0943
 153  273.6225
 154  371.3513
 155  196.2296
 156  226.9003
 157  347.0379
 158  241.347
 159  179.4926
 160  130.8008
 161  223.5528
 162  146.6925
 163  199.1394
 164  205.905
 165  345.0929
 166  298.5215
 167  239.3652
 168  284.8939
 169  353.8281
 170  369.4933
 171  407.289
 172  351.0241
 173  124.8946
 174  96.39124
 175  363.9267
 176  494.3173
 177  292.0573
 178  313.2289
 179  336.6699
 180  288.2529
 181  261.9942
 182  282.795
 183  315.8129
 184  339.7053
 185  267.829
 186  341.7623
 187  307.1603
 188  328.2019
 189  417.8737
 190  337.6509
 191  297.759
 192  348.7201
 193  236.0517
 194  224.578
 195  212.6867
 196  268.1407
 197  277.4588
 198  204.3951
 199  279.7879
 200  319.2317
 201  252.8507
 202  256.6212
 203  252.3442
 204  344.9341
 205  419.9001
 206  347.1632
 207  354.0564
 208  366.9289
 209  256.398
 210  422.2123
 211  398.8987
 212  315.0253
 213  266.2641
 214  306.9531
 215  285.1106
 216  188.6037
 217  223.3209
 218  363.6666
 219  304.0587
 220  202.4846
 221  224.7204
 222  378.4221
 223  375.7317
 224  290.5284
 225  403.0181
 226  372.317
 227  385.2546
 228  437.5214
 229  263.2396
 230  181.5413
 231  315.2604
 232  326.9367
 233  312.9251
 234  316.1169
 235  272.3777
 236  260.895
 237  161.7991
 238  160.9608
 239  330.5313
 240  311.7663
 241  283.2083
 242  206.4074
 243  336.6431
 244  368.4035
 245  239.7139
 246  324.2971
 247  313.2906
 248  362.1414
 249  353.1626
 250  305.5121
 251  349.299
 252  291.2963
 253  343.6949
 254  185.6945
 255  202.1125
 256  192.4155
 257  182.8141
 258  262.7373
 259  252.9119
 260  152.7246
 261  285.965
 262  324.468
 263  225.2617
 264  158.1682
 265  244.2345
 266  261.5941
 267  233.7568
 268  288.3689
 269  377.496
 270  351.961
 271  337.2498
 272  335.7044
 273  248.2367
 274  209.8353
 275  206.3548
 276  258.2789
 277  308.7891
 278  223.6289
 279  235.5303
 280  214.9704
 281  152.7862
 282  288.6247
 283  266.9886
 284  306.9216
 285  263.9185
 286  304.6063
 287  229.2481
 288  122.3647
 289  96.72738
 290  207.1533
 291  280.113
 292  347.4565
 293  336.0132
 294  352.5453
 295  317.9194
 296  226.3496
 297  215.5002
 298  132.8288
 299  69.77783
 300  150.0136
 301  329.671
 302  325.016
 303  295.7026
 304  350.632
 305  229.3642
 306  187.9416
 307  249.0612
 308  306.6418
 309  290.7236
 310  143.0604
 311  189.5023
 312  326.764
 313  222.5748
 314  107.0392
 315  209.4212
 316  237.0435
 317  250.7813
 318  204.3101
 319  263.2756
 320  193.247
 321  221.0034
 322  304.8215
 323  267.5805
 324  243.2339
 325  321.3218
 326  259.2147
 327  218.7447
 328  222.1306
 329  205.4777
 330  210.9627
 331  245.6422
 332  300.3357
 333  214.3489
 334  235.1701
 335  295.4633
 336  336.7191
 337  233.8349
 338  191.2517
 339  176.5003
 340  214.7369
 341  316.9578
 342  263.4376
 343  257.9652
 344  341.737
 345  413.5097
 346  297.1172
 347  283.3006
 348  296.105
 349  179.109
 350  167.909
 351  274.4287
 352  267.9731
 353  258.1699
 354  263.3248
 355  361.0112
 356  268.409
 357  305.8401
 358  402.702
 359  310.7345
 360  252.8345
 361  383.087
 362  409.6911
 363  232.0282
 364  308.6251
 365  345.0925
 366  364.6059
 367  285.7443
 368  240.6618
 369  164.055
 370  99.33032
 371  94.25237
 372  134.2453
 373  167.8297
 374  164.075
 375  231.6745
 376  195.3962
 377  120.3674
 378  220.3904
 379  305.1439
 380  307.8115
 381  300.7272
 382  299.2089
 383  239.699
 384  137.324
 385  117.542
 386  198.1807
 387  243.0588
 388  155.9965
 389  203.7952
 390  274.8316
 391  217.2416
 392  123.5205
 393  160.6691
 394  231.0099
 395  248.6106
 396  226.3693
 397  214.4851
 398  231.2956
 399  309.9369
 400  243.1972
 401  216.3594
 402  241.7111
 403  261.6786
 404  136.5847
 405  159.6456
 406  303.9001
 407  291.4505
 408  172.2094
 409  126.5515
 410  164.5239
 411  207.4903
 412  156.3195
 413  187.0761
 414  172.2993
 415  345.6364
 416  335.2297
 417  394.9124
 418  275.6549
 419  217.9712
 420  264.2196
 421  269.2507
 422  354.5084
 423  214.5282
 424  238.5213
 425  280.3997
 426  350.3138
 427  210.4683
 428  215.0269
 429  340.679
 430  277.8286
 431  255.714
 432  341.8284
 433  270.4656
 434  193.0673
 435  114.719
 436  111.2178
 437  107.5864
 438  69.95847
 439  150.3795
 440  193.2922
 441  265.9532
 442  241.3284
 443  259.2119
 444  283.4065
 445  264.9379
 446  259.9708
 447  306.3165
 448  318.7886
 449  350.6595
 450  335.5547
 451  382.0074
 452  272.3021
 453  259.4753
 454  187.0834
 455  205.4292
 456  226.6411
 457  232.5473
 458  372.2009
 459  394.6477
 460  249.5119
 461  312.9644
 462  298.9987
 463  289.7617
 464  335.7845
 465  316.8395
 466  235.6605
 467  136.3896
 468  234.8363
 469  307.9572
 470  282.6395
 471  171.5841
 472  246.5308
 473  194.721
 474  249.8257
 475  200.0618
 476  283.9111
 477  412.5826
 478  314.1937
 479  193.9824
 480  290.6232
 481  213.6148
 482  287.7601
 483  350.9565
 484  396.8794
 485  263.1048
 486  251.3279
 487  265.3853
 488  175.701
 489  220.9457
 490  279.9172
 491  284.2761
 492  331.5561
 493  271.494
 494  349.2337
 495  358.8865
 496  271.484
 497  173.09
 498  273.6263
 499  286.2489
 500  282.7933
 501  301.2681
 502  206.1579
 503  325.1059
 504  361.0478
 505  458.6126
 506  387.1693
 507  455.2332
 508  374.845
 509  518.761
 510  659.1496
 511  881.589
