# Input file       =  1201964296.100175_cleaned.dat
# Candidate        =  PSR_0332+5434
# Telescope        =  AR
# Epoch_topo       =  58155.624017363138
# Epoch_bary       =  N/A
# T_sample         =  0.002
# Data Folded      =  7340032
# Data Avg         =  0.0326313395796567
# Data StdDev      =  1.00004495685658 
# Profile Bins     =  512
# Profile Avg      =  467.706987776549 
# Profile StdDev   =  119.73841919771  
# Reduced chi-sqr  =  1.161
# Prob(Noise)      <  0.0068   (~2.5 sigma)
# P_topo (ms)      =  714.577961160395  +/- 0.000533
# P'_topo (s/s)    =  -0                +/- 2.81e-10
# P''_topo (s/s^2) =  0                 +/- 1.24e-13
# P_bary (ms)      =  N/A
# P'_bary (s/s)    =  N/A
# P''_bary (s/s^2) =  N/A
# P_orb (s)        =  N/A
# asin(i)/c (s)    =  N/A
# eccentricity     =  N/A
# w (rad)          =  N/A
# T_peri           =  N/A
######################################################
   0  402.188
   1  478.3126
   2  455.1424
   3  400.0847
   4  422.9726
   5  284.1529
   6  275.1458
   7  378.4883
   8  374.2384
   9  391.3455
  10  414.0105
  11  456.8202
  12  462.9458
  13  424.3225
  14  454.4406
  15  438.5638
  16  452.684
  17  391.4645
  18  441.4842
  19  517.9891
  20  464.7705
  21  415.7577
  22  568.9327
  23  594.7913
  24  450.0073
  25  360.89
  26  431.7408
  27  505.0765
  28  439.3281
  29  472.6208
  30  421.1343
  31  472.0959
  32  442.6461
  33  459.0289
  34  456.478
  35  393.7916
  36  276.5194
  37  298.3383
  38  398.4753
  39  384.2813
  40  349.2684
  41  352.6765
  42  294.0619
  43  287.6368
  44  323.4004
  45  421.687
  46  414.7335
  47  463.653
  48  439.8044
  49  403.5141
  50  388.8721
  51  447.487
  52  451.408
  53  354.0795
  54  300.8377
  55  359.1835
  56  433.4393
  57  394.8177
  58  397.295
  59  412.7686
  60  375.7457
  61  404.9387
  62  318.9191
  63  376.4246
  64  502.8354
  65  445.3509
  66  408.5197
  67  390.119
  68  399.9314
  69  395.253
  70  432.2347
  71  420.8767
  72  505.1966
  73  449.5455
  74  396.9201
  75  475.8636
  76  520.6879
  77  505.2282
  78  518.6971
  79  557.7792
  80  513.1979
  81  504.1299
  82  510.7975
  83  534.4972
  84  452.0956
  85  349.5919
  86  520.8984
  87  521.2581
  88  516.4769
  89  488.0815
  90  442.9588
  91  496.9036
  92  511.8407
  93  482.0339
  94  529.67
  95  512.11
  96  486.689
  97  502.2489
  98  467.4532
  99  525.4653
 100  556.173
 101  441.3279
 102  460.5334
 103  516.271
 104  538.5818
 105  502.1515
 106  482.3477
 107  523.8481
 108  460.6939
 109  461.6851
 110  455.4649
 111  515.2599
 112  472.6355
 113  496.1843
 114  500.3048
 115  459.6204
 116  445.8707
 117  380.1746
 118  379.1844
 119  437.4302
 120  337.7943
 121  273.3352
 122  373.644
 123  430.2386
 124  351.4525
 125  384.7855
 126  431.4785
 127  429.305
 128  488.7344
 129  501.0009
 130  503.3017
 131  442.3529
 132  471.3469
 133  467.3561
 134  488.1788
 135  511.7526
 136  498.2927
 137  581.0808
 138  637.9995
 139  616.2023
 140  522.4266
 141  426.436
 142  445.9081
 143  515.6185
 144  598.7232
 145  532.7189
 146  540.0013
 147  473.1939
 148  424.4943
 149  477.5713
 150  572.4222
 151  584.349
 152  561.886
 153  439.6391
 154  478.3257
 155  475.3593
 156  437.5019
 157  477.3925
 158  482.0219
 159  586.6978
 160  569.3167
 161  484.6867
 162  517.3478
 163  574.9538
 164  613.9573
 165  559.4102
 166  583.1722
 167  515.851
 168  546.272
 169  545.6951
 170  445.4372
 171  453.2043
 172  467.1347
 173  524.3206
 174  505.0675
 175  529.5309
 176  448.6761
 177  481.8948
 178  454.8691
 179  461.1603
 180  473.8266
 181  431.7896
 182  408.24
 183  507.6046
 184  620.9423
 185  479.7281
 186  442.4143
 187  451.862
 188  437.676
 189  428.2589
 190  446.5595
 191  511.2826
 192  545.8481
 193  456.761
 194  489.0753
 195  435.7583
 196  461.9728
 197  479.162
 198  517.5393
 199  492.7521
 200  377.5351
 201  281.3336
 202  300.9909
 203  397.2148
 204  420.6647
 205  446.0826
 206  397.2944
 207  515.2657
 208  458.9745
 209  297.1768
 210  441.9025
 211  368.3472
 212  420.5312
 213  434.1337
 214  557.5576
 215  591.3571
 216  482.8507
 217  463.3666
 218  423.1023
 219  578.8058
 220  466.4897
 221  450.8327
 222  451.215
 223  544.0004
 224  583.1589
 225  526.9379
 226  481.8134
 227  527.3751
 228  511.2615
 229  571.5881
 230  534.5285
 231  490.1438
 232  471.3721
 233  471.93
 234  478.3176
 235  479.0826
 236  503.4243
 237  467.8593
 238  406.3484
 239  433.4827
 240  508.1282
 241  543.3162
 242  501.1718
 243  502.6729
 244  615.9334
 245  507.9441
 246  499.1116
 247  405.6237
 248  355.5249
 249  361.617
 250  320.7971
 251  339.8666
 252  311.7117
 253  329.6601
 254  308.2016
 255  322.7244
 256  355.4477
 257  362.2962
 258  397.2109
 259  304.6007
 260  379.0706
 261  424.3511
 262  417.0426
 263  346.7519
 264  424.1279
 265  439.2586
 266  441.9789
 267  425.1308
 268  358.034
 269  381.4346
 270  402.3607
 271  436.3675
 272  484.3587
 273  452.908
 274  427.3161
 275  336.171
 276  384.6886
 277  523.5779
 278  472.639
 279  396.6916
 280  437.1169
 281  468.2425
 282  368.5406
 283  361.5617
 284  408.9373
 285  446.2082
 286  360.8022
 287  380.5685
 288  281.4096
 289  379.3413
 290  323.155
 291  359.7028
 292  362.539
 293  363.0681
 294  338.3808
 295  324.1594
 296  346.0077
 297  332.2584
 298  453.9249
 299  429.6787
 300  465.1223
 301  461.3615
 302  459.231
 303  448.5966
 304  511.6619
 305  427.2062
 306  412.4155
 307  491.9189
 308  492.7993
 309  508.2729
 310  486.8307
 311  545.9093
 312  515.5202
 313  586.7698
 314  426.453
 315  419.3185
 316  526.0771
 317  597.9844
 318  535.9897
 319  570.6729
 320  597.5843
 321  545.1212
 322  522.9948
 323  510.72
 324  513.8304
 325  558.8968
 326  542.0267
 327  485.7856
 328  457.7473
 329  407.1483
 330  459.3274
 331  556.6682
 332  587.1346
 333  519.4705
 334  496.8315
 335  434.1789
 336  435.2315
 337  408.0694
 338  525.4483
 339  546.0081
 340  595.6012
 341  598.5223
 342  521.0569
 343  432.8674
 344  488.6796
 345  520.4819
 346  447.0737
 347  378.8585
 348  425.557
 349  416.8204
 350  491.6418
 351  533.4653
 352  528.4345
 353  531.4204
 354  454.4007
 355  446.4546
 356  679.688
 357  815.9856
 358  854.3842
 359  1017.709
 360  985.7617
 361  923.722
 362  835.1161
 363  623.2076
 364  579.2861
 365  663.689
 366  616.1172
 367  600.4536
 368  554.3887
 369  617.0331
 370  640.592
 371  628.4628
 372  713.3469
 373  726.1897
 374  736.8713
 375  665.2296
 376  652.7682
 377  570.0725
 378  575.3145
 379  532.0055
 380  507.9583
 381  599.2304
 382  554.5854
 383  416.4211
 384  462.3397
 385  557.3613
 386  548.1476
 387  512.6216
 388  473.0796
 389  458.4141
 390  445.7531
 391  476.7945
 392  553.653
 393  572.7332
 394  578.4119
 395  567.6734
 396  466.8252
 397  533.1091
 398  547.0039
 399  618.4565
 400  618.0731
 401  573.9896
 402  543.1816
 403  569.8578
 404  454.6732
 405  463.6522
 406  512.7704
 407  489.3485
 408  522.6899
 409  554.5507
 410  468.9907
 411  454.0818
 412  476.1299
 413  601.395
 414  540.6356
 415  401.9946
 416  349.8156
 417  345.7699
 418  484.5087
 419  543.9407
 420  547.9343
 421  535.0107
 422  561.2676
 423  555.9471
 424  424.4071
 425  382.6321
 426  314.5466
 427  452.9065
 428  497.6222
 429  472.6359
 430  339.1718
 431  411.0515
 432  539.7769
 433  567.59
 434  459.7187
 435  355.9387
 436  295.7784
 437  398.1976
 438  334.813
 439  402.6875
 440  543.6112
 441  478.1097
 442  396.2755
 443  474.4563
 444  463.3257
 445  444.4075
 446  504.955
 447  516.8736
 448  447.6196
 449  392.8589
 450  459.4536
 451  426.335
 452  492.4196
 453  452.6913
 454  505.3687
 455  514.1508
 456  484.339
 457  517.2039
 458  416.1103
 459  332.5355
 460  465.7695
 461  487.1863
 462  483.8755
 463  516.1217
 464  489.683
 465  444.9238
 466  481.3392
 467  479.2072
 468  458.312
 469  483.3176
 470  491.2792
 471  516.8876
 472  435.7755
 473  380.4787
 474  334.3009
 475  368.1586
 476  474.0811
 477  497.906
 478  507.2338
 479  427.482
 480  485.3587
 481  471.3641
 482  448.1451
 483  446.6283
 484  355.4901
 485  342.0295
 486  317.9332
 487  327.0679
 488  338.3062
 489  317.1823
 490  356.8332
 491  368.5735
 492  352.0001
 493  287.8651
 494  360.7954
 495  492.1745
 496  433.5715
 497  430.9933
 498  366.8693
 499  416.8116
 500  399.8482
 501  317.9076
 502  360.3932
 503  413.0954
 504  432.6385
 505  354.006
 506  375.6129
 507  417.2865
 508  464.0612
 509  474.16
 510  429.9484
 511  453.5429
