# Input file       =  1201605060.106532-PSRB0329-2ms-sampling-dd.dat
# Candidate        =  PSR_0332+5434
# Telescope        =  AR
# Epoch_topo       =  58151.466193362641
# Epoch_bary       =  N/A
# T_sample         =  0.002
# Data Folded      =  7208960
# Data Avg         =  -5.4248667598323e-10
# Data StdDev      =  6.44573439262777 
# Profile Bins     =  512
# Profile Avg      =  -0.0328860146891223
# Profile StdDev   =  764.845530413224 
# Reduced chi-sqr  =  0.959
# Prob(Noise)      <  0.739   (~0.0 sigma)
# P_topo (ms)      =  714.576469175683  +/- 3.4e-05
# P'_topo (s/s)    =  -0                +/- 1.83e-11
# P''_topo (s/s^2) =  0                 +/- 8.21e-15
# P_bary (ms)      =  N/A
# P'_bary (s/s)    =  N/A
# P''_bary (s/s^2) =  N/A
# P_orb (s)        =  N/A
# asin(i)/c (s)    =  N/A
# eccentricity     =  N/A
# w (rad)          =  N/A
# T_peri           =  N/A
######################################################
   0  -346.7058
   1  75.56536
   2  387.1672
   3  302.9881
   4  606.5701
   5  -32.88804
   6  -485.3977
   7  -674.5247
   8  -617.6331
   9  -170.3656
  10  -0.8381766
  11  61.16772
  12  1.6284
  13  -2.653068
  14  -485.3801
  15  -955.7537
  16  -884.2712
  17  -164.2871
  18  328.1804
  19  25.30309
  20  204.7241
  21  105.038
  22  71.59529
  23  -572.9442
  24  -436.7002
  25  -261.9019
  26  51.15178
  27  523.2405
  28  187.2964
  29  133.6149
  30  -128.0804
  31  -220.0884
  32  -444.8553
  33  -223.8074
  34  246.507
  35  703.2391
  36  726.5386
  37  533.6738
  38  443.0771
  39  59.20441
  40  -91.34856
  41  25.24982
  42  271.6578
  43  95.78941
  44  -64.78746
  45  -75.60855
  46  -358.8947
  47  -473.0153
  48  -202.1865
  49  342.8781
  50  757.0152
  51  1167.92
  52  977.4573
  53  810.11
  54  753.669
  55  414.6306
  56  13.6563
  57  -217.9372
  58  -63.03058
  59  6.574813
  60  426.4776
  61  668.46
  62  386.4552
  63  68.9125
  64  -79.80988
  65  -588.8307
  66  -418.4221
  67  225.0804
  68  786.9558
  69  945.8391
  70  574.6329
  71  441.2307
  72  -39.09602
  73  -300.1486
  74  -550.479
  75  288.2307
  76  540.646
  77  645.9618
  78  502.8351
  79  -38.17631
  80  -714.0536
  81  -878.7687
  82  -840.3997
  83  -640.4696
  84  -109.2501
  85  299.6642
  86  288.2369
  87  583.9581
  88  302.9595
  89  -127.6147
  90  -794.424
  91  -504.3852
  92  -220.6067
  93  40.31157
  94  343.9455
  95  -433.5067
  96  -305.2477
  97  -188.3871
  98  -92.5967
  99  153.2626
 100  703.6356
 101  829.9473
 102  477.869
 103  301.6616
 104  91.99025
 105  202.3235
 106  -116.1469
 107  124.5093
 108  184.1946
 109  -110.7552
 110  -226.7756
 111  -71.08514
 112  19.46463
 113  -163.4438
 114  -581.5711
 115  -403.957
 116  -266.4547
 117  266.8067
 118  46.17911
 119  508.5144
 120  605.6549
 121  286.3984
 122  -311.8328
 123  -530.697
 124  -384.7457
 125  -380.8931
 126  -132.1441
 127  -175.7487
 128  177.1065
 129  -108.6663
 130  -248.6267
 131  -560.4388
 132  -297.7506
 133  546.6471
 134  664.4721
 135  816.2515
 136  400.1542
 137  63.75674
 138  -147.0022
 139  -412.4913
 140  -492.1103
 141  -279.2517
 142  140.1635
 143  107.0368
 144  -207.5591
 145  -303.774
 146  -791.9734
 147  -922.2502
 148  -801.4816
 149  -122.009
 150  495.6971
 151  778.8547
 152  756.3875
 153  303.6594
 154  -356.0429
 155  -877.2238
 156  -1129.264
 157  -754.9532
 158  -119.8401
 159  143.91
 160  -22.92887
 161  199.2817
 162  103.0464
 163  -573.6833
 164  -856.5985
 165  -931.7114
 166  -282.0749
 167  137.3961
 168  191.0925
 169  -41.12087
 170  -68.03726
 171  -494.1804
 172  -706.3852
 173  -591.9776
 174  -35.73544
 175  102.0991
 176  -83.62283
 177  -292.9334
 178  -355.9911
 179  -343.7708
 180  -601.6462
 181  -398.2139
 182  -91.93401
 183  269.8348
 184  54.04271
 185  -529.2859
 186  -659.1054
 187  -503.1819
 188  -556.9438
 189  -504.7771
 190  -427.985
 191  -335.3544
 192  -210.7287
 193  164.8652
 194  -97.57725
 195  -705.0918
 196  -739.0928
 197  -505.8382
 198  -315.3786
 199  60.34475
 200  447.3081
 201  -116.9479
 202  262.1395
 203  187.8492
 204  -373.6029
 205  -319.7568
 206  -452.3107
 207  -249.6744
 208  14.28733
 209  265.4351
 210  47.05525
 211  -192.7152
 212  -459.5848
 213  -887.2611
 214  -624.9017
 215  -12.66528
 216  412.0253
 217  348.8945
 218  626.0901
 219  222.1221
 220  -435.3255
 221  -581.4418
 222  -496.0651
 223  -269.2283
 224  -86.33002
 225  179.3
 226  332.3593
 227  -74.02544
 228  -621.9432
 229  -552.3584
 230  -757.393
 231  -259.4763
 232  532.4634
 233  689.0546
 234  306.4797
 235  317.6537
 236  -43.41299
 237  -919.1323
 238  -406.386
 239  -51.42091
 240  293.315
 241  426.5645
 242  298.5246
 243  283.944
 244  -217.0471
 245  -440.2254
 246  -843.5536
 247  -853.3573
 248  -468.5827
 249  61.78088
 250  -152.2805
 251  -344.0746
 252  -299.7776
 253  -508.6038
 254  -894.5009
 255  -1152.919
 256  -897.2109
 257  -497.1022
 258  -45.41143
 259  -132.09
 260  -271.1793
 261  -836.7014
 262  -1334.694
 263  -1034.225
 264  -483.2061
 265  224.952
 266  340.6632
 267  342.2618
 268  50.7052
 269  59.02175
 270  64.74422
 271  -265.5501
 272  -497.9511
 273  -411.2717
 274  -326.3339
 275  271.9305
 276  131.6911
 277  -388.5508
 278  -828.7495
 279  -1028.801
 280  -692.3014
 281  -49.12684
 282  177.2334
 283  328.6418
 284  122.6746
 285  -163.2257
 286  -520.2097
 287  -928.0116
 288  -990.5172
 289  -189.877
 290  -85.46107
 291  276.4667
 292  254.6216
 293  -453.1708
 294  -856.4608
 295  -911.6842
 296  -663.7314
 297  -484.9469
 298  -105.7635
 299  436.855
 300  567.5089
 301  633.6281
 302  351.295
 303  -296.9134
 304  -575.3418
 305  -560.8017
 306  -534.4249
 307  -397.0071
 308  -70.43523
 309  60.04467
 310  50.9297
 311  -107.3533
 312  -258.6169
 313  -677.6843
 314  175.9835
 315  492.5005
 316  563.5986
 317  247.2265
 318  37.74615
 319  -198.3507
 320  -429.7372
 321  -678.8989
 322  -363.8584
 323  -46.83119
 324  13.61868
 325  -49.97041
 326  -274.8506
 327  -377.6939
 328  -649.1509
 329  -449.8462
 330  -567.6375
 331  -239.5791
 332  358.5879
 333  756.7585
 334  697.0483
 335  457.0497
 336  51.56047
 337  -552.9807
 338  -437.7316
 339  -164.931
 340  604.3832
 341  1201.855
 342  1272.511
 343  510.7863
 344  -324.1433
 345  -596.3669
 346  -611.0878
 347  394.9687
 348  755.5953
 349  1025.643
 350  527.7342
 351  415.7551
 352  184.0692
 353  -193.8187
 354  -72.13784
 355  419.4375
 356  569.1222
 357  561.3077
 358  404.4562
 359  977.9296
 360  1746.602
 361  1839.129
 362  1904.178
 363  2261.185
 364  1602.179
 365  1224.859
 366  1076.433
 367  2342.114
 368  1697.354
 369  972.7049
 370  1153.523
 371  740.5768
 372  536.4196
 373  623.3452
 374  651.2025
 375  598.0078
 376  22.45728
 377  -345.2304
 378  -521.8147
 379  -290.7116
 380  132.604
 381  733.1598
 382  937.3121
 383  449.5695
 384  -60.86654
 385  -378.9859
 386  -466.2676
 387  -545.2068
 388  -187.3817
 389  222.3161
 390  150.1133
 391  -294.6477
 392  -479.209
 393  -606.0627
 394  -464.6528
 395  -776.3937
 396  -462.1534
 397  19.78238
 398  395.9207
 399  548.3423
 400  174.9093
 401  -15.53319
 402  -133.6831
 403  -326.4365
 404  -418.8914
 405  -61.82992
 406  347.5054
 407  102.4822
 408  118.8691
 409  64.8623
 410  -182.3656
 411  -541.9002
 412  -442.3637
 413  184.461
 414  771.4384
 415  1048.121
 416  1058.888
 417  772.3071
 418  269.188
 419  -521.0588
 420  -713.609
 421  -290.8994
 422  330.5144
 423  484.4341
 424  593.105
 425  -98.65231
 426  -646.0236
 427  -980.9539
 428  -1279.511
 429  -558.4714
 430  494.6196
 431  766.3758
 432  487.5854
 433  633.5008
 434  325.1718
 435  -338.1472
 436  -610.6622
 437  155.5461
 438  504.2231
 439  703.4395
 440  699.7122
 441  497.8692
 442  246.3622
 443  -390.5669
 444  -643.5822
 445  -528.8398
 446  -17.09731
 447  486.1884
 448  529.4901
 449  585.4307
 450  482.2898
 451  475.4092
 452  437.1967
 453  105.0107
 454  153.4574
 455  252.7847
 456  211.9321
 457  80.1323
 458  127.0715
 459  -186.7598
 460  -538.9738
 461  -580.1178
 462  124.6308
 463  610.4193
 464  776.6594
 465  816.6664
 466  768.2368
 467  184.5457
 468  -182.1158
 469  -322.7353
 470  -33.70108
 471  758.6295
 472  340.0832
 473  319.8221
 474  268.8327
 475  -86.21202
 476  -422.5985
 477  -443.679
 478  -243.9993
 479  -38.82394
 480  478.8136
 481  941.373
 482  751.3945
 483  657.0422
 484  538.569
 485  -422.9345
 486  -644.3974
 487  91.87056
 488  599.5446
 489  603.4399
 490  390.2364
 491  490.8978
 492  317.9141
 493  -500.5575
 494  -742.3637
 495  -379.1825
 496  168.0419
 497  618.2795
 498  625.0312
 499  932.7074
 500  496.7598
 501  -468.21
 502  -795.6237
 503  -1036.339
 504  -570.1473
 505  344.6685
 506  361.7631
 507  47.88848
 508  -95.88403
 509  -335.5754
 510  -734.9031
 511  -867.1282
