# Input file       =  1201548423.108379-PSRB0329-2ms-sampling-dd.dat
# Candidate        =  PSR_0332+5434
# Telescope        =  AR
# Epoch_topo       =  58150.810672550680
# Epoch_bary       =  N/A
# T_sample         =  0.002
# Data Folded      =  7340032
# Data Avg         =  -5.49233294428544e-10
# Data StdDev      =  6.02638031382373 
# Profile Bins     =  512
# Profile Avg      =  -0.324041170461706
# Profile StdDev   =  721.556813335284 
# Reduced chi-sqr  =  0.517
# Prob(Noise)      <  1   (~0.0 sigma)
# P_topo (ms)      =  714.576568445763  +/- 0.00013
# P'_topo (s/s)    =  -0                +/- 6.85e-11
# P''_topo (s/s^2) =  0                 +/- 3.02e-14
# P_bary (ms)      =  N/A
# P'_bary (s/s)    =  N/A
# P''_bary (s/s^2) =  N/A
# P_orb (s)        =  N/A
# asin(i)/c (s)    =  N/A
# eccentricity     =  N/A
# w (rad)          =  N/A
# T_peri           =  N/A
######################################################
   0  -21.55781
   1  83.4187
   2  -513.1445
   3  -357.8362
   4  74.25974
   5  14.03436
   6  -177.5695
   7  182.9642
   8  -272.0263
   9  -389.5888
  10  -468.8798
  11  -254.9937
  12  42.92041
  13  357.5607
  14  459.8041
  15  134.8246
  16  129.4997
  17  109.125
  18  363.8829
  19  30.81557
  20  274.9443
  21  283.5885
  22  70.06599
  23  157.9818
  24  -61.43129
  25  -318.4518
  26  -410.2646
  27  -420.1966
  28  -464.3948
  29  -90.95118
  30  -119.5961
  31  -531.8938
  32  -270.4474
  33  -257.5496
  34  -182.3329
  35  62.00936
  36  117.5553
  37  526.3761
  38  284.839
  39  540.3343
  40  488.8758
  41  149.7978
  42  -42.34455
  43  -133.878
  44  87.8954
  45  -240.3453
  46  -287.231
  47  -625.8165
  48  -191.4172
  49  -176.5339
  50  -407.2413
  51  -185.9788
  52  -146.4016
  53  191.1772
  54  249.8881
  55  -46.12982
  56  -86.97495
  57  -187.1891
  58  -216.5604
  59  -133.1113
  60  -415.6459
  61  -380.7104
  62  -233.9304
  63  -356.7158
  64  -251.1999
  65  -100.5153
  66  7.082931
  67  -466.0651
  68  -223.587
  69  121.9198
  70  -117.5158
  71  138.0002
  72  203.4071
  73  393.9217
  74  378.7744
  75  318.0533
  76  23.81945
  77  -397.4041
  78  -325.7371
  79  -646.2585
  80  -417.3892
  81  106.7788
  82  763.1045
  83  440.3704
  84  248.1167
  85  270.6544
  86  282.4801
  87  -166.5109
  88  37.06499
  89  626.6583
  90  687.4768
  91  358.3046
  92  -61.10258
  93  -455.8588
  94  37.64396
  95  49.3951
  96  720.3544
  97  531.111
  98  286.8888
  99  -45.17954
 100  198.5699
 101  392.882
 102  727.3825
 103  1304.921
 104  1457.52
 105  1242.279
 106  1326.097
 107  1222.98
 108  430.692
 109  202.8654
 110  158.7086
 111  296.6182
 112  84.99899
 113  -149.9207
 114  -108.9221
 115  -315.8725
 116  -130.2746
 117  -82.35056
 118  -16.78758
 119  -172.3769
 120  -350.6193
 121  -155.2304
 122  -51.64309
 123  669.1323
 124  699.993
 125  366.3655
 126  89.14958
 127  -141.1001
 128  -351.0762
 129  -716.1509
 130  -128.8881
 131  -154.8269
 132  221.3236
 133  449.4017
 134  47.1242
 135  -357.3799
 136  -393.3559
 137  -583.7292
 138  -696.3649
 139  306.5122
 140  351.9286
 141  166.3301
 142  -197.7558
 143  -194.2587
 144  218.2034
 145  85.10089
 146  154.1005
 147  588.6612
 148  496.1654
 149  583.5495
 150  336.5937
 151  -5.305203
 152  -74.80309
 153  -195.3302
 154  114.5149
 155  173.213
 156  271.0609
 157  368.3294
 158  47.75564
 159  -185.3728
 160  -155.8434
 161  -134.2886
 162  -431.6521
 163  -18.5591
 164  372.7265
 165  731.317
 166  673.3349
 167  225.6611
 168  127.3591
 169  124.691
 170  -615.2405
 171  -730.3321
 172  -236.2153
 173  137.8556
 174  93.03589
 175  216.5879
 176  214.4472
 177  -23.91811
 178  -228.724
 179  -30.94855
 180  -339.5139
 181  11.2822
 182  -105.0576
 183  18.48584
 184  65.33425
 185  -298.9515
 186  363.1432
 187  317.825
 188  613.5099
 189  703.6581
 190  241.6018
 191  609.1567
 192  237.6978
 193  -48.99924
 194  144.5547
 195  315.2063
 196  652.6521
 197  394.7715
 198  405.8105
 199  452.7805
 200  29.09446
 201  -113.9822
 202  97.2709
 203  61.0727
 204  183.7546
 205  481.5597
 206  776.7369
 207  695.1796
 208  164.3347
 209  243.7446
 210  11.62964
 211  80.49434
 212  -512.8889
 213  -289.5451
 214  -50.13624
 215  -238.1671
 216  78.10758
 217  -59.91041
 218  -128.5438
 219  -158.1677
 220  66.85311
 221  164.7405
 222  306.8065
 223  691.2986
 224  -40.17335
 225  257.1182
 226  -287.5682
 227  -586.5872
 228  -324.1035
 229  41.56017
 230  245.2412
 231  36.58345
 232  -113.857
 233  -551.8928
 234  -193.7911
 235  -6.459042
 236  249.243
 237  433.8734
 238  601.9791
 239  -9.660104
 240  36.54401
 241  97.50699
 242  2.972987
 243  354.217
 244  346.1297
 245  416.9309
 246  161.0975
 247  40.43114
 248  250.3197
 249  285.3563
 250  315.1979
 251  58.67085
 252  203.6902
 253  43.01857
 254  -162.9797
 255  523.0506
 256  446.6921
 257  54.25618
 258  -297.3772
 259  -100.8685
 260  162.8568
 261  181.5706
 262  -46.9451
 263  300.2042
 264  432.3167
 265  159.1363
 266  -460.8025
 267  -323.5707
 268  317.0808
 269  460.2332
 270  634.9515
 271  766.9178
 272  598.351
 273  292.1649
 274  155.8298
 275  583.0536
 276  355.9669
 277  -124.3802
 278  65.57651
 279  28.66355
 280  66.2362
 281  284.3244
 282  -1.316038
 283  -281.2284
 284  -436.1842
 285  -154.6752
 286  -270.243
 287  -316.8683
 288  152.0662
 289  436.0135
 290  14.04416
 291  -205.3696
 292  -470.2155
 293  -1085.063
 294  -677.2584
 295  -520.0062
 296  -645.116
 297  -163.5561
 298  -240.3614
 299  -21.93869
 300  -401.1197
 301  -110.3117
 302  188.2057
 303  485.5375
 304  399.7619
 305  242.2147
 306  34.67204
 307  -297.8601
 308  -127.029
 309  140.2047
 310  20.7956
 311  -99.07713
 312  -339.7316
 313  -434.3168
 314  -724.3284
 315  -667.3494
 316  217.8413
 317  394.1767
 318  548.9664
 319  29.9071
 320  -447.4576
 321  13.11602
 322  14.17446
 323  -322.6087
 324  -560.8252
 325  -573.8254
 326  -94.99637
 327  -317.8202
 328  -381.8173
 329  -668.6415
 330  -726.4752
 331  -375.7823
 332  -217.0422
 333  -101.8106
 334  -437.5799
 335  -313.0748
 336  234.5858
 337  278.5329
 338  3.273853
 339  8.653256
 340  -187.8295
 341  -351.0712
 342  -284.2572
 343  -123.924
 344  82.53593
 345  34.07843
 346  -41.28678
 347  -516.6211
 348  -477.8024
 349  -486.0635
 350  -105.1556
 351  0.4760421
 352  0.4654021
 353  211.942
 354  95.35751
 355  71.99874
 356  186.8546
 357  -102.2049
 358  -174.9718
 359  -15.26029
 360  201.5694
 361  215.1735
 362  -149.666
 363  -86.0053
 364  174.4836
 365  367.9545
 366  271.1826
 367  -97.80518
 368  -75.00906
 369  72.58726
 370  281.4279
 371  9.668274
 372  194.1572
 373  585.9081
 374  218.2387
 375  347.5806
 376  422.8918
 377  185.8622
 378  -325.8604
 379  -431.2119
 380  -545.2726
 381  -641.3552
 382  -604.881
 383  -167.0782
 384  449.6158
 385  269.1399
 386  -191.2999
 387  -327.1299
 388  -180.8529
 389  -235.3539
 390  -58.80156
 391  -138.1188
 392  427.8518
 393  120.2527
 394  -117.6048
 395  -482.8578
 396  -773.1245
 397  -29.30674
 398  -234.6102
 399  -43.02057
 400  377.773
 401  486.4023
 402  385.4884
 403  37.43289
 404  -412.5535
 405  -235.9896
 406  651.4608
 407  75.8056
 408  227.5817
 409  697.8546
 410  240.1645
 411  -400.3734
 412  -156.585
 413  105.2105
 414  133.3197
 415  -110.6335
 416  -190.1892
 417  14.88275
 418  630.0544
 419  166.9696
 420  32.63717
 421  360.8635
 422  270.6068
 423  168.0507
 424  422.6087
 425  -31.70024
 426  -501.0238
 427  -528.4657
 428  -164.1341
 429  -35.10917
 430  0.1572165
 431  285.7945
 432  350.2857
 433  690.7307
 434  602.5169
 435  -196.1053
 436  -5.987518
 437  -353.1627
 438  -505.8328
 439  70.26263
 440  360.8343
 441  77.12843
 442  -8.964869
 443  98.99652
 444  -185.4932
 445  -391.4039
 446  -341.7173
 447  59.01957
 448  327.6899
 449  25.94593
 450  51.11194
 451  261.4778
 452  238.4471
 453  -549.5555
 454  -620.0392
 455  -551.2456
 456  -319.6132
 457  5.139679
 458  -69.13371
 459  -274.8263
 460  -438.6076
 461  -289.3779
 462  -908.0339
 463  -695.6346
 464  -338.3434
 465  45.41402
 466  993.9703
 467  1141.761
 468  874.7473
 469  -213.8986
 470  -776.4777
 471  -909.855
 472  -740.9432
 473  -159.6759
 474  -189.5348
 475  -162.6269
 476  -152.6828
 477  -506.0537
 478  -899.4421
 479  -919.1761
 480  -811.9047
 481  -528.0878
 482  231.4977
 483  -25.46316
 484  90.75955
 485  99.24268
 486  -51.80721
 487  -186.3787
 488  -245.8569
 489  -527.9513
 490  -337.2894
 491  -193.0104
 492  -462.4342
 493  -198.5907
 494  -9.383237
 495  321.3315
 496  -422.9539
 497  -702.198
 498  -137.0553
 499  -229.384
 500  -276.9674
 501  -567.7399
 502  -232.9594
 503  25.4607
 504  104.0239
 505  14.69008
 506  -27.39431
 507  18.48856
 508  -331.6117
 509  -160.1362
 510  -677.1363
 511  -710.3904
