# Input file       =  1201893636.114452-PSRB0329-2ms-sampling-dd.dat
# Candidate        =  PSR_0332+5434
# Telescope        =  AR
# Epoch_topo       =  58154.806193454308
# Epoch_bary       =  N/A
# T_sample         =  0.002
# Data Folded      =  7340032
# Data Avg         =  -9.55907331279688e-10
# Data StdDev      =  6.38282073099366 
# Profile Bins     =  512
# Profile Avg      =  0.00903380572377759
# Profile StdDev   =  764.234506770441 
# Reduced chi-sqr  =  0.486
# Prob(Noise)      <  1   (~0.0 sigma)
# P_topo (ms)      =  714.578046447784  +/- 0.000905
# P'_topo (s/s)    =  -0                +/- 4.78e-10
# P''_topo (s/s^2) =  0                 +/- 2.11e-13
# P_bary (ms)      =  N/A
# P'_bary (s/s)    =  N/A
# P''_bary (s/s^2) =  N/A
# P_orb (s)        =  N/A
# asin(i)/c (s)    =  N/A
# eccentricity     =  N/A
# w (rad)          =  N/A
# T_peri           =  N/A
######################################################
   0  -248.4341
   1  -240.0507
   2  -5.561981
   3  -328.0034
   4  -345.4359
   5  22.41672
   6  -309.7608
   7  -675.8359
   8  -446.6469
   9  -373.5581
  10  -128.8441
  11  -340.5209
  12  -247.5571
  13  -260.6683
  14  59.87981
  15  9.093381
  16  -591.6345
  17  -383.5378
  18  -265.1695
  19  -142.5644
  20  -117.7048
  21  -249.9875
  22  -194.6354
  23  -194.8327
  24  -417.23
  25  -444.2945
  26  -312.9328
  27  -537.421
  28  -744.7667
  29  -638.2666
  30  -650.3129
  31  -680.3889
  32  -720.0225
  33  -604.3184
  34  -302.7888
  35  -290.0523
  36  -677.5645
  37  -615.5024
  38  -356.1134
  39  -249.0621
  40  -925.6602
  41  -1052.644
  42  -818.8868
  43  -435.107
  44  -429.0746
  45  -395.2461
  46  -390.0554
  47  -548.2591
  48  -637.3251
  49  5.2619
  50  4.395369
  51  -461.9799
  52  -192.552
  53  -109.8394
  54  -156.6481
  55  -552.6408
  56  -704.2863
  57  -955.714
  58  -842.8826
  59  -599.7889
  60  -370.3946
  61  -46.13689
  62  95.45559
  63  -243.2559
  64  -393.8045
  65  -288.7323
  66  -197.6981
  67  153.1245
  68  237.6336
  69  299.2705
  70  50.74083
  71  -122.1642
  72  -119.6946
  73  -212.2367
  74  -28.30868
  75  43.8242
  76  653.1193
  77  767.0132
  78  502.7057
  79  396.4341
  80  437.2146
  81  57.83775
  82  -401.6625
  83  -33.62207
  84  625.0472
  85  560.4741
  86  333.5778
  87  -377.4016
  88  -467.6247
  89  -102.2521
  90  -224.6494
  91  -10.86296
  92  392.3225
  93  933.4407
  94  710.9207
  95  257.0555
  96  336.4599
  97  376.2929
  98  907.035
  99  844.4774
 100  1266.518
 101  1768.795
 102  1589.377
 103  947.5871
 104  733.4486
 105  977.8324
 106  611.0504
 107  86.30714
 108  153.1938
 109  293.1684
 110  -57.02918
 111  -110.0198
 112  -81.35308
 113  -183.9008
 114  133.3919
 115  -153.8528
 116  406.1843
 117  151.1523
 118  80.34352
 119  285.3343
 120  371.9892
 121  736.4923
 122  348.8696
 123  557.6191
 124  467.9971
 125  140.6493
 126  58.30458
 127  -368.7762
 128  -182.4823
 129  42.50909
 130  -101.747
 131  -323.231
 132  -249.1149
 133  167.2863
 134  325.8689
 135  127.7774
 136  -164.8393
 137  -243.6481
 138  135.147
 139  -81.89538
 140  -359.7296
 141  -89.83672
 142  382.859
 143  220.5388
 144  119.1745
 145  493.7969
 146  386.2405
 147  -103.3105
 148  -116.0312
 149  -164.5126
 150  39.56295
 151  62.95892
 152  75.04775
 153  -15.55117
 154  -373.5948
 155  48.36343
 156  -128.7633
 157  48.11155
 158  439.3308
 159  349.9387
 160  349.4549
 161  -281.0609
 162  119.1039
 163  262.7605
 164  136.5809
 165  37.30501
 166  -211.8745
 167  73.07108
 168  43.25114
 169  -391.2027
 170  -171.839
 171  155.6487
 172  175.4944
 173  45.71022
 174  8.38039
 175  318.2826
 176  -36.92723
 177  -265.0021
 178  -102.4744
 179  194.5265
 180  22.72047
 181  -491.7459
 182  -334.7951
 183  -462.8586
 184  -364.7516
 185  194.8972
 186  -241.1096
 187  -251.8604
 188  -9.510359
 189  449.9617
 190  368.9991
 191  263.1598
 192  420.3494
 193  -80.51581
 194  -376.8645
 195  -445.9667
 196  -949.5367
 197  -70.99538
 198  -59.11641
 199  -172.4709
 200  -367.0663
 201  -434.5541
 202  -544.3156
 203  -902.5392
 204  -406.7066
 205  -253.9975
 206  -232.8373
 207  -163.8331
 208  183.2121
 209  -142.2867
 210  -531.8365
 211  -650.0922
 212  -299.7422
 213  -409.8831
 214  -711.0441
 215  -494.708
 216  -50.76107
 217  -34.69108
 218  74.47596
 219  189.479
 220  196.5688
 221  -255.8684
 222  -148.4092
 223  -59.39641
 224  113.1182
 225  312.3559
 226  59.33517
 227  -105.0281
 228  -368.7684
 229  -132.7962
 230  -211.4361
 231  -265.5371
 232  -292.9903
 233  162.9505
 234  68.10963
 235  -260.1774
 236  -230.3925
 237  -82.35326
 238  221.8262
 239  31.08187
 240  -67.23861
 241  -437.2185
 242  -524.5244
 243  -421.169
 244  16.46749
 245  -52.95234
 246  -113.0035
 247  -237.8892
 248  -690.5067
 249  -298.893
 250  -305.0587
 251  -535.7412
 252  -313.0531
 253  -73.45146
 254  629.8165
 255  339.3531
 256  249.9313
 257  25.50413
 258  98.03974
 259  324.8855
 260  113.3364
 261  346.9921
 262  135.1245
 263  -6.854563
 264  53.44349
 265  -61.79228
 266  -30.47992
 267  53.58352
 268  -124.7283
 269  -358.5793
 270  -258.26
 271  72.35538
 272  199.6435
 273  578.9971
 274  622.0979
 275  697.613
 276  105.3889
 277  -291.0123
 278  80.61258
 279  -148.6504
 280  137.8397
 281  83.73209
 282  237.2371
 283  -10.12456
 284  286.4578
 285  87.48323
 286  -177.2783
 287  -42.51847
 288  724.298
 289  483.7984
 290  280.5177
 291  916.0236
 292  541.8286
 293  611.3439
 294  331.5898
 295  379.3255
 296  312.3152
 297  340.8885
 298  476.7065
 299  381.6933
 300  583.0307
 301  -133.549
 302  -286.1599
 303  -138.4292
 304  -135.9969
 305  -148.2527
 306  166.3943
 307  82.2766
 308  -413.787
 309  -576.1469
 310  -301.9926
 311  280.5497
 312  -43.72241
 313  -106.4418
 314  -300.6248
 315  -105.9347
 316  -327.0289
 317  -361.1393
 318  -157.4474
 319  -12.95788
 320  366.8886
 321  497.7651
 322  341.9694
 323  61.84185
 324  -609.2746
 325  -230.1331
 326  210.3947
 327  818.8123
 328  953.8166
 329  785.3591
 330  121.5055
 331  -100.7814
 332  90.34344
 333  -135.9844
 334  46.80278
 335  112.1974
 336  242.3632
 337  40.23433
 338  -18.99644
 339  24.91947
 340  69.13551
 341  -313.4507
 342  -201.7087
 343  107.728
 344  8.999697
 345  181.5855
 346  -91.17432
 347  -5.103042
 348  -323.6349
 349  -502.8765
 350  -561.3995
 351  -1131.725
 352  -779.0203
 353  -781.9135
 354  -256.7093
 355  -162.1412
 356  -609.0311
 357  -589.8193
 358  -505.3498
 359  31.53928
 360  -3.849966
 361  -112.208
 362  464.6349
 363  270.3355
 364  109.6088
 365  62.57092
 366  -219.2721
 367  -281.129
 368  -398.3225
 369  -207.5738
 370  -101.373
 371  20.77252
 372  81.25943
 373  88.25053
 374  166.3479
 375  -182.9341
 376  -238.0116
 377  -225.8911
 378  -518.5024
 379  -383.1965
 380  -204.5714
 381  40.14936
 382  -165.7891
 383  -185.8322
 384  -498.9234
 385  -278.6576
 386  -155.418
 387  -73.06519
 388  334.2281
 389  230.3089
 390  103.1902
 391  -168.1193
 392  -248.4758
 393  -242.4202
 394  226.9468
 395  -159.6376
 396  106.7744
 397  13.23835
 398  208.305
 399  623.5173
 400  210.9731
 401  43.65307
 402  298.4297
 403  170.7563
 404  -241.7524
 405  -389.2627
 406  356.3844
 407  642.3731
 408  441.4337
 409  215.7274
 410  130.5524
 411  216.1814
 412  -181.2583
 413  -172.1357
 414  -322.132
 415  -57.94485
 416  59.29639
 417  -259.2054
 418  -429.7978
 419  -542.0271
 420  -129.2867
 421  -64.73208
 422  103.6969
 423  252.2004
 424  617.0541
 425  456.2274
 426  479.4006
 427  354.8233
 428  769.1315
 429  719.3909
 430  84.08309
 431  145.0148
 432  182.0421
 433  340.2715
 434  -102.5673
 435  6.316181
 436  186.0762
 437  -276.6846
 438  -111.8604
 439  133.96
 440  -86.67516
 441  -29.94106
 442  178.7606
 443  274.83
 444  4.729982
 445  -156.4003
 446  -368.7235
 447  -256.3064
 448  -168.2586
 449  -340.1986
 450  -620.1597
 451  -169.2177
 452  25.12536
 453  -235.2328
 454  -73.6796
 455  154.8955
 456  30.09703
 457  60.45542
 458  186.3882
 459  945.767
 460  737.9655
 461  556.6992
 462  387.301
 463  377.9527
 464  382.5001
 465  397.7775
 466  246.8244
 467  41.15888
 468  133.7839
 469  -381.7936
 470  -425.536
 471  111.5156
 472  131.4481
 473  350.632
 474  88.94184
 475  156.5237
 476  147.3369
 477  113.1578
 478  -274.4533
 479  -302.6895
 480  364.8246
 481  20.53638
 482  -61.5298
 483  -54.6068
 484  130.7748
 485  386.1186
 486  -46.44489
 487  47.94735
 488  589.2451
 489  550.121
 490  318.9318
 491  180.4214
 492  333.7872
 493  342.893
 494  226.8066
 495  808.0255
 496  454.0398
 497  516.8563
 498  861.1509
 499  810.0527
 500  691.3942
 501  126.315
 502  192.0866
 503  168.2021
 504  370.8311
 505  850.4894
 506  631.7153
 507  438.2564
 508  94.22491
 509  -38.36467
 510  324.9532
 511  -36.69344
