# Input file       =  1201188759.107331_cleaned.dat
# Candidate        =  PSR_0332+5434
# Telescope        =  AR
# Epoch_topo       =  58146.647894760776
# Epoch_bary       =  N/A
# T_sample         =  0.002
# Data Folded      =  7340032
# Data Avg         =  0.0209158316875175
# Data StdDev      =  1.00004293002818 
# Profile Bins     =  512
# Profile Avg      =  299.872393054629 
# Profile StdDev   =  119.738176519391 
# Reduced chi-sqr  =  1.261
# Prob(Noise)      <  5.39e-05   (~3.9 sigma)
# P_topo (ms)      =  714.574437499655  +/- 0.000259
# P'_topo (s/s)    =  -0                +/- 1.37e-10
# P''_topo (s/s^2) =  0                 +/- 6.03e-14
# P_bary (ms)      =  N/A
# P'_bary (s/s)    =  N/A
# P''_bary (s/s^2) =  N/A
# P_orb (s)        =  N/A
# asin(i)/c (s)    =  N/A
# eccentricity     =  N/A
# w (rad)          =  N/A
# T_peri           =  N/A
######################################################
   0  254.615
   1  293.426
   2  351.2861
   3  211.888
   4  323.0253
   5  371.1952
   6  279.1757
   7  191.4603
   8  263.5999
   9  367.1754
  10  363.916
  11  345.1463
  12  320.452
  13  371.4898
  14  440.7093
  15  326.8854
  16  260.9893
  17  237.6357
  18  307.4221
  19  311.8809
  20  261.9077
  21  347.1378
  22  409.8574
  23  370.6358
  24  370.036
  25  274.3983
  26  266.182
  27  244.2628
  28  254.1666
  29  405.291
  30  463.2819
  31  441.7357
  32  300.5771
  33  320.2544
  34  333.0994
  35  329.5851
  36  282.412
  37  210.4858
  38  256.2003
  39  462.9529
  40  473.7193
  41  297.1207
  42  296.026
  43  332.2499
  44  320.221
  45  331.7467
  46  271.2999
  47  199.7557
  48  298.0158
  49  247.37
  50  224.5078
  51  259.403
  52  319.9782
  53  168.4958
  54  213.4972
  55  384.8476
  56  409.3321
  57  376.0131
  58  343.7385
  59  407.282
  60  325.4381
  61  300.5288
  62  283.7796
  63  299.503
  64  464.8482
  65  369.6883
  66  306.3487
  67  350.8206
  68  354.9429
  69  212.2831
  70  290.0359
  71  370.0328
  72  290.527
  73  184.4219
  74  343.7637
  75  328.3942
  76  360.1142
  77  386.8564
  78  370.1066
  79  417.9718
  80  319.4951
  81  360.2003
  82  276.1518
  83  275.1352
  84  366.4274
  85  312.066
  86  325.6776
  87  369.9861
  88  414.2035
  89  357.4781
  90  289.3318
  91  204.6403
  92  309.8609
  93  326.5883
  94  268.6534
  95  286.8747
  96  396.5653
  97  336.0144
  98  318.3367
  99  206.9294
 100  236.4778
 101  346.3982
 102  342.3973
 103  279.8771
 104  208.6879
 105  222.3115
 106  246.6412
 107  236.562
 108  399.1534
 109  257.2062
 110  32.27782
 111  100.9791
 112  337.7913
 113  455.7705
 114  358.0844
 115  338.0164
 116  329.3186
 117  261.1945
 118  236.0983
 119  340.6464
 120  222.8825
 121  218.8207
 122  174.0506
 123  144.3247
 124  158.5303
 125  230.6904
 126  78.93126
 127  25.99015
 128  173.7693
 129  295.7317
 130  249.1503
 131  163.1682
 132  150.8645
 133  216.6203
 134  275.757
 135  409.6715
 136  423.0007
 137  289.1719
 138  312.6635
 139  369.3624
 140  383.977
 141  235.7926
 142  152.9583
 143  265.2322
 144  212.6589
 145  272.9276
 146  297.8831
 147  316.6317
 148  314.6609
 149  279.5637
 150  323.8924
 151  294.806
 152  262.6291
 153  282.802
 154  293.4424
 155  313.125
 156  352.7377
 157  381.5645
 158  339.9499
 159  242.616
 160  287.8383
 161  254.1976
 162  339.7429
 163  380.1148
 164  330.5998
 165  370.7827
 166  392.9937
 167  272.9375
 168  267.4389
 169  392.3243
 170  489.0797
 171  485.2265
 172  402.7699
 173  364.2191
 174  395.7704
 175  364.461
 176  438.6616
 177  387.4013
 178  302.4071
 179  278.0967
 180  341.2669
 181  303.7756
 182  285.659
 183  383.2114
 184  436.968
 185  352.4738
 186  376.861
 187  418.8262
 188  404.5342
 189  360.6142
 190  303.0078
 191  258.723
 192  298.6307
 193  331.4653
 194  326.3842
 195  193.3593
 196  229.5072
 197  249.3929
 198  341.8181
 199  285.3
 200  164.6702
 201  344.0287
 202  261.9137
 203  295.8436
 204  317.7879
 205  232.3117
 206  154.9823
 207  335.438
 208  357.8409
 209  297.1851
 210  238.9624
 211  246.6813
 212  260.6749
 213  282.307
 214  316.3092
 215  290.9801
 216  285.446
 217  247.9213
 218  280.6425
 219  318.8017
 220  330.752
 221  433.572
 222  332.8714
 223  351.7417
 224  374.5457
 225  396.8412
 226  349.6701
 227  298.6844
 228  319.2957
 229  371.0376
 230  320.1162
 231  334.7798
 232  270.1383
 233  189.6822
 234  277.3729
 235  343.1693
 236  268.6163
 237  300.4084
 238  405.8448
 239  349.1811
 240  407.2397
 241  379.2437
 242  305.6518
 243  235.1113
 244  295.3752
 245  397.2658
 246  347.2224
 247  227.6789
 248  342.2207
 249  295.6031
 250  307.4624
 251  410.1821
 252  489.6334
 253  529.6734
 254  618.371
 255  737.978
 256  881.1219
 257  966.6465
 258  990.5748
 259  749.263
 260  516.5271
 261  507.7347
 262  375.5818
 263  337.9679
 264  316.5708
 265  416.2558
 266  345.3114
 267  338.5227
 268  310.3018
 269  325.7258
 270  363.0266
 271  329.9447
 272  397.8687
 273  255.2629
 274  278.4489
 275  263.2659
 276  243.3591
 277  275.7929
 278  236.6635
 279  272.7855
 280  261.842
 281  403.1858
 282  419.0484
 283  374.2809
 284  496.6513
 285  377.4546
 286  367.0067
 287  196.6658
 288  262.9575
 289  297.2242
 290  208.1545
 291  184.6388
 292  288.5963
 293  402.6203
 294  460.4318
 295  370.0527
 296  266.0228
 297  257.2075
 298  209.3666
 299  265.7604
 300  357.3135
 301  274.6962
 302  212.7662
 303  230.3967
 304  237.6607
 305  264.2366
 306  240.9189
 307  152.1741
 308  128.7251
 309  298.3341
 310  289.2083
 311  232.7882
 312  256.9728
 313  210.4086
 314  251.6932
 315  265.6058
 316  404.8724
 317  370.6862
 318  140.458
 319  228.5304
 320  265.7152
 321  254.1205
 322  323.6789
 323  303.6758
 324  351.637
 325  337.8733
 326  356.3168
 327  323.8502
 328  317.3816
 329  230.7974
 330  278.6264
 331  358.5658
 332  209.253
 333  142.9953
 334  195.2289
 335  260.618
 336  145.4512
 337  142.7984
 338  212.8746
 339  197.4693
 340  79.26917
 341  86.66962
 342  168.8644
 343  211.8749
 344  353.4203
 345  263.235
 346  252.6216
 347  199.0221
 348  211.0331
 349  206.3439
 350  173.7815
 351  154.6778
 352  223.7762
 353  190.9579
 354  166.3997
 355  233.3805
 356  346.0606
 357  294.8106
 358  172.477
 359  145.9678
 360  313.8134
 361  338.6046
 362  236.3209
 363  306.2205
 364  385.5067
 365  219.9135
 366  223.2333
 367  243.9619
 368  323.208
 369  352.3114
 370  245.0492
 371  264.7327
 372  223.9756
 373  199.4146
 374  266.5912
 375  181.0546
 376  214.5639
 377  253.0725
 378  211.3047
 379  302.1367
 380  317.1994
 381  320.7601
 382  404.1599
 383  367.6734
 384  284.0819
 385  355.6491
 386  263.3659
 387  389.2181
 388  209.0365
 389  217.4211
 390  236.5833
 391  248.7108
 392  237.7297
 393  149.1447
 394  269.1601
 395  306.1245
 396  167.5837
 397  300.5548
 398  341.6818
 399  250.5823
 400  242.8833
 401  143.2331
 402  212.8157
 403  184.2566
 404  191.1113
 405  192.3483
 406  205.542
 407  352.8441
 408  234.1828
 409  277.0605
 410  346.4404
 411  267.4438
 412  298.0194
 413  281.2012
 414  264.4814
 415  232.5018
 416  190.9752
 417  259.1895
 418  333.785
 419  323.017
 420  245.779
 421  136.094
 422  272.9378
 423  254.8279
 424  276.7588
 425  294.3911
 426  332.6081
 427  318.6907
 428  274.9783
 429  290.0654
 430  168.3109
 431  150.1904
 432  195.0828
 433  330.9936
 434  258.9419
 435  239.3727
 436  293.5324
 437  237.902
 438  210.9256
 439  286.5211
 440  235.2335
 441  254.1353
 442  262.8504
 443  236.2524
 444  368.5137
 445  306.2569
 446  266.1875
 447  198.9756
 448  199.4292
 449  187.3971
 450  307.0567
 451  311.0474
 452  233.8604
 453  198.3558
 454  280.844
 455  225.5427
 456  338.9564
 457  298.7954
 458  194.3243
 459  166.4187
 460  352.9417
 461  369.7299
 462  346.4219
 463  396.1255
 464  320.1315
 465  388.2489
 466  405.334
 467  328.4977
 468  303.722
 469  268.5681
 470  350.6447
 471  385.7592
 472  430.7034
 473  361.1812
 474  241.5965
 475  368.1578
 476  293.6094
 477  225.835
 478  298.177
 479  170.9464
 480  288.6017
 481  319.2589
 482  327.3341
 483  267.5171
 484  321.1614
 485  299.209
 486  269.6242
 487  326.6251
 488  387.5878
 489  418.6424
 490  396.8844
 491  197.9134
 492  170.6199
 493  293.4213
 494  324.1387
 495  370.6873
 496  303.6824
 497  303.8677
 498  272.3816
 499  206.9405
 500  328.932
 501  355.4376
 502  400.6853
 503  184.8494
 504  289.7305
 505  335.9001
 506  296.8448
 507  268.1382
 508  213.547
 509  312.5248
 510  383.8124
 511  295.867
