# Input file       =  1201274952.113662_cleaned.dat
# Candidate        =  PSR_0332+5434
# Telescope        =  AR
# Epoch_topo       =  58147.645499000719
# Epoch_bary       =  N/A
# T_sample         =  0.002
# Data Folded      =  7340032
# Data Avg         =  0.0237060761834001
# Data StdDev      =  1.0001019739125  
# Profile Bins     =  512
# Profile Avg      =  339.469537032318 
# Profile StdDev   =  119.745246022941 
# Reduced chi-sqr  =  1.255
# Prob(Noise)      <  7.62e-05   (~3.8 sigma)
# P_topo (ms)      =  714.574891146192  +/- 0.000267
# P'_topo (s/s)    =  -0                +/- 1.41e-10
# P''_topo (s/s^2) =  0                 +/- 6.23e-14
# P_bary (ms)      =  N/A
# P'_bary (s/s)    =  N/A
# P''_bary (s/s^2) =  N/A
# P_orb (s)        =  N/A
# asin(i)/c (s)    =  N/A
# eccentricity     =  N/A
# w (rad)          =  N/A
# T_peri           =  N/A
######################################################
   0  975.2974
   1  881.4703
   2  719.3741
   3  528.3743
   4  386.6797
   5  405.409
   6  304.3423
   7  390.455
   8  502.9254
   9  412.0141
  10  332.1447
  11  377.3044
  12  421.8168
  13  469.7285
  14  471.1808
  15  417.7898
  16  416.4872
  17  438.6324
  18  508.105
  19  553.5518
  20  383.5929
  21  342.6702
  22  390.5504
  23  426.55
  24  375.9488
  25  307.3716
  26  356.0511
  27  361.2249
  28  307.802
  29  370.8063
  30  442.2398
  31  368.5222
  32  389.4474
  33  372.3074
  34  305.0546
  35  318.3614
  36  381.0863
  37  418.9801
  38  335.6915
  39  395.9495
  40  452.6569
  41  389.0864
  42  277.3684
  43  292.2331
  44  305.1816
  45  338.1429
  46  347.8947
  47  382.6439
  48  433.7815
  49  344.8247
  50  459.024
  51  424.9998
  52  403.2534
  53  365.2373
  54  351.4148
  55  327.2484
  56  306.4256
  57  309.4687
  58  386.0275
  59  259.521
  60  213.7148
  61  273.0052
  62  327.4042
  63  314.1472
  64  303.7024
  65  264.7169
  66  168.4966
  67  259.7206
  68  331.7864
  69  259.2447
  70  304.8955
  71  332.0915
  72  367.8145
  73  401.7737
  74  242.8554
  75  267.9649
  76  192.686
  77  110.5439
  78  210.8035
  79  214.3165
  80  203.6442
  81  241.4518
  82  248.9344
  83  256.7448
  84  235.8258
  85  312.9729
  86  298.2602
  87  364.7268
  88  249.5757
  89  254.3597
  90  318.7373
  91  335.7643
  92  362.2496
  93  363.7981
  94  290.3908
  95  272.8569
  96  340.6416
  97  403.2247
  98  269.052
  99  327.9175
 100  367.6378
 101  265.7452
 102  297.4367
 103  314.3005
 104  270.2709
 105  299.594
 106  267.4757
 107  244.5177
 108  205.0955
 109  150.3051
 110  233.734
 111  255.1405
 112  253.517
 113  215.0928
 114  253.8711
 115  249.8476
 116  155.118
 117  355.3641
 118  327.8736
 119  282.5805
 120  404.0783
 121  345.868
 122  277.1864
 123  270.6915
 124  301.7787
 125  366.7997
 126  408.3851
 127  488.4849
 128  415.9265
 129  374.2668
 130  241.7729
 131  446.3472
 132  447.5991
 133  378.4712
 134  372.8603
 135  428.2879
 136  372.2404
 137  376.2997
 138  435.5867
 139  432.3532
 140  309.0105
 141  377.1841
 142  343.9618
 143  436.0122
 144  502.7789
 145  433.7799
 146  325.686
 147  366.7841
 148  427.6434
 149  329.5312
 150  394.3727
 151  383.9547
 152  343.772
 153  221.6629
 154  257.7395
 155  303.8208
 156  378.5394
 157  322.6942
 158  426.5876
 159  410.0401
 160  281.5218
 161  255.152
 162  192.6437
 163  251.8002
 164  486.2361
 165  434.5329
 166  358.9122
 167  270.2864
 168  361.683
 169  290.0361
 170  207.9303
 171  355.9033
 172  363.5486
 173  358.3236
 174  334.8791
 175  347.4231
 176  305.8869
 177  273.7016
 178  235.8724
 179  235.6659
 180  326.6619
 181  304.4282
 182  291.1581
 183  371.7891
 184  356.6955
 185  335.4301
 186  292.6473
 187  280.3004
 188  239.2141
 189  358.6573
 190  339.0481
 191  281.5227
 192  247.0476
 193  206.8827
 194  331.938
 195  313.7609
 196  318.7289
 197  400.6965
 198  224.4925
 199  199.6665
 200  185.826
 201  226.425
 202  204.8338
 203  238.0038
 204  265.8589
 205  218.3798
 206  256.2838
 207  306.2585
 208  238.6209
 209  280.9234
 210  367.9696
 211  412.3481
 212  379.0442
 213  280.9036
 214  346.4733
 215  391.2398
 216  258.9201
 217  283.6222
 218  253.6822
 219  180.8328
 220  301.9857
 221  430.7424
 222  418.6333
 223  328.542
 224  220.0796
 225  297.4594
 226  282.0794
 227  237.3963
 228  116.9814
 229  226.8206
 230  307.6986
 231  294.0709
 232  264.9349
 233  219.9427
 234  260.843
 235  231.7306
 236  257.4901
 237  153.2895
 238  250.3513
 239  399.3213
 240  324.6416
 241  275.0717
 242  342.6899
 243  291.7551
 244  194.5224
 245  123.6792
 246  85.19466
 247  166.0307
 248  309.5333
 249  310.9827
 250  296.2093
 251  214.8946
 252  157.4929
 253  275.1196
 254  343.0881
 255  299.8711
 256  351.188
 257  356.867
 258  247.306
 259  208.2505
 260  237.6026
 261  274.8924
 262  295.5321
 263  298.1992
 264  218.8961
 265  270.4074
 266  228.4898
 267  246.7713
 268  276.6577
 269  267.7586
 270  335.8797
 271  408.8352
 272  385.7634
 273  413.1797
 274  276.8932
 275  242.4237
 276  244.8069
 277  299.3233
 278  369.922
 279  361.4957
 280  354.9277
 281  381.3796
 282  378.1216
 283  374.24
 284  380.181
 285  398.6233
 286  347.2784
 287  311.608
 288  369.0309
 289  359.61
 290  339.2855
 291  262.4124
 292  359.145
 293  320.5807
 294  245.7287
 295  291.6601
 296  257.6209
 297  215.2265
 298  212.9232
 299  257.747
 300  346.6313
 301  371.235
 302  253.6777
 303  276.8701
 304  381.6732
 305  325.9492
 306  314.1211
 307  311.7536
 308  228.0298
 309  360.2276
 310  359.9025
 311  338.1557
 312  344.5908
 313  341.642
 314  435.9761
 315  403.8411
 316  509.5229
 317  526.8933
 318  421.6104
 319  510.4787
 320  375.6147
 321  318.5955
 322  300.2955
 323  293.0823
 324  324.476
 325  395.601
 326  499.7382
 327  427.0912
 328  379.6394
 329  258.5463
 330  343.5007
 331  354.9158
 332  341.5135
 333  294.7672
 334  360.4808
 335  448.9303
 336  378.8549
 337  397.0543
 338  279.0228
 339  334.4284
 340  327.8027
 341  320.3424
 342  356.3921
 343  392.9096
 344  414.7999
 345  419.9604
 346  372.1656
 347  334.9072
 348  287.0746
 349  338.2498
 350  450.9177
 351  445.8948
 352  381.3605
 353  306.6297
 354  336.8288
 355  331.8125
 356  328.7256
 357  371.7692
 358  375.666
 359  344.9223
 360  326.472
 361  359.9778
 362  398.5551
 363  347.3095
 364  417.0222
 365  415.9576
 366  232.9637
 367  247.5683
 368  362.1986
 369  334.7776
 370  320.8436
 371  400.6326
 372  255.4278
 373  325.6431
 374  304.4637
 375  446.7411
 376  417.3643
 377  229.1478
 378  291.6239
 379  255.5801
 380  391.2102
 381  395.1972
 382  401.8756
 383  344.5193
 384  308.4908
 385  343.7747
 386  330.3852
 387  358.994
 388  384.5502
 389  311.7652
 390  282.998
 391  259.6223
 392  320.0923
 393  329.1162
 394  333.6648
 395  274.8717
 396  223.3883
 397  392.8169
 398  387.5748
 399  339.5916
 400  365.411
 401  357.3615
 402  352.098
 403  292.2052
 404  321.7566
 405  295.288
 406  234.4065
 407  253.7382
 408  301.0204
 409  347.9924
 410  385.6899
 411  377.9327
 412  443.9821
 413  338.0291
 414  446.9626
 415  356.0359
 416  365.1952
 417  344.6179
 418  325.1588
 419  448.7518
 420  408.1204
 421  402.8927
 422  468.9387
 423  410.4695
 424  391.9435
 425  426.3567
 426  476.0122
 427  269.9488
 428  247.2832
 429  230.1373
 430  235.3805
 431  341.2645
 432  371.8771
 433  348.3266
 434  420.0115
 435  252.7965
 436  326.5881
 437  377.1673
 438  332.9373
 439  233.825
 440  337.8911
 441  331.5127
 442  328.9056
 443  327.8983
 444  441.4341
 445  397.0406
 446  325.9335
 447  364.5769
 448  391.7227
 449  277.971
 450  253.8165
 451  350.4917
 452  461.9737
 453  355.1867
 454  330.506
 455  355.0376
 456  393.0992
 457  283.1096
 458  297.77
 459  309.5048
 460  311.1038
 461  371.846
 462  354.8962
 463  299.8416
 464  294.2715
 465  353.9715
 466  290.2457
 467  270.9647
 468  215.4799
 469  461.1331
 470  421.53
 471  337.0409
 472  340.3118
 473  463.4807
 474  283.5582
 475  276.7317
 476  290.3731
 477  368.5503
 478  399.2841
 479  398.6742
 480  357.8922
 481  396.3771
 482  334.4446
 483  365.4921
 484  424.3294
 485  384.7362
 486  458.9474
 487  363.7475
 488  490.0284
 489  478.0224
 490  485.0487
 491  280.168
 492  278.8782
 493  556.118
 494  479.2839
 495  351.5175
 496  352.0758
 497  458.1785
 498  405.7448
 499  261.7762
 500  361.196
 501  479.4374
 502  391.275
 503  286.3403
 504  339.7451
 505  368.7411
 506  395.863
 507  446.3977
 508  548.6512
 509  788.8112
 510  940.9494
 511  1017.879
