# Input file       =  1201863564.114864-PSRB0329-2ms-sampling-dd.dat
# Candidate        =  PSR_0332+5434
# Telescope        =  AR
# Epoch_topo       =  58154.458137903523
# Epoch_bary       =  N/A
# T_sample         =  0.002
# Data Folded      =  7471104
# Data Avg         =  -2.9285627250274e-10
# Data StdDev      =  44.1419935034266 
# Profile Bins     =  512
# Profile Avg      =  -0.138105340701598
# Profile StdDev   =  5332.23588149868 
# Reduced chi-sqr  =  1.329
# Prob(Noise)      <  8.14e-07   (~4.8 sigma)
# P_topo (ms)      =  714.57755786575   +/- 0.000255
# P'_topo (s/s)    =  -0                +/- 1.32e-10
# P''_topo (s/s^2) =  0                 +/- 5.74e-14
# P_bary (ms)      =  N/A
# P'_bary (s/s)    =  N/A
# P''_bary (s/s^2) =  N/A
# P_orb (s)        =  N/A
# asin(i)/c (s)    =  N/A
# eccentricity     =  N/A
# w (rad)          =  N/A
# T_peri           =  N/A
######################################################
   0  -3783.426
   1  -3806.829
   2  -3563.915
   3  -3186.189
   4  -2959.426
   5  -2989.136
   6  -3183.437
   7  -3670.392
   8  -3924.32
   9  -3107.992
  10  -1636.9
  11  -528.3277
  12  298.0694
  13  216.4197
  14  -2188.26
  15  -2368.158
  16  -2022.406
  17  -303.5222
  18  -565.4318
  19  -601.5142
  20  -1604.04
  21  -3186.76
  22  -3270.788
  23  -3521.05
  24  -4083.058
  25  -3931.893
  26  -3141.765
  27  -2197.786
  28  -2563.052
  29  -2277.084
  30  -2243.686
  31  -2589.039
  32  -3334.257
  33  -3142.56
  34  -3013.382
  35  -3244.138
  36  -3149.339
  37  -2849.763
  38  -2889.254
  39  -3213.342
  40  -2939.444
  41  -3080.574
  42  -2965.724
  43  -2515.346
  44  -1141.845
  45  -918.465
  46  -1396.51
  47  -1775.714
  48  -2775.958
  49  -2749.776
  50  -2771.913
  51  -878.7378
  52  974.7048
  53  2952.087
  54  4548.365
  55  4296.291
  56  3817.581
  57  1504.894
  58  3889.175
  59  6606.364
  60  14334.12
  61  16662.28
  62  16399.91
  63  8658.922
  64  1842.517
  65  -316.0724
  66  2105.306
  67  6145.909
  68  8200.068
  69  9944.831
  70  4908.705
  71  2237.394
  72  220.1217
  73  1720.271
  74  6255.533
  75  9718.509
  76  13033.26
  77  9164.418
  78  5264.897
  79  991.7936
  80  -2965.968
  81  -2744.95
  82  -2312.151
  83  -1417.743
  84  -319.2249
  85  -77.86681
  86  -603.9989
  87  -1797.562
  88  -859.4789
  89  1345.07
  90  2997.5
  91  2572.688
  92  2613.022
  93  919.2938
  94  231.6745
  95  236.1599
  96  324.6343
  97  -1491.881
  98  -3073.887
  99  -3755.237
 100  -3381.533
 101  -3398.369
 102  -1965.016
 103  -1484.128
 104  -1225.323
 105  -1690.733
 106  -2622.416
 107  -3570.445
 108  -3235.606
 109  -1976.876
 110  -502.2543
 111  212.1496
 112  -59.92229
 113  -988.9174
 114  -3060.426
 115  -3458.932
 116  -3447.539
 117  -3176.02
 118  -2496.156
 119  -2358.747
 120  -2388.372
 121  -2832.73
 122  -3738.966
 123  -3828.396
 124  -3792.284
 125  -2677.003
 126  -1884.783
 127  -2059.22
 128  -2021.983
 129  -2592.5
 130  -3050.178
 131  -3737.66
 132  -3492.396
 133  -2964.243
 134  -2875.399
 135  -2751.692
 136  -3182.699
 137  -3527.574
 138  -3882.54
 139  -3694.365
 140  -3224.955
 141  -2516.992
 142  -2038.478
 143  -1778.807
 144  -1727.681
 145  -1962.528
 146  -2171.489
 147  -2875.756
 148  -3094.907
 149  -3290.75
 150  -3116.612
 151  -2942.622
 152  -2760.042
 153  -2893.385
 154  -2960.877
 155  -3328.001
 156  -3985.608
 157  -3745.679
 158  -2470.277
 159  -1780.624
 160  -1476.727
 161  -1827.106
 162  -2060.365
 163  -2575.414
 164  -3296.796
 165  -2805.808
 166  -1960.288
 167  675.0763
 168  1963.909
 169  2417.49
 170  2002.507
 171  -773.48
 172  -1506.487
 173  -1357.975
 174  2133.214
 175  3035.209
 176  3652.205
 177  2139.117
 178  273.5267
 179  -1435.006
 180  -1913.934
 181  -2120.391
 182  -1917.647
 183  -1443.751
 184  -1709.861
 185  -2325.775
 186  -2999.8
 187  -2775.555
 188  -3412.428
 189  -3559.556
 190  -2999.406
 191  -2357.318
 192  -1740.055
 193  -1658.156
 194  -1832.2
 195  -1833.842
 196  -2629.074
 197  -3378.786
 198  -3075.97
 199  -2819.78
 200  -2935.303
 201  -2831.015
 202  -3105.902
 203  -3380.448
 204  -3483.006
 205  -3907.885
 206  -3561.469
 207  -3092.958
 208  -2439.449
 209  -1844.976
 210  -2043.049
 211  -1894.381
 212  -2317.536
 213  -2791.615
 214  -2648.185
 215  -2721.817
 216  -2925.199
 217  -2911.444
 218  -2278.343
 219  -1437.599
 220  -1013.11
 221  482.8534
 222  1795.078
 223  2752.278
 224  3823.678
 225  3178.206
 226  1602.074
 227  2655.561
 228  6754.31
 229  9677.121
 230  12039.66
 231  9385.819
 232  6926.159
 233  1941.131
 234  -2046.31
 235  -2525.548
 236  -1376.437
 237  -244.9089
 238  1664.989
 239  3224.281
 240  3564.082
 241  3858.095
 242  -35.37531
 243  1114.308
 244  4154.985
 245  8114.154
 246  8255.858
 247  6430.044
 248  4450.271
 249  283.1781
 250  1235.348
 251  2988.179
 252  3915.919
 253  3983.288
 254  1782.057
 255  1080.625
 256  1740.462
 257  7770.283
 258  10901.18
 259  12960.32
 260  8660.807
 261  4896.018
 262  1618.918
 263  -1967.58
 264  -1842.17
 265  -2075.018
 266  -2217.817
 267  -2808.642
 268  -2644.087
 269  -2477.089
 270  -2041.735
 271  -1304.755
 272  -1191.931
 273  385.9058
 274  1001.209
 275  788.384
 276  420.6492
 277  2323.664
 278  3551.034
 279  4784.988
 280  6326.457
 281  4877.467
 282  3100.764
 283  1049.532
 284  -97.9707
 285  491.6254
 286  2184.974
 287  3464.037
 288  3123.423
 289  2214.558
 290  1532.447
 291  1036.944
 292  2177.101
 293  3198.636
 294  4448.347
 295  2544.48
 296  1474.726
 297  -449.6964
 298  -1709.121
 299  -1718.415
 300  -1882.381
 301  -2521.14
 302  -2663.26
 303  -2964.949
 304  -3809.085
 305  -3977.453
 306  -3464.422
 307  -2941.338
 308  -2322.401
 309  -1967.038
 310  -2427.186
 311  -2994.397
 312  -3608.348
 313  -3639.672
 314  -3614.881
 315  -3037.938
 316  -2380.44
 317  -2274.483
 318  -2377.572
 319  -2787.306
 320  -3069.881
 321  -1778.795
 322  -487.541
 323  1824.819
 324  4093.488
 325  2983.142
 326  2135.397
 327  731.5457
 328  3225.897
 329  4873.58
 330  7477.329
 331  7580.771
 332  5919.866
 333  3956.869
 334  -800.3903
 335  94.11432
 336  -166.3855
 337  1814.07
 338  1680.145
 339  2434.095
 340  2917.37
 341  2441.528
 342  3681.575
 343  3389.245
 344  2032.512
 345  -812.2762
 346  1902.353
 347  5876.281
 348  11886.37
 349  14786.18
 350  13465.31
 351  10260.08
 352  3096.37
 353  7452.686
 354  7849.055
 355  12124.52
 356  14905.64
 357  18316.84
 358  15095.39
 359  10873.77
 360  8611.812
 361  2430.091
 362  1279.447
 363  2574.628
 364  8691.147
 365  11193.09
 366  12934.19
 367  10651.1
 368  4809.9
 369  2896.423
 370  5636.61
 371  10655.13
 372  15589.85
 373  21253.2
 374  15636.04
 375  10101.55
 376  6307.613
 377  7022.451
 378  10235.68
 379  12492.79
 380  14762.57
 381  10536.49
 382  4560.941
 383  1171.39
 384  -442.6819
 385  893.499
 386  684.5137
 387  632.3589
 388  -319.725
 389  -1195.765
 390  -1274.977
 391  -730.033
 392  -1061.662
 393  -1665.115
 394  -2477.732
 395  -3416.143
 396  -3462.9
 397  -2831.667
 398  -2240.5
 399  -1527.428
 400  -353.6451
 401  -657.1541
 402  -1118.018
 403  -1439.652
 404  -2766.954
 405  -1897.135
 406  1064.705
 407  3303.345
 408  2697.039
 409  2154.699
 410  -899.7896
 411  -2598.873
 412  -3424.426
 413  -3483.25
 414  -3563.957
 415  -3255.102
 416  -2678.389
 417  -3028.26
 418  -2931.758
 419  -3324.453
 420  -3772.734
 421  -3566.688
 422  -3056.792
 423  -2584.354
 424  -2131.648
 425  -1767.786
 426  -1814.629
 427  -2533.866
 428  -3430.767
 429  -3952.726
 430  -4051.067
 431  -3915.69
 432  -3395.325
 433  -3012.507
 434  -2870.457
 435  -2968.549
 436  -3243.509
 437  -3643.451
 438  -3907.076
 439  -3544.309
 440  -2759.822
 441  -1933.52
 442  -1882.789
 443  -2231.674
 444  -2477.818
 445  -3528.346
 446  -3609.285
 447  -3444.828
 448  -2879.354
 449  -3353.095
 450  -3547.609
 451  -3429.375
 452  -3881.11
 453  -3738.494
 454  -3921.419
 455  -3082.948
 456  -2192.354
 457  -2246.29
 458  -2165.045
 459  -2201.766
 460  -2799.718
 461  -3714.7
 462  -3889.871
 463  -3131.455
 464  -2761.041
 465  -2697.043
 466  -2703.381
 467  -3179.912
 468  -3671.872
 469  -3817.228
 470  -3542.269
 471  -3165.249
 472  -2215.828
 473  -1970.812
 474  -1939.173
 475  -1950.231
 476  -2423.319
 477  -2779.61
 478  -3140.234
 479  -3628.748
 480  -3354.61
 481  -3145.944
 482  -2574.271
 483  -2357.888
 484  -2741.843
 485  -3176.711
 486  -3670.898
 487  -3324.857
 488  -2959.672
 489  -2073.691
 490  -1576.299
 491  -1420.599
 492  -1704.479
 493  -2692.61
 494  -3595.189
 495  -3804.23
 496  -3487.245
 497  -2714.931
 498  -2500.109
 499  -2485.358
 500  -2440.537
 501  -2765.249
 502  -3599.454
 503  -4189.579
 504  -3619.049
 505  -2945.388
 506  -2287.096
 507  -1829.146
 508  -1663.701
 509  -2039.714
 510  -2802.844
 511  -3219.344
