# Input file       =  1201447310.101719_cleaned.dat
# Candidate        =  PSR_0332+5434
# Telescope        =  AR
# Epoch_topo       =  58149.640383121747
# Epoch_bary       =  N/A
# T_sample         =  0.002
# Data Folded      =  7340032
# Data Avg         =  0.0298105325585444
# Data StdDev      =  1.00009041681344 
# Profile Bins     =  512
# Profile Avg      =  427.345180733643 
# Profile StdDev   =  119.743862256378 
# Reduced chi-sqr  =  1.243
# Prob(Noise)      <  0.000145   (~3.6 sigma)
# P_topo (ms)      =  714.575754298186  +/- 0.000282
# P'_topo (s/s)    =  -0                +/- 1.49e-10
# P''_topo (s/s^2) =  0                 +/- 6.58e-14
# P_bary (ms)      =  N/A
# P'_bary (s/s)    =  N/A
# P''_bary (s/s^2) =  N/A
# P_orb (s)        =  N/A
# asin(i)/c (s)    =  N/A
# eccentricity     =  N/A
# w (rad)          =  N/A
# T_peri           =  N/A
######################################################
   0  435.9986
   1  477.4582
   2  522.8917
   3  427.9427
   4  426.3236
   5  378.8021
   6  336.6992
   7  356.402
   8  366.3269
   9  381.0516
  10  389.4188
  11  430.1495
  12  429.5782
  13  362.0974
  14  455.9558
  15  358.5581
  16  286.3309
  17  402.2542
  18  524.881
  19  458.5423
  20  380.5917
  21  443.9847
  22  443.8671
  23  392.0106
  24  439.6864
  25  472.1476
  26  362.2225
  27  296.7309
  28  302.5791
  29  362.0055
  30  351.2467
  31  364.5685
  32  498.94
  33  379.899
  34  309.5752
  35  457.0329
  36  392.5488
  37  356.376
  38  355.6404
  39  469.3293
  40  360.1143
  41  366.6749
  42  431.9075
  43  393.3133
  44  424.806
  45  525.7699
  46  587.9201
  47  411.0877
  48  431.0844
  49  446.6924
  50  442.732
  51  425.798
  52  298.0975
  53  420.8773
  54  397.8282
  55  431.3013
  56  296.4651
  57  324.4957
  58  491.7661
  59  456.8834
  60  404.4536
  61  438.1619
  62  441.1055
  63  417.3944
  64  392.7381
  65  512.7759
  66  425.1361
  67  343.8843
  68  495.3806
  69  457.2618
  70  476.0363
  71  453.3931
  72  434.8777
  73  456.9499
  74  393.6121
  75  486.3721
  76  553.4243
  77  515.8765
  78  433.7202
  79  395.0053
  80  445.946
  81  502.4216
  82  440.8311
  83  457.6306
  84  444.2819
  85  463.6164
  86  590.725
  87  498.0922
  88  447.929
  89  486.158
  90  441.7247
  91  473.0983
  92  429.4095
  93  538.2305
  94  592.9036
  95  460.5638
  96  443.1843
  97  443.5952
  98  454.9997
  99  357.3523
 100  333.5712
 101  506.6703
 102  512.5151
 103  520.0422
 104  501.0483
 105  415.5508
 106  551.3829
 107  562.0569
 108  513.832
 109  521.2613
 110  411.7795
 111  412.0668
 112  378.1885
 113  345.0737
 114  403.4172
 115  451.7935
 116  445.9365
 117  402.2627
 118  466.5515
 119  429.8309
 120  438.9398
 121  489.2116
 122  530.5151
 123  551.4646
 124  528.5637
 125  535.4556
 126  523.9482
 127  497.9838
 128  453.8033
 129  431.9396
 130  515.2104
 131  469.287
 132  545.9484
 133  572.7137
 134  529.3917
 135  512.1122
 136  532.2374
 137  628.075
 138  550.7337
 139  535.2047
 140  453.8296
 141  367.1284
 142  450.3603
 143  447.9891
 144  379.1678
 145  376.5363
 146  453.3708
 147  438.0284
 148  578.4035
 149  587.4954
 150  438.9404
 151  268.8819
 152  458.7285
 153  552.3
 154  638.1169
 155  624.51
 156  538.9066
 157  469.3266
 158  528.7415
 159  488.3796
 160  386.1418
 161  365.6826
 162  399.6131
 163  486.6568
 164  480.3954
 165  471.0523
 166  494.6855
 167  501.2559
 168  503.084
 169  500.9757
 170  564.8793
 171  508.7366
 172  567.9011
 173  518.5352
 174  478.3688
 175  510.3747
 176  427.3093
 177  446.6094
 178  477.4496
 179  500.1803
 180  534.5359
 181  334.2661
 182  361.7406
 183  461.4692
 184  421.1246
 185  391.7367
 186  299.0782
 187  399.452
 188  415.3041
 189  281.1305
 190  326.5171
 191  372.8547
 192  415.6715
 193  438.4371
 194  401.5055
 195  335.224
 196  258.0423
 197  336.8496
 198  390.2833
 199  495.1053
 200  473.6574
 201  446.8918
 202  424.4026
 203  385.7609
 204  517.6652
 205  551.7747
 206  501.4367
 207  516.3251
 208  426.3257
 209  440.726
 210  566.9575
 211  484.6704
 212  447.5081
 213  461.6803
 214  505.4197
 215  511.0637
 216  541.4844
 217  456.0068
 218  361.5125
 219  475.6008
 220  450.8508
 221  389.2942
 222  392.4484
 223  424.3316
 224  503.5282
 225  511.9923
 226  461.1617
 227  398.3625
 228  461.9582
 229  511.9945
 230  475.5258
 231  368.5419
 232  404.4218
 233  533.6751
 234  560.1002
 235  530.2325
 236  477.1516
 237  465.5064
 238  393.8914
 239  407.6803
 240  364.5141
 241  329.9689
 242  427.0729
 243  425.2128
 244  364.88
 245  316.2128
 246  357.5803
 247  352.4402
 248  435.3607
 249  401.7065
 250  426.2353
 251  401.963
 252  421.8251
 253  359.4174
 254  372.388
 255  359.3979
 256  419.648
 257  401.317
 258  358.2897
 259  484.1923
 260  376.8279
 261  346.3069
 262  358.6217
 263  385.6214
 264  470.1433
 265  605.8365
 266  499.2606
 267  414.7883
 268  373.1992
 269  433.8246
 270  404.5988
 271  388.7814
 272  378.5959
 273  504.6875
 274  462.8693
 275  460.9925
 276  469.568
 277  355.4877
 278  412.1756
 279  437.8472
 280  510.4203
 281  469.545
 282  328.6545
 283  392.8983
 284  317.6171
 285  414.3974
 286  440.7865
 287  450.5312
 288  420.0489
 289  354.7373
 290  431.3463
 291  424.2191
 292  312.5962
 293  309.8983
 294  316.4106
 295  338.5186
 296  371.2795
 297  346.33
 298  336.3505
 299  380.6873
 300  436.5659
 301  572.7697
 302  448.6873
 303  528.9031
 304  528.4263
 305  388.642
 306  416.9609
 307  400.985
 308  437.3079
 309  364.0526
 310  434.8244
 311  499.5748
 312  316.4539
 313  300.7035
 314  258.8894
 315  250.9594
 316  340.4414
 317  411.7955
 318  444.6841
 319  355.3354
 320  300.3963
 321  361.7907
 322  360.6727
 323  445.4747
 324  363.0629
 325  297.9019
 326  360.3744
 327  294.0208
 328  342.5681
 329  415.1091
 330  349.469
 331  327.7029
 332  305.2036
 333  373.422
 334  459.5531
 335  420.2133
 336  407.6165
 337  447.5873
 338  439.9912
 339  353.5012
 340  394.5983
 341  420.5622
 342  384.3882
 343  291.6296
 344  416.5299
 345  498.3758
 346  490.1064
 347  473.3891
 348  331.4101
 349  359.7389
 350  378.2456
 351  366.9838
 352  406.2095
 353  325.5348
 354  344.1186
 355  312.0049
 356  306.5729
 357  279.9891
 358  367.4796
 359  347.4491
 360  263.5889
 361  299.3493
 362  387.3812
 363  321.6678
 364  380.1553
 365  451.4306
 366  421.2639
 367  331.0407
 368  401.5441
 369  456.5622
 370  385.9053
 371  422.1949
 372  408.5577
 373  410.1122
 374  374.5045
 375  406.9489
 376  462.5363
 377  459.7694
 378  504.5216
 379  522.8146
 380  356.0605
 381  240.341
 382  294.6525
 383  460.1709
 384  389.8758
 385  266.0596
 386  310.5293
 387  327.2193
 388  414.956
 389  488.3032
 390  383.505
 391  337.9634
 392  354.1499
 393  338.933
 394  330.6848
 395  334.9138
 396  384.3414
 397  434.3937
 398  291.6772
 399  244.6597
 400  302.2462
 401  327.3722
 402  361.2059
 403  423.7018
 404  454.1133
 405  463.2543
 406  386.3431
 407  341.5006
 408  503.3717
 409  473.9959
 410  420.5765
 411  403.3487
 412  364.8108
 413  437.9844
 414  437.0832
 415  527.3755
 416  471.11
 417  394.1764
 418  442.4202
 419  532.3317
 420  464.0412
 421  427.1857
 422  402.1922
 423  360.208
 424  312.5208
 425  417.4104
 426  441.8236
 427  442.3956
 428  462.0822
 429  429.2853
 430  589.0389
 431  624.2085
 432  593.5212
 433  580.715
 434  538.8837
 435  723.2566
 436  925.9435
 437  1001.504
 438  1101.893
 439  963.9265
 440  938.8961
 441  702.9182
 442  452.4635
 443  447.2978
 444  422.7522
 445  459.7737
 446  488.4004
 447  592.7957
 448  505.9268
 449  399.7525
 450  470.6713
 451  455.9536
 452  380.634
 453  349.4866
 454  406.7351
 455  389.1987
 456  379.6151
 457  403.8356
 458  465.7728
 459  431.4346
 460  464.9772
 461  355.2632
 462  324.0937
 463  496.4641
 464  561.6748
 465  522.1245
 466  441.7747
 467  430.2305
 468  367.0899
 469  324.5794
 470  346.7688
 471  391.0119
 472  323.6873
 473  245.2542
 474  257.6667
 475  241.7116
 476  247.1456
 477  161.2509
 478  290.2044
 479  398.021
 480  428.6554
 481  392.2116
 482  480.4519
 483  403.9672
 484  344.9308
 485  468.6583
 486  446.9455
 487  383.3027
 488  305.8412
 489  387.738
 490  286.3555
 491  243.0792
 492  318.9727
 493  318.0872
 494  321.8258
 495  308.0712
 496  294.3536
 497  359.4796
 498  367.7917
 499  417.6165
 500  412.2038
 501  382.6255
 502  386.0365
 503  349.4755
 504  412.4485
 505  414.8619
 506  444.2317
 507  508.2924
 508  470.5376
 509  334.2997
 510  313.7484
 511  366.9265
