# Input file       =  1201619709.104547_cleaned.dat
# Candidate        =  PSR_0332+5434
# Telescope        =  AR
# Epoch_topo       =  58151.635741950777
# Epoch_bary       =  N/A
# T_sample         =  0.002
# Data Folded      =  7340032
# Data Avg         =  0.0307583330389897
# Data StdDev      =  1.00007395256074 
# Profile Bins     =  512
# Profile Avg      =  440.973490811069 
# Profile StdDev   =  119.741890941412 
# Reduced chi-sqr  =  1.033
# Prob(Noise)      <  0.294   (~0.5 sigma)
# P_topo (ms)      =  714.576554795681  +/- 0.00049
# P'_topo (s/s)    =  -0                +/- 2.58e-10
# P''_topo (s/s^2) =  0                 +/- 1.14e-13
# P_bary (ms)      =  N/A
# P'_bary (s/s)    =  N/A
# P''_bary (s/s^2) =  N/A
# P_orb (s)        =  N/A
# asin(i)/c (s)    =  N/A
# eccentricity     =  N/A
# w (rad)          =  N/A
# T_peri           =  N/A
######################################################
   0  297.9638
   1  381.498
   2  437.3122
   3  414.1554
   4  410.7679
   5  462.114
   6  578.1428
   7  565.0597
   8  470.6819
   9  291.4482
  10  292.0593
  11  406.4469
  12  469.3326
  13  460.9329
  14  404.8464
  15  432.6797
  16  438.864
  17  429.1071
  18  464.9686
  19  539.3665
  20  434.7457
  21  521.9829
  22  490.0703
  23  449.2576
  24  511.456
  25  646.5762
  26  553.1562
  27  423.9281
  28  376.5927
  29  382.5035
  30  427.8759
  31  422.7455
  32  482.4558
  33  479.7302
  34  362.6794
  35  458.362
  36  521.5449
  37  453.774
  38  469.3498
  39  395.7614
  40  344.537
  41  296.5673
  42  371.7086
  43  384.1796
  44  435.4178
  45  340.8328
  46  369.8919
  47  509.4295
  48  537.9543
  49  351.5419
  50  387.5188
  51  420.665
  52  423.1209
  53  325.7911
  54  388.6514
  55  393.4147
  56  384.5172
  57  398.1346
  58  354.7766
  59  381.7977
  60  357.6342
  61  392.6111
  62  333.6203
  63  257.0666
  64  343.836
  65  365.309
  66  337.8293
  67  349.974
  68  289.5707
  69  367.0925
  70  411.7677
  71  435.4668
  72  450.5463
  73  351.8622
  74  354.0081
  75  423.3774
  76  522.355
  77  496.2462
  78  433.7405
  79  346.2642
  80  405.6654
  81  452.6999
  82  520.1497
  83  442.4137
  84  466.4437
  85  373.0989
  86  331.3319
  87  370.1603
  88  375.9632
  89  428.7622
  90  496.5061
  91  526.6074
  92  479.8844
  93  368.8698
  94  368.4332
  95  398.4478
  96  350.3192
  97  299.1264
  98  398.0317
  99  475.3125
 100  480.0655
 101  388.4023
 102  356.2917
 103  395.4966
 104  344.6484
 105  425.1584
 106  469.3277
 107  451.1555
 108  384.6019
 109  342.2974
 110  358.2028
 111  436.3377
 112  514.8381
 113  420.9669
 114  392.33
 115  451.2355
 116  433.9709
 117  483.9555
 118  516.4933
 119  462.3685
 120  412.4624
 121  448.0812
 122  424.658
 123  558.0613
 124  553.3389
 125  543.4677
 126  552.9464
 127  520.5544
 128  432.6194
 129  340.2549
 130  357.4378
 131  462.8701
 132  505.5898
 133  500.4781
 134  433.7557
 135  469.3245
 136  392.5421
 137  404.3782
 138  408.8521
 139  334.4499
 140  469.9229
 141  492.9406
 142  512.2563
 143  488.6114
 144  354.7045
 145  410.1663
 146  489.2192
 147  504.0707
 148  456.6711
 149  384.6014
 150  467.1025
 151  539.374
 152  498.0034
 153  493.964
 154  541.8594
 155  529.2746
 156  417.4181
 157  336.0429
 158  412.432
 159  362.8737
 160  353.2109
 161  504.1447
 162  523.4079
 163  383.7033
 164  434.3003
 165  436.0927
 166  433.8029
 167  363.3357
 168  390.4681
 169  465.2696
 170  483.3083
 171  528.4451
 172  521.1273
 173  486.3094
 174  524.546
 175  541.9068
 176  501.3148
 177  526.9507
 178  566.6019
 179  577.1257
 180  455.0036
 181  446.2369
 182  474.7041
 183  434.6284
 184  461.6763
 185  517.3895
 186  519.2434
 187  357.135
 188  337.3176
 189  440.9419
 190  469.3398
 191  518.9154
 192  490.7206
 193  540.6034
 194  531.6079
 195  425.1059
 196  395.8871
 197  399.014
 198  363.3417
 199  438.7738
 200  412.2453
 201  425.0875
 202  392.3488
 203  450.9496
 204  357.9352
 205  318.5767
 206  381.7669
 207  474.7519
 208  456.8137
 209  343.3951
 210  438.7961
 211  346.6968
 212  415.0543
 213  456.9637
 214  476.8327
 215  511.4332
 216  478.7954
 217  472.2213
 218  470.7909
 219  546.045
 220  491.8536
 221  482.4746
 222  560.4311
 223  525.5312
 224  418.5276
 225  456.4698
 226  525.2969
 227  531.9736
 228  629.8765
 229  691.0971
 230  734.8932
 231  912.2393
 232  993.3334
 233  983.4895
 234  862.6586
 235  721.3289
 236  544.7366
 237  416.7317
 238  414.9352
 239  483.7398
 240  539.0812
 241  560.9186
 242  538.9107
 243  461.5984
 244  431.4908
 245  451.0606
 246  528.5239
 247  509.1532
 248  564.2938
 249  514.5
 250  339.859
 251  386.6101
 252  469.6974
 253  432.79
 254  433.9417
 255  380.543
 256  375.2222
 257  293.7218
 258  320.363
 259  272.4972
 260  242.0094
 261  402.0289
 262  485.7469
 263  413.4694
 264  391.5931
 265  451.4534
 266  443.56
 267  489.6911
 268  414.9588
 269  310.6338
 270  201.9102
 271  287.4746
 272  354.5351
 273  427.8951
 274  392.542
 275  395.7619
 276  461.2197
 277  374.0423
 278  374.9712
 279  386.2438
 280  382.2399
 281  466.573
 282  488.6479
 283  471.8482
 284  394.4749
 285  324.5383
 286  416.9657
 287  504.3219
 288  529.9944
 289  517.6502
 290  477.7051
 291  433.1259
 292  438.5742
 293  466.997
 294  537.7629
 295  448.2614
 296  388.502
 297  338.8617
 298  411.8072
 299  369.4067
 300  410.6698
 301  445.504
 302  320.5799
 303  383.175
 304  337.9286
 305  305.2887
 306  339.9015
 307  482.0192
 308  559.4918
 309  395.2443
 310  358.5492
 311  420.3344
 312  422.4934
 313  455.3578
 314  372.3951
 315  333.5428
 316  262.0185
 317  418.6104
 318  423.5998
 319  373.4086
 320  370.083
 321  381.973
 322  429.9527
 323  524.8035
 324  542.0106
 325  491.8834
 326  492.8546
 327  420.3847
 328  259.1818
 329  421.7868
 330  549.1519
 331  472.3089
 332  544.6158
 333  475.6268
 334  417.6579
 335  485.7616
 336  483.1731
 337  440.6759
 338  340.4121
 339  364.2596
 340  396.9835
 341  381.0648
 342  369.4826
 343  312.2328
 344  267.561
 345  397.1707
 346  466.2948
 347  477.8197
 348  466.8965
 349  300.1325
 350  327.8998
 351  424.3015
 352  458.0904
 353  453.09
 354  495.1199
 355  438.2106
 356  454.5862
 357  522.8369
 358  531.6326
 359  450.1808
 360  446.3618
 361  481.5099
 362  392.1787
 363  408.3314
 364  351.2915
 365  359.2656
 366  396.6579
 367  329.308
 368  295.3702
 369  370.8052
 370  403.6355
 371  278.2841
 372  398.4562
 373  471.8136
 374  486.4411
 375  468.8316
 376  458.4135
 377  517.9529
 378  624.5947
 379  586.389
 380  555.1842
 381  451.3296
 382  341.6848
 383  436.8025
 384  447.3743
 385  514.519
 386  435.6056
 387  441.7704
 388  422.832
 389  397.8224
 390  470.493
 391  390.6248
 392  431.3469
 393  551.0224
 394  404.9338
 395  358.4292
 396  515.7699
 397  485.3688
 398  502.0535
 399  450.2243
 400  365.2301
 401  379.0454
 402  436.0143
 403  472.4541
 404  368.0894
 405  371.7732
 406  314.3279
 407  312.8391
 408  293.2871
 409  271.2426
 410  331.9066
 411  330.1977
 412  323.7529
 413  306.4402
 414  462.0311
 415  372.7547
 416  416.0626
 417  496.4192
 418  453.0278
 419  470.6685
 420  403.1171
 421  427.1587
 422  463.8148
 423  457.4093
 424  402.1452
 425  418.6418
 426  454.9253
 427  503.5859
 428  398.1008
 429  450.282
 430  333.1155
 431  403.622
 432  354.3336
 433  406.1738
 434  393.4661
 435  442.4892
 436  392.4536
 437  306.9296
 438  412.2625
 439  332.9036
 440  284.6472
 441  319.0814
 442  408.1336
 443  503.8728
 444  501.0946
 445  489.7069
 446  473.9802
 447  410.4494
 448  527.3447
 449  523.9799
 450  450.8481
 451  534.7811
 452  585.7217
 453  626.5826
 454  544.7392
 455  516.3862
 456  407.7849
 457  416.4894
 458  462.0178
 459  526.7288
 460  420.5055
 461  436.615
 462  415.0915
 463  395.5437
 464  458.2926
 465  481.7545
 466  464.4439
 467  558.1601
 468  563.6572
 469  503.6634
 470  443.9263
 471  529.83
 472  550.2957
 473  607.8298
 474  573.3392
 475  532.6062
 476  545.0135
 477  537.8714
 478  500.0077
 479  459.4622
 480  469.321
 481  415.232
 482  475.8556
 483  545.0065
 484  505.6143
 485  431.843
 486  532.5389
 487  501.3846
 488  506.1739
 489  388.0249
 490  330.3413
 491  375.391
 492  498.2046
 493  542.5341
 494  474.2395
 495  428.3128
 496  510.3531
 497  535.6564
 498  525.3093
 499  461.1367
 500  454.7542
 501  434.0052
 502  353.2516
 503  359.5435
 504  360.096
 505  381.95
 506  485.9555
 507  467.8069
 508  424.3813
 509  495.4734
 510  515.883
 511  470.958
