# Input file       =  1201619709.104547_cleaned.dat
# Candidate        =  PSR_0332+5434
# Telescope        =  AR
# Epoch_topo       =  58151.635741950777
# Epoch_bary       =  N/A
# T_sample         =  0.002
# Data Folded      =  7340032
# Data Avg         =  0.0307583330389897
# Data StdDev      =  1.00007395256074 
# Profile Bins     =  512
# Profile Avg      =  440.973490888616 
# Profile StdDev   =  119.741890941412 
# Reduced chi-sqr  =  1.027
# Prob(Noise)      <  0.324   (~0.5 sigma)
# P_topo (ms)      =  714.5765537123    +/- 0.000481
# P'_topo (s/s)    =  -0                +/- 2.54e-10
# P''_topo (s/s^2) =  0                 +/- 1.12e-13
# P_bary (ms)      =  N/A
# P'_bary (s/s)    =  N/A
# P''_bary (s/s^2) =  N/A
# P_orb (s)        =  N/A
# asin(i)/c (s)    =  N/A
# eccentricity     =  N/A
# w (rad)          =  N/A
# T_peri           =  N/A
######################################################
   0  990.2355
   1  896.5224
   2  748.0783
   3  579.061
   4  440.6492
   5  397.391
   6  479.4278
   7  523.2739
   8  559.2159
   9  542.5237
  10  488.7065
  11  422.237
  12  445.7069
  13  521.9305
  14  507.8282
  15  552.27
  16  538.0657
  17  366.248
  18  364.1965
  19  466.3784
  20  432.4868
  21  443.232
  22  387.968
  23  384.6375
  24  305.2815
  25  307.5911
  26  295.4017
  27  230.585
  28  369.4261
  29  473.7511
  30  438.7052
  31  378.912
  32  454.3188
  33  442.332
  34  481.0966
  35  427.8985
  36  339.6973
  37  217.0418
  38  259.1818
  39  347.4532
  40  415.7217
  41  407.7545
  42  376.8441
  43  456.9225
  44  394.6567
  45  361.1936
  46  401.0753
  47  365.8617
  48  453.4549
  49  489.0643
  50  478.3362
  51  419.7876
  52  320.3185
  53  404.0257
  54  480.7358
  55  532.1055
  56  522.2038
  57  492.0358
  58  431.8744
  59  440.2706
  60  452.1756
  61  534.5462
  62  473.0871
  63  401.1283
  64  335.8007
  65  404.2704
  66  377.4279
  67  395.0852
  68  458.0432
  69  333.1417
  70  361.8872
  71  362.3509
  72  297.0713
  73  330.8809
  74  444.3555
  75  574.4996
  76  425.1696
  77  349.3103
  78  408.3955
  79  419.9016
  80  462.558
  81  378.5618
  82  358.4329
  83  259.0079
  84  390.0805
  85  440.627
  86  367.073
  87  370.1562
  88  376.5507
  89  411.6084
  90  507.7654
  91  561.8003
  92  494.649
  93  490.1655
  94  447.6447
  95  273.6705
  96  368.5788
  97  557.7799
  98  473.7014
  99  530.3139
 100  496.9924
 101  418.4134
 102  474.7018
 103  492.8489
 104  456.3185
 105  353.4581
 106  346.4866
 107  406.8332
 108  368.5792
 109  390.0627
 110  313.6814
 111  272.9202
 112  356.7698
 113  471.9306
 114  460.9522
 115  493.3127
 116  328.6306
 117  308.3534
 118  404.1398
 119  458.8137
 120  443.3284
 121  496.6153
 122  450.2574
 123  443.7134
 124  512.9457
 125  529.1391
 126  469.5672
 127  430.5528
 128  505.8882
 129  395.8251
 130  411.763
 131  361.0563
 132  345.2847
 133  398.4329
 134  348.6015
 135  283.059
 136  357.6635
 137  420.5431
 138  290.9282
 139  365.9854
 140  455.1574
 141  487.6486
 142  477.4203
 143  457.9529
 144  498.3273
 145  620.1664
 146  584.6821
 147  563.6003
 148  482.3342
 149  350.4046
 150  426.1591
 151  439.2975
 152  504.6835
 153  452.6376
 154  427.242
 155  446.8933
 156  378.2439
 157  481.7651
 158  393.8056
 159  414.7853
 160  539.4786
 161  439.3875
 162  337.4037
 163  503.0884
 164  488.4688
 165  503.0266
 166  473.3058
 167  375.2678
 168  369.8344
 169  421.6675
 170  479.5544
 171  378.2195
 172  369.0043
 173  330.5756
 174  312.1511
 175  308.0442
 176  259.1627
 177  315.7193
 178  334.7383
 179  332.6122
 180  294.5896
 181  437.0572
 182  397.9403
 183  382.1799
 184  507.024
 185  450.3854
 186  482.3067
 187  412.7051
 188  416.6255
 189  461.755
 190  459.4418
 191  412.8153
 192  411.0334
 193  441.6819
 194  512.6968
 195  408.9566
 196  438.7849
 197  357.6523
 198  391.0942
 199  365.0197
 200  395.2652
 201  396.9203
 202  422.9032
 203  424.3644
 204  305.537
 205  394.9377
 206  358.0889
 207  288.1833
 208  304.2136
 209  393.9429
 210  477.0912
 211  516.5493
 212  482.4662
 213  492.3069
 214  404.0144
 215  504.4286
 216  543.5887
 217  453.1302
 218  523.235
 219  568.0843
 220  627.2723
 221  555.7334
 222  525.0645
 223  426.8069
 224  409.6464
 225  453.318
 226  518.0922
 227  447.5257
 228  434.4723
 229  416.0415
 230  394.5546
 231  448.042
 232  479.0025
 233  456.8193
 234  536.4041
 235  575.7487
 236  517.9426
 237  447.4485
 238  506.9159
 239  549.8546
 240  607.3167
 241  583.429
 242  530.5212
 243  537.1695
 244  553.1766
 245  499.0057
 246  462.9716
 247  470.8733
 248  428.322
 249  449.5373
 250  543.613
 251  514.6907
 252  445.5403
 253  511.8987
 254  506.6227
 255  513.154
 256  409.7411
 257  341.1367
 258  349.3376
 259  487.0456
 260  530.1894
 261  504.3467
 262  422.7951
 263  487.5665
 264  534.1638
 265  528.6516
 266  474.0049
 267  455.1384
 268  449.2195
 269  364.5176
 270  349.6025
 271  373.1757
 272  363.0648
 273  475.4182
 274  476.7173
 275  423.0708
 276  483.3313
 277  512.1044
 278  495.4259
 279  317.1969
 280  356.1454
 281  436.4148
 282  417.5046
 283  404.8281
 284  446.9643
 285  556.0667
 286  581.9587
 287  497.3449
 288  318.9502
 289  287.5703
 290  379.2409
 291  454.8431
 292  470.2694
 293  412.737
 294  427.0917
 295  444.8213
 296  426.4496
 297  454.319
 298  540.3256
 299  444.8573
 300  505.5366
 301  511.6132
 302  444.1263
 303  481.7631
 304  637.5947
 305  582.23
 306  438.4283
 307  383.6841
 308  362.5622
 309  442.2352
 310  408.4851
 311  482.637
 312  485.255
 313  383.7772
 314  419.9768
 315  535.6413
 316  451.7697
 317  473.3499
 318  410.139
 319  354.7583
 320  298.7096
 321  362.0754
 322  370.628
 323  433.1257
 324  361.1832
 325  357.3112
 326  474.218
 327  553.215
 328  373.5049
 329  379.0266
 330  423.1448
 331  434.0645
 332  340.2005
 333  365.0577
 334  398.7711
 335  381.5736
 336  399.1251
 337  365.3151
 338  372.6836
 339  359.0838
 340  388.8322
 341  349.2504
 342  272.7076
 343  311.4487
 344  369.8044
 345  345.7322
 346  357.8901
 347  294.7194
 348  345.8975
 349  404.5767
 350  431.3402
 351  449.9002
 352  382.9656
 353  330.1296
 354  412.5421
 355  507.9361
 356  513.4426
 357  452.2279
 358  348.1891
 359  390.9046
 360  444.7492
 361  509.1045
 362  460.9489
 363  455.9675
 364  401.4129
 365  327.3364
 366  370.3838
 367  372.5152
 368  414.8329
 369  475.4963
 370  535.6478
 371  490.2883
 372  390.8624
 373  358.4653
 374  399.9835
 375  369.3471
 376  297.2889
 377  376.2573
 378  455.5305
 379  492.2916
 380  409.0176
 381  351.7193
 382  389.5906
 383  354.2317
 384  400.5233
 385  474.9887
 386  447.9201
 387  401.5898
 388  344.8064
 389  353.3946
 390  419.3869
 391  508.998
 392  447.022
 393  382.2021
 394  448.3611
 395  433.9378
 396  468.2823
 397  511.2538
 398  479.362
 399  411.4611
 400  451.333
 401  423.8017
 402  527.9828
 403  566.9813
 404  541.9741
 405  551.7654
 406  534.6834
 407  451.7416
 408  346.1543
 409  347.7788
 410  438.5927
 411  502.8111
 412  509.1327
 413  441.342
 414  462.3858
 415  415.214
 416  395.1357
 417  418.2537
 418  326.6767
 419  446.2801
 420  500.901
 421  503.3371
 422  504.0904
 423  380.9632
 424  376.0276
 425  484.9467
 426  502.5962
 427  481.8543
 428  380.7644
 429  436.664
 430  542.1107
 431  506.8693
 432  493.5589
 433  529.6855
 434  543.847
 435  441.2198
 436  338.0458
 437  398.5118
 438  379.8224
 439  343.7746
 440  480.9191
 441  529.6888
 442  413.0123
 443  409.9233
 444  448.5608
 445  428.1745
 446  384.6481
 447  367.303
 448  456.0381
 449  481.1038
 450  521.416
 451  531.3511
 452  494.6068
 453  499.0473
 454  556.3888
 455  490.1975
 456  537.4415
 457  547.8573
 458  588.8332
 459  476.5613
 460  431.8185
 461  480.2104
 462  440.353
 463  453.9786
 464  499.6677
 465  538.4582
 466  383.9069
 467  324.3103
 468  418.6949
 469  478.1783
 470  510.3299
 471  500.7881
 472  519.0513
 473  544.3978
 474  448.5175
 475  386.1068
 476  410.3621
 477  366.9212
 478  422.5995
 479  419.2243
 480  422.3486
 481  390.752
 482  449.1435
 483  385.4727
 484  308.1964
 485  364.2864
 486  464.8288
 487  481.3157
 488  345.3566
 489  419.6687
 490  363.408
 491  400.5422
 492  454.4168
 493  466.186
 494  518.0217
 495  471.8684
 496  481.5388
 497  452.4261
 498  542.8271
 499  500.7495
 500  496.1474
 501  538.0166
 502  546.4959
 503  427.5713
 504  439.5981
 505  518.3116
 506  528.7786
 507  604.9664
 508  687.3795
 509  710.5665
 510  879.3415
 511  991.6437
