# Input file       =  1201720771.121948-PSRB0329-2ms-sampling-dd.dat
# Candidate        =  PSR_0332+5434
# Telescope        =  AR
# Epoch_topo       =  58152.805441226250
# Epoch_bary       =  N/A
# T_sample         =  0.002
# Data Folded      =  7340032
# Data Avg         =  1.49061760343951e-11
# Data StdDev      =  5.86493257612314 
# Profile Bins     =  512
# Profile Avg      =  0.00361678508854399
# Profile StdDev   =  702.226185484233 
# Reduced chi-sqr  =  0.438
# Prob(Noise)      <  1   (~0.0 sigma)
# P_topo (ms)      =  714.577331982396  +/- 0.00111
# P'_topo (s/s)    =  -0                +/- 5.87e-10
# P''_topo (s/s^2) =  0                 +/- 2.59e-13
# P_bary (ms)      =  N/A
# P'_bary (s/s)    =  N/A
# P''_bary (s/s^2) =  N/A
# P_orb (s)        =  N/A
# asin(i)/c (s)    =  N/A
# eccentricity     =  N/A
# w (rad)          =  N/A
# T_peri           =  N/A
######################################################
   0  368.5083
   1  191.6794
   2  -42.60393
   3  223.9137
   4  64.31246
   5  137.1718
   6  58.3666
   7  21.96336
   8  134.2923
   9  327.5044
  10  388.2104
  11  105.7322
  12  95.25221
  13  -23.39772
  14  29.04515
  15  -97.78358
  16  -18.56375
  17  123.8093
  18  -121.5356
  19  127.0788
  20  -159.8246
  21  -392.9019
  22  -272.5191
  23  73.83244
  24  -372.0664
  25  -523.2579
  26  -383.2144
  27  -351.5731
  28  -190.5479
  29  -106.9128
  30  150.9031
  31  -21.20519
  32  -129.6889
  33  -474.0283
  34  -543.5816
  35  -470.1105
  36  -635.742
  37  -324.6243
  38  241.9277
  39  79.7627
  40  -281.7671
  41  -371.7356
  42  -332.2813
  43  -566.4329
  44  -305.7807
  45  -106.4948
  46  -72.51232
  47  177.978
  48  112.6015
  49  -175.4149
  50  -16.16061
  51  -21.65339
  52  -124.8736
  53  -182.3064
  54  -160.9179
  55  158.4726
  56  -94.92184
  57  -150.4763
  58  -18.8193
  59  205.087
  60  -7.800693
  61  -304.2831
  62  122.5195
  63  -323.9372
  64  -559.4354
  65  -376.2804
  66  -382.6093
  67  -699.908
  68  -739.543
  69  -469.7912
  70  -160.8335
  71  -87.11208
  72  -221.6007
  73  -166.8125
  74  -344.362
  75  -200.087
  76  -373.1328
  77  -483.0581
  78  -420.7067
  79  -259.6761
  80  -61.96125
  81  144.006
  82  280.7298
  83  -63.74104
  84  347.1746
  85  -285.0487
  86  -344.5092
  87  310.0124
  88  346.5985
  89  181.2483
  90  -47.82993
  91  -7.794105
  92  -183.1451
  93  -455.5328
  94  -286.2687
  95  -244.2355
  96  -435.9511
  97  -433.5875
  98  -283.4968
  99  -75.12016
 100  -515.9866
 101  -214.6802
 102  -157.7856
 103  10.3232
 104  -159.5556
 105  -298.9189
 106  -442.4311
 107  -1024.647
 108  -543.7455
 109  -343.5852
 110  -497.0497
 111  -562.9111
 112  -566.9591
 113  -425.9016
 114  -529.3818
 115  -629.0555
 116  -403.6394
 117  -139.4378
 118  -208.7278
 119  162.8414
 120  -279.4562
 121  -538.7738
 122  -502.9675
 123  -247.0406
 124  -186.2679
 125  -209.0383
 126  -446.0578
 127  -451.7085
 128  -48.996
 129  251.3652
 130  -8.41433
 131  114.3781
 132  -244.6968
 133  -327.1861
 134  -69.08257
 135  -10.25278
 136  123.9975
 137  -191.98
 138  -510.3881
 139  -805.9981
 140  -398.5065
 141  -136.2281
 142  42.54747
 143  148.4441
 144  74.34037
 145  -74.66956
 146  -218.0759
 147  105.6229
 148  259.1682
 149  53.09398
 150  -163.7093
 151  30.29229
 152  134.0236
 153  45.08176
 154  601.2878
 155  645.3913
 156  464.9873
 157  509.9922
 158  339.7971
 159  702.2178
 160  1135.247
 161  1742.88
 162  2078.802
 163  1678.176
 164  878.7147
 165  476.4055
 166  393.0443
 167  -114.4564
 168  60.06132
 169  463.4757
 170  649.8439
 171  655.6328
 172  554.1955
 173  507.2257
 174  630.3579
 175  827.6864
 176  660.9445
 177  591.5912
 178  561.777
 179  286.4483
 180  386.7802
 181  298.4926
 182  391.4616
 183  165.7533
 184  379.4164
 185  389.4882
 186  1.653691
 187  -155.4802
 188  -177.7444
 189  -48.29536
 190  -291.9279
 191  -4.564546
 192  -31.52748
 193  -252.7069
 194  -28.71476
 195  -186.2944
 196  -70.89748
 197  -199.3872
 198  -187.765
 199  -111.2079
 200  -82.98943
 201  -37.28986
 202  57.03205
 203  64.9493
 204  -428.2107
 205  -405.5235
 206  -350.0361
 207  -232.107
 208  -261.2535
 209  -196.8109
 210  12.91325
 211  6.497227
 212  272.9532
 213  -164.1239
 214  -133.534
 215  -84.57998
 216  -76.37342
 217  56.48077
 218  303.6558
 219  468.6196
 220  118.9704
 221  262.7647
 222  112.5457
 223  -25.8508
 224  191.03
 225  -319.064
 226  -212.8777
 227  -175.797
 228  379.7385
 229  352.3872
 230  111.3347
 231  -76.46565
 232  -171.7136
 233  -483.5699
 234  -380.4793
 235  57.42098
 236  13.18231
 237  -14.91493
 238  44.52632
 239  -350.8648
 240  -412.3859
 241  12.49299
 242  44.26048
 243  119.7282
 244  195.4388
 245  438.5444
 246  381.4664
 247  272.3706
 248  44.13251
 249  -331.7468
 250  -381.0428
 251  -240.5841
 252  84.93642
 253  -2.772892
 254  303.3246
 255  247.289
 256  -56.6021
 257  -112.5968
 258  194.3543
 259  -138.8945
 260  33.56567
 261  426.1707
 262  244.052
 263  326.7857
 264  427.3588
 265  475.1797
 266  -206.1028
 267  44.35995
 268  -25.74703
 269  -39.65622
 270  -3.691425
 271  136.8725
 272  -203.1426
 273  -661.7817
 274  -221.6507
 275  81.75893
 276  -577.0054
 277  -354.0023
 278  -508.3005
 279  -579.6083
 280  -162.352
 281  -162.4757
 282  103.8078
 283  -325.4117
 284  77.13773
 285  473.5198
 286  51.89616
 287  -314.0735
 288  -217.485
 289  -522.1995
 290  -251.3643
 291  -241.1705
 292  -371.4912
 293  -267.4035
 294  -436.0269
 295  -402.3279
 296  -536.5153
 297  -327.33
 298  -432.3605
 299  -410.3181
 300  -364.0766
 301  -252.4152
 302  -404.4343
 303  -277.9706
 304  -277.708
 305  -44.95225
 306  -53.88211
 307  -175.5402
 308  -401.2849
 309  -245.3153
 310  449.1054
 311  311.5219
 312  527.6921
 313  57.4553
 314  250.2534
 315  268.5832
 316  106.0563
 317  323.3484
 318  172.8239
 319  350.1388
 320  267.1851
 321  272.5437
 322  26.89527
 323  -75.61916
 324  475.002
 325  403.3916
 326  497.6375
 327  459.5995
 328  159.0564
 329  -199.58
 330  -126.6349
 331  -54.66863
 332  145.5723
 333  195.5707
 334  180.2906
 335  253.9189
 336  469.6444
 337  410.474
 338  -37.51126
 339  -213.5776
 340  -16.19948
 341  -103.6791
 342  15.93002
 343  490.0526
 344  362.3805
 345  91.75777
 346  7.696379
 347  136.9575
 348  34.48939
 349  108.1188
 350  212.7665
 351  -3.280575
 352  29.23065
 353  -14.2269
 354  -250.7268
 355  -289.5045
 356  389.9401
 357  381.0443
 358  298.8194
 359  1.988883
 360  167.4723
 361  97.63331
 362  -202.0668
 363  -47.27971
 364  45.30132
 365  129.9243
 366  437.4692
 367  749.6283
 368  266.5646
 369  94.16887
 370  -171.0536
 371  -324.6809
 372  -248.509
 373  15.3524
 374  -166.1595
 375  -11.30027
 376  -5.596984
 377  -15.68147
 378  -75.55083
 379  -264.2318
 380  -203.3702
 381  -194.5398
 382  -221.8396
 383  33.55239
 384  113.046
 385  38.61928
 386  -118.3369
 387  377.4293
 388  395.9179
 389  243.125
 390  -22.59237
 391  -373.1111
 392  198.1657
 393  614.0931
 394  488.8848
 395  302.3713
 396  -228.7689
 397  -102.0414
 398  82.7073
 399  422.4516
 400  559.4813
 401  163.6802
 402  511.8748
 403  -150.0161
 404  -234.5651
 405  -70.19869
 406  85.2055
 407  17.62455
 408  -165.1107
 409  353.9576
 410  -71.17455
 411  -79.45512
 412  -65.35249
 413  203.0785
 414  24.66488
 415  -156.978
 416  101.3839
 417  308.9009
 418  463.5256
 419  221.2532
 420  -39.1102
 421  -604.8134
 422  -570.8568
 423  -184.7478
 424  -32.05986
 425  -484.7522
 426  -212.5933
 427  256.6574
 428  -50.68979
 429  -626.9937
 430  -523.7524
 431  74.63233
 432  357.5423
 433  297.5468
 434  481.8808
 435  400.1994
 436  -61.81483
 437  -141.7333
 438  277.6192
 439  323.6471
 440  -20.65713
 441  301.9393
 442  354.5025
 443  194.4544
 444  335.2377
 445  399.4895
 446  252.0859
 447  -36.12945
 448  -257.4673
 449  -361.0059
 450  -66.83426
 451  -212.4444
 452  -216.555
 453  -73.04754
 454  -281.4302
 455  125.9821
 456  320.2012
 457  93.31524
 458  -267.6816
 459  -30.88086
 460  240.4499
 461  178.6831
 462  228.2605
 463  91.86779
 464  83.8702
 465  274.8945
 466  9.280375
 467  172.0496
 468  465.4625
 469  374.0772
 470  -133.5303
 471  -61.47274
 472  49.95507
 473  43.69146
 474  -177.7444
 475  -79.19603
 476  2.52541
 477  13.66179
 478  -119.3784
 479  -19.62195
 480  -197.905
 481  -509.325
 482  -168.7252
 483  310.9096
 484  403.0985
 485  582.9113
 486  27.67723
 487  -266.1334
 488  -359.2274
 489  -407.6335
 490  40.85308
 491  274.4788
 492  -87.61484
 493  -194.3041
 494  -56.85265
 495  -56.48179
 496  374.9418
 497  533.3886
 498  475.3091
 499  366.178
 500  400.0793
 501  4.757345
 502  -96.61333
 503  -87.08944
 504  123.0738
 505  262.2321
 506  50.41768
 507  305.9874
 508  220.5877
 509  223.918
 510  207.7667
 511  125.5195
