# Input file       =  1201203673.107899_cleaned.dat
# Candidate        =  PSR_0332+5434
# Telescope        =  AR
# Epoch_topo       =  58146.820510508092
# Epoch_bary       =  N/A
# T_sample         =  0.002
# Data Folded      =  7340032
# Data Avg         =  0.0216723754565512
# Data StdDev      =  1.00005490027435 
# Profile Bins     =  512
# Profile Avg      =  310.813262100711 
# Profile StdDev   =  119.739609753311 
# Reduced chi-sqr  =  1.101
# Prob(Noise)      <  0.0561   (~1.6 sigma)
# P_topo (ms)      =  714.574853589575  +/- 0.000276
# P'_topo (s/s)    =  -0                +/- 1.46e-10
# P''_topo (s/s^2) =  0                 +/- 6.44e-14
# P_bary (ms)      =  N/A
# P'_bary (s/s)    =  N/A
# P''_bary (s/s^2) =  N/A
# P_orb (s)        =  N/A
# asin(i)/c (s)    =  N/A
# eccentricity     =  N/A
# w (rad)          =  N/A
# T_peri           =  N/A
######################################################
   0  332.1495
   1  358.4411
   2  281.9441
   3  266.4164
   4  369.0698
   5  388.9125
   6  256.6982
   7  252.1954
   8  303.8874
   9  302.9695
  10  230.5347
  11  308.9145
  12  185.7513
  13  192.0491
  14  311.6028
  15  294.212
  16  278.8152
  17  355.8096
  18  238.3292
  19  271.1501
  20  302.0383
  21  206.701
  22  292.6056
  23  345.919
  24  324.6562
  25  341.8744
  26  311.6964
  27  309.8451
  28  271.171
  29  286.3441
  30  285.9516
  31  235.2531
  32  282.9488
  33  362.6759
  34  404.462
  35  483.416
  36  401.6678
  37  426.0918
  38  406.4458
  39  400.1613
  40  466.3469
  41  443.5323
  42  335.398
  43  296.4821
  44  371.6732
  45  384.8159
  46  266.325
  47  381.9424
  48  377.4815
  49  375.1028
  50  373.9549
  51  316.0685
  52  306.386
  53  239.1091
  54  237.8352
  55  317.7745
  56  290.4235
  57  243.7085
  58  301.5072
  59  363.6979
  60  381.7193
  61  392.2363
  62  345.7182
  63  318.1082
  64  428.3317
  65  362.0146
  66  436.9954
  67  417.6729
  68  436.7603
  69  466.9941
  70  295.2551
  71  283.2445
  72  312.1013
  73  285.4193
  74  331.1255
  75  330.9121
  76  277.902
  77  259.0125
  78  240.2621
  79  375.4347
  80  327.2552
  81  294.3037
  82  427.1539
  83  420.1041
  84  312.6537
  85  325.2928
  86  331.6447
  87  195.1319
  88  251.4976
  89  318.6259
  90  232.05
  91  341.2716
  92  390.733
  93  402.4225
  94  290.6768
  95  295.0787
  96  357.8358
  97  376.8504
  98  308.0578
  99  361.0647
 100  258.4432
 101  238.3167
 102  267.9125
 103  252.4717
 104  256.5487
 105  289.8034
 106  327.9266
 107  333.4581
 108  425.8554
 109  426.4924
 110  396.8772
 111  336.0181
 112  421.9629
 113  413.4208
 114  300.3094
 115  365.3615
 116  287.567
 117  222.7049
 118  243.1275
 119  361.9667
 120  461.8344
 121  300.8055
 122  288.7681
 123  399.5496
 124  414.6677
 125  326.0551
 126  342.9129
 127  339.0789
 128  378.1161
 129  363.2924
 130  282.2999
 131  313.0209
 132  388.6678
 133  383.2253
 134  434.8174
 135  423.6176
 136  271.6419
 137  284.1933
 138  402.5856
 139  405.9779
 140  521.7815
 141  490.4346
 142  424.4157
 143  463.5417
 144  348.7412
 145  254.8343
 146  240.9244
 147  295.7787
 148  365.7521
 149  216.8329
 150  227.3291
 151  306.8987
 152  284.2223
 153  322.7555
 154  373.9803
 155  485.364
 156  354.5457
 157  300.2201
 158  387.6842
 159  328.2383
 160  256.6234
 161  322.501
 162  377.6194
 163  385.5747
 164  376.7759
 165  257.0562
 166  326.7954
 167  311.4324
 168  319.0241
 169  450.7046
 170  473.0956
 171  544.3541
 172  557.1523
 173  657.2006
 174  851.3152
 175  912.8532
 176  933.1755
 177  818.1454
 178  537.009
 179  392.4913
 180  310.3723
 181  317.1153
 182  350.6388
 183  457.3614
 184  419.0525
 185  279.6133
 186  254.7708
 187  299.8012
 188  328.2628
 189  276.7076
 190  352.3773
 191  389.1049
 192  298.678
 193  344.9953
 194  347.8871
 195  278.4948
 196  352.762
 197  380.3453
 198  323.6629
 199  265.5554
 200  192.7211
 201  319.5216
 202  314.2649
 203  259.1631
 204  390.3872
 205  276.6854
 206  363.2988
 207  326.1564
 208  399.9738
 209  464.8064
 210  383.0369
 211  338.7693
 212  353.5268
 213  370.3502
 214  305.1902
 215  244.5673
 216  265.4943
 217  215.2301
 218  195.555
 219  168.9165
 220  321.7231
 221  486.0065
 222  344.3397
 223  413.9089
 224  315.4157
 225  247.2632
 226  266.7031
 227  339.068
 228  261.0287
 229  182.2177
 230  230.5134
 231  185.7445
 232  58.22746
 233  89.41439
 234  166.9054
 235  210.5251
 236  233.9516
 237  296.4795
 238  331.3155
 239  223.4589
 240  250.7204
 241  259.4837
 242  170.9072
 243  221.4653
 244  202.3206
 245  290.646
 246  237.759
 247  219.2141
 248  274.4062
 249  266.1632
 250  266.4799
 251  255.3349
 252  369.1372
 253  318.4603
 254  317.2303
 255  291.3168
 256  231.5108
 257  203.7238
 258  216.5224
 259  272.2952
 260  142.9975
 261  147.219
 262  193.9062
 263  214.4647
 264  250.5537
 265  299.5963
 266  292.1199
 267  298.5201
 268  249.4071
 269  237.7842
 270  205.8398
 271  233.1153
 272  267.7675
 273  306.062
 274  275.6114
 275  238.2747
 276  236.8287
 277  231.9411
 278  302.9354
 279  201.1441
 280  213.9738
 281  239.6786
 282  248.6482
 283  304.242
 284  197.1993
 285  253.1485
 286  298.7061
 287  272.8544
 288  279.4449
 289  271.7116
 290  376.1317
 291  200.5308
 292  297.2995
 293  370.3828
 294  230.0752
 295  270.8882
 296  332.3961
 297  220.7227
 298  354.4807
 299  366.1031
 300  338.8087
 301  358.718
 302  244.7083
 303  240.0773
 304  281.9879
 305  315.8343
 306  188.6746
 307  245.8374
 308  310.601
 309  318.5047
 310  289.0491
 311  260.0868
 312  293.2258
 313  283.7836
 314  222.5751
 315  259.6341
 316  390.1352
 317  410.4398
 318  270.72
 319  218.8146
 320  262.5359
 321  338.2946
 322  239.7941
 323  338.0498
 324  294.9023
 325  161.1065
 326  285.0704
 327  315.2109
 328  344.9668
 329  233.7385
 330  243.7405
 331  243.1375
 332  363.0364
 333  312.1466
 334  216.0934
 335  181.8015
 336  277.2184
 337  222.0731
 338  326.7475
 339  250.6603
 340  196.9222
 341  216.5994
 342  186.7223
 343  207.4604
 344  243.2907
 345  337.2389
 346  240.9522
 347  171.7784
 348  311.1223
 349  364.4015
 350  286.9334
 351  362.6124
 352  413.0537
 353  335.0813
 354  270.0649
 355  297.125
 356  420.0092
 357  241.6022
 358  211.6457
 359  241.0964
 360  267.9627
 361  308.3723
 362  163.2443
 363  225.2975
 364  354.168
 365  374.2939
 366  353.5625
 367  302.0872
 368  276.4532
 369  235.6662
 370  180.1496
 371  155.9187
 372  140.7487
 373  262.8681
 374  310.2291
 375  303.5971
 376  339.3688
 377  315.753
 378  275.1375
 379  248.6826
 380  342.9908
 381  356.1058
 382  191.2868
 383  280.1664
 384  265.9784
 385  215.9644
 386  151.2419
 387  148.7326
 388  182.3862
 389  209.101
 390  255.5888
 391  159.682
 392  243.3227
 393  365.9911
 394  374.3234
 395  244.0052
 396  275.2163
 397  275.1514
 398  375.6057
 399  370.9887
 400  314.6669
 401  292.2026
 402  334.2832
 403  247.8174
 404  239.728
 405  299.5995
 406  259.1888
 407  262.201
 408  407.388
 409  366.8289
 410  390.3382
 411  329.7633
 412  313.4176
 413  294.388
 414  393.1277
 415  445.922
 416  427.8546
 417  334.3047
 418  293.7879
 419  224.1019
 420  317.5872
 421  308.4439
 422  264.2526
 423  347.7117
 424  367.5919
 425  321.5565
 426  370.6065
 427  299.6916
 428  212.699
 429  196.6848
 430  333.3215
 431  429.1013
 432  394.4313
 433  363.3935
 434  319.1944
 435  298.9999
 436  251.1309
 437  326.884
 438  482.2068
 439  484.3939
 440  404.8552
 441  367.5563
 442  304.2443
 443  352.7805
 444  334.0218
 445  375.7198
 446  366.0756
 447  258.0777
 448  283.2585
 449  381.9011
 450  326.2716
 451  359.99
 452  341.4377
 453  323.7432
 454  277.4771
 455  288.9986
 456  166.2772
 457  150.677
 458  234.8908
 459  283.2897
 460  336.2192
 461  320.4753
 462  348.8272
 463  284.8006
 464  234.656
 465  266.1663
 466  311.1844
 467  369.631
 468  271.2766
 469  279.6853
 470  231.2264
 471  260.0853
 472  286.1911
 473  250.6868
 474  261.0871
 475  213.4992
 476  264.9471
 477  279.6159
 478  288.451
 479  187.7879
 480  256.5915
 481  251.6777
 482  339.7043
 483  302.2131
 484  305.424
 485  366.1688
 486  212.3117
 487  207.8382
 488  307.3506
 489  377.2398
 490  378.481
 491  416.7775
 492  377.5754
 493  373.6704
 494  330.2196
 495  234.6947
 496  276.6975
 497  339.3404
 498  355.3544
 499  349.2698
 500  253.7915
 501  283.6588
 502  199.7891
 503  216.1731
 504  401.3373
 505  340.2775
 506  332.856
 507  358.5193
 508  295.2554
 509  304.7314
 510  269.3126
 511  293.3022
