# Input file       =  1201518865.108206_cleaned.dat
# Candidate        =  PSR_0332+5434
# Telescope        =  AR
# Epoch_topo       =  58150.468566067197
# Epoch_bary       =  N/A
# T_sample         =  0.002
# Data Folded      =  7208960
# Data Avg         =  0.011526327501128
# Data StdDev      =  0.999970408503919
# Profile Bins     =  512
# Profile Avg      =  162.28146639852  
# Profile StdDev   =  118.655664490995 
# Reduced chi-sqr  =  1.753
# Prob(Noise)      <  1.68e-23   (~9.9 sigma)
# P_topo (ms)      =  714.576073828254  +/- 0.000135
# P'_topo (s/s)    =  -0                +/- 7.26e-11
# P''_topo (s/s^2) =  0                 +/- 3.26e-14
# P_bary (ms)      =  N/A
# P'_bary (s/s)    =  N/A
# P''_bary (s/s^2) =  N/A
# P_orb (s)        =  N/A
# asin(i)/c (s)    =  N/A
# eccentricity     =  N/A
# w (rad)          =  N/A
# T_peri           =  N/A
######################################################
   0  953.9841
   1  812.339
   2  699.4711
   3  556.1478
   4  319.9753
   5  220.3806
   6  207.617
   7  237.5768
   8  167.241
   9  170.1858
  10  315.142
  11  227.2836
  12  191.4583
  13  199.8997
  14  277.258
  15  257.5048
  16  178.8701
  17  166.3777
  18  215.9096
  19  144.7833
  20  112.7762
  21  188.419
  22  154.8021
  23  186.7963
  24  212.0103
  25  246.1124
  26  161.687
  27  132.815
  28  174.9166
  29  251.9888
  30  123.0162
  31  168.199
  32  176.392
  33  159.59
  34  151.443
  35  139.8818
  36  157.2152
  37  231.2239
  38  199.5246
  39  187.5971
  40  317.0302
  41  236.0859
  42  226.7305
  43  111.426
  44  -65.9832
  45  52.00792
  46  184.4283
  47  130.7311
  48  262.2009
  49  198.8962
  50  68.87922
  51  2.057243
  52  91.26078
  53  149.3763
  54  92.14687
  55  186.3603
  56  265.4717
  57  345.7251
  58  177.6572
  59  174.3959
  60  146.8824
  61  227.4736
  62  195.9112
  63  133.3
  64  138.2416
  65  90.53239
  66  170.3101
  67  155.3798
  68  167.3038
  69  103.3727
  70  266.2146
  71  339.1713
  72  307.5978
  73  193.0932
  74  140.1525
  75  116.3964
  76  48.34325
  77  37.75868
  78  89.74189
  79  219.3307
  80  173.1702
  81  124.9662
  82  229.5324
  83  144.9506
  84  50.95107
  85  143.5875
  86  189.4006
  87  131.0553
  88  134.1586
  89  121.3092
  90  249.1611
  91  175.3846
  92  178.9925
  93  216.2302
  94  168.46
  95  171.0289
  96  208.5083
  97  188.7061
  98  233.9474
  99  223.0575
 100  43.11988
 101  -36.27837
 102  82.19321
 103  209.6602
 104  180.3757
 105  96.58127
 106  239.6663
 107  276.4817
 108  293.7628
 109  170.8146
 110  114.12
 111  33.64275
 112  202.2817
 113  265.334
 114  280.7864
 115  304.5325
 116  261.283
 117  167.0717
 118  -36.89071
 119  -76.81547
 120  138.2068
 121  79.13454
 122  51.084
 123  159.6145
 124  147.5569
 125  -13.09971
 126  43.89523
 127  87.819
 128  191.0323
 129  113.1122
 130  127.8191
 131  48.47371
 132  121.2466
 133  113.9376
 134  -21.16195
 135  118.9124
 136  226.6174
 137  169.8602
 138  83.8532
 139  245.9533
 140  345.913
 141  124.2373
 142  164.3711
 143  152.4182
 144  240.5936
 145  93.11942
 146  -17.25801
 147  66.30289
 148  128.1576
 149  30.37916
 150  -9.285653
 151  89.83731
 152  93.03429
 153  67.73086
 154  29.8056
 155  29.16867
 156  5.104979
 157  112.9907
 158  97.59774
 159  -36.20544
 160  31.51313
 161  169.8237
 162  66.76787
 163  7.873746
 164  110.2224
 165  -29.76697
 166  81.95986
 167  -21.60406
 168  -57.10036
 169  162.11
 170  162.4758
 171  196.5846
 172  116.6413
 173  203.4582
 174  120.1446
 175  44.12654
 176  62.82948
 177  167.2523
 178  236.8333
 179  326.8014
 180  333.4245
 181  185.942
 182  94.57809
 183  35.47792
 184  86.7504
 185  95.88979
 186  -13.9655
 187  173.0605
 188  338.8107
 189  277.0119
 190  183.6694
 191  213.0415
 192  187.1662
 193  205.0703
 194  187.263
 195  64.83278
 196  162.122
 197  99.98945
 198  168.0367
 199  236.9909
 200  216.8992
 201  169.963
 202  142.7418
 203  171.497
 204  290.9372
 205  128.5475
 206  79.18968
 207  183.5749
 208  175.8164
 209  197.4059
 210  212.8987
 211  330.1305
 212  183.8312
 213  94.89806
 214  188.939
 215  112.7116
 216  180.4293
 217  -15.3406
 218  -43.19051
 219  127.5354
 220  296.3099
 221  293.5466
 222  249.9056
 223  257.8233
 224  240.7036
 225  135.6944
 226  -12.91308
 227  84.12253
 228  71.44056
 229  102.6367
 230  155.2239
 231  25.51481
 232  32.59194
 233  43.62364
 234  39.24547
 235  196.6092
 236  271.4437
 237  298.4574
 238  174.9992
 239  277.5734
 240  200.9747
 241  29.65605
 242  35.43917
 243  214.5475
 244  248.1977
 245  213.2256
 246  178.8839
 247  62.15403
 248  96.36664
 249  167.1642
 250  52.91698
 251  144.2187
 252  150.2542
 253  178.7293
 254  196.3667
 255  231.0434
 256  189.5184
 257  182.4442
 258  160.0264
 259  3.11716
 260  57.05447
 261  122.179
 262  129.1376
 263  217.1995
 264  371.2372
 265  203.5624
 266  109.705
 267  -51.01845
 268  81.21246
 269  284.869
 270  289.0249
 271  162.8468
 272  75.92457
 273  75.13143
 274  -33.95743
 275  91.35623
 276  38.17158
 277  25.68777
 278  38.78048
 279  44.6818
 280  120.1179
 281  275.7988
 282  254.8559
 283  149.8227
 284  122.2197
 285  201.9256
 286  304.0656
 287  315.1636
 288  239.3485
 289  168.9933
 290  155.0233
 291  232.3004
 292  132.0444
 293  188.9229
 294  203.362
 295  211.682
 296  242.6011
 297  246.5534
 298  216.9814
 299  154.3959
 300  125.3091
 301  76.06082
 302  138.4079
 303  282.2534
 304  290.7299
 305  281.5272
 306  233.065
 307  77.34964
 308  13.8939
 309  150.1262
 310  152.056
 311  109.9023
 312  167.7844
 313  188.8851
 314  133.9455
 315  33.51583
 316  145.0605
 317  270.7115
 318  182.9389
 319  292.8147
 320  276.6547
 321  290.986
 322  123.7059
 323  70.81574
 324  166.3243
 325  34.3721
 326  -20.4373
 327  246.6683
 328  262.3169
 329  212.2001
 330  110.9908
 331  173.5957
 332  289.9098
 333  147.9483
 334  324.4083
 335  335.9573
 336  194.375
 337  178.8595
 338  96.67371
 339  147.3959
 340  197.3664
 341  77.87059
 342  89.27475
 343  201.7253
 344  186.4865
 345  267.7388
 346  266.8012
 347  282.5327
 348  215.8452
 349  212.595
 350  196.8206
 351  209.3596
 352  255.4827
 353  143.9345
 354  235.3589
 355  431.8187
 356  277.7083
 357  119.7027
 358  58.42821
 359  17.85122
 360  165.7029
 361  232.3442
 362  233.8515
 363  149.2877
 364  189.7805
 365  268.132
 366  145.5169
 367  44.81503
 368  101.9304
 369  252.2334
 370  154.77
 371  60.35517
 372  103.9039
 373  53.81782
 374  158.3924
 375  91.05561
 376  -42.55015
 377  19.53581
 378  -75.15362
 379  -101.6241
 380  112.3483
 381  94.77992
 382  144.6904
 383  73.66688
 384  31.60409
 385  61.03925
 386  177.8103
 387  181.181
 388  160.0987
 389  184.5376
 390  258.009
 391  283.3788
 392  291.4538
 393  275.6705
 394  202.5322
 395  123.1715
 396  30.10871
 397  35.83073
 398  132.1236
 399  210.4745
 400  170.3375
 401  122.2271
 402  158.9818
 403  132.6433
 404  281.0905
 405  256.3215
 406  236.3673
 407  275.1787
 408  121.7883
 409  216.8785
 410  244.7492
 411  186.733
 412  109.053
 413  166.3426
 414  140.2671
 415  63.49865
 416  59.69266
 417  201.2725
 418  160.1389
 419  265.4904
 420  255.385
 421  167.9577
 422  97.31178
 423  43.76551
 424  123.7026
 425  150.2361
 426  211.4981
 427  199.0499
 428  118.1131
 429  146.9331
 430  204.9
 431  -5.38585
 432  93.86337
 433  166.695
 434  232.1583
 435  184.6468
 436  172.8964
 437  205.3483
 438  84.43109
 439  -1.835301
 440  50.06122
 441  49.79678
 442  123.5886
 443  149.7703
 444  106.9084
 445  163.2775
 446  104.4427
 447  59.33267
 448  -44.32866
 449  59.78168
 450  98.49731
 451  95.07793
 452  55.09919
 453  -21.74777
 454  27.64131
 455  168.5394
 456  158.8548
 457  193.8419
 458  174.1741
 459  146.9051
 460  -2.209517
 461  -30.18711
 462  72.97285
 463  82.64979
 464  112.7984
 465  186.3628
 466  -13.63458
 467  80.10647
 468  168.0058
 469  157.9367
 470  178.5331
 471  257.2636
 472  399.327
 473  279.8497
 474  177.4943
 475  256.3005
 476  126.4116
 477  -3.562222
 478  140.5745
 479  125.166
 480  174.1775
 481  79.30267
 482  100.2645
 483  98.03536
 484  116.8005
 485  132.2606
 486  98.47602
 487  190.2043
 488  190.3313
 489  39.98315
 490  146.0784
 491  223.1247
 492  144.9844
 493  100.8842
 494  121.1482
 495  249.1855
 496  204.0059
 497  74.64969
 498  178.2473
 499  179.6541
 500  236.2487
 501  210.4473
 502  310.5771
 503  161.0705
 504  274.6218
 505  375.7885
 506  319.7917
 507  287.9801
 508  240.8259
 509  502.2032
 510  710.3661
 511  956.9727
