# Input file       =  1201893636.114452_cleaned.dat
# Candidate        =  PSR_0332+5434
# Telescope        =  AR
# Epoch_topo       =  58154.806193454308
# Epoch_bary       =  N/A
# T_sample         =  0.002
# Data Folded      =  7340032
# Data Avg         =  0.015471644007381
# Data StdDev      =  1.00005152132365 
# Profile Bins     =  512
# Profile Avg      =  221.777798765933 
# Profile StdDev   =  119.739205181285 
# Reduced chi-sqr  =  1.142
# Prob(Noise)      <  0.0142   (~2.2 sigma)
# P_topo (ms)      =  714.578045387653  +/- 0.000245
# P'_topo (s/s)    =  -0                +/- 1.3e-10
# P''_topo (s/s^2) =  0                 +/- 5.72e-14
# P_bary (ms)      =  N/A
# P'_bary (s/s)    =  N/A
# P''_bary (s/s^2) =  N/A
# P_orb (s)        =  N/A
# asin(i)/c (s)    =  N/A
# eccentricity     =  N/A
# w (rad)          =  N/A
# T_peri           =  N/A
######################################################
   0  835.2303
   1  802.2525
   2  599.9489
   3  502.2304
   4  450.0974
   5  354.9662
   6  261.6926
   7  261.0447
   8  230.1772
   9  196.3238
  10  211.3085
  11  66.85295
  12  125.5157
  13  173.2803
  14  119.4762
  15  298.6101
  16  259.6408
  17  225.7754
  18  238.1652
  19  352.4427
  20  303.2461
  21  213.6426
  22  272.9905
  23  262.7682
  24  128.6244
  25  115.6278
  26  60.59131
  27  234.7654
  28  281.6769
  29  222.7616
  30  226.5531
  31  291.5253
  32  314.5574
  33  271.3924
  34  134.689
  35  66.76952
  36  119.6029
  37  264.4561
  38  226.2321
  39  157.7979
  40  174.1147
  41  229.2181
  42  156.2259
  43  241.9699
  44  368.0801
  45  279.1551
  46  229.1489
  47  207.6002
  48  182.7733
  49  153.4788
  50  146.0855
  51  183.6083
  52  139.1775
  53  199.482
  54  223.5307
  55  172.1329
  56  54.91588
  57  133.1587
  58  234.5278
  59  171.5691
  60  91.86758
  61  279.2813
  62  215.6775
  63  202.0123
  64  177.5134
  65  195.4294
  66  213.9443
  67  211.781
  68  202.5114
  69  215.0388
  70  244.7679
  71  275.235
  72  251.7346
  73  260.4669
  74  299.9387
  75  219.4491
  76  240.0447
  77  330.5287
  78  315.4005
  79  188.8845
  80  204.4004
  81  159.034
  82  125.3423
  83  242.5001
  84  286.7321
  85  206.9831
  86  208.6831
  87  322.4557
  88  314.004
  89  234.188
  90  198.3096
  91  265.3408
  92  156.2853
  93  214.6342
  94  92.54161
  95  128.7772
  96  335.3265
  97  222.082
  98  96.90746
  99  124.6523
 100  195.5433
 101  50.66235
 102  51.63512
 103  142.4056
 104  188.5469
 105  259.9196
 106  345.2578
 107  373.2438
 108  274.0018
 109  219.3856
 110  204.7759
 111  243.5054
 112  228.3299
 113  194.3852
 114  241.6521
 115  344.6426
 116  221.6583
 117  251.5763
 118  225.3764
 119  236.3139
 120  125.3501
 121  167.7222
 122  183.2748
 123  203.3641
 124  170.6168
 125  181.7177
 126  210.442
 127  199.9438
 128  150.205
 129  151.4972
 130  112.3746
 131  150.4064
 132  306.4493
 133  300.4938
 134  249.7668
 135  181.3143
 136  160.826
 137  196.5728
 138  237.958
 139  171.3219
 140  144.385
 141  149.1686
 142  264.2706
 143  337.6613
 144  218.9124
 145  139.515
 146  121.0968
 147  165.3807
 148  346.379
 149  296.438
 150  240.1208
 151  284.2287
 152  346.9223
 153  320.3265
 154  293.303
 155  259.0389
 156  169.1354
 157  233.9593
 158  285.6606
 159  269.3358
 160  197.4551
 161  110.9114
 162  43.59605
 163  101.6303
 164  127.3352
 165  263.5579
 166  301.0253
 167  232.4405
 168  267.8184
 169  194.5946
 170  248.1365
 171  254.7358
 172  212.75
 173  274.3022
 174  363.5262
 175  271.7154
 176  265.4259
 177  264.5593
 178  164.1153
 179  252.3411
 180  225.2811
 181  213.9923
 182  304.802
 183  419.0258
 184  191.882
 185  112.6652
 186  261.8409
 187  302.3643
 188  184.7176
 189  216.6494
 190  330.626
 191  270.5986
 192  233.7265
 193  179.912
 194  191.8836
 195  240.5291
 196  213.0851
 197  255.1676
 198  198.7171
 199  191.3416
 200  170.5621
 201  125.8842
 202  215.0553
 203  201.0772
 204  171.4018
 205  193.2715
 206  137.0931
 207  49.84774
 208  151.8662
 209  327.3981
 210  282.8503
 211  235.6451
 212  172.6496
 213  172.0623
 214  219.1141
 215  184.8412
 216  242.3735
 217  195.7937
 218  199.6131
 219  206.2904
 220  274.4998
 221  199.254
 222  149.366
 223  126.7954
 224  166.8751
 225  291.9735
 226  348.2521
 227  268.8449
 228  129.325
 229  144.7669
 230  183.3463
 231  138.1122
 232  68.7718
 233  141.2922
 234  196.4078
 235  174.4331
 236  142.9867
 237  187.344
 238  225.0761
 239  180.5674
 240  82.13094
 241  296.3595
 242  366.0759
 243  326.8204
 244  314.6954
 245  297.2332
 246  216.5828
 247  151.9669
 248  192.0932
 249  169.1747
 250  107.2521
 251  136.6251
 252  204.0949
 253  349.1088
 254  175.1271
 255  75.82339
 256  171.0389
 257  271.4226
 258  323.4125
 259  222.7694
 260  205.2834
 261  216.8233
 262  187.2118
 263  238.1715
 264  216.6103
 265  159.5594
 266  134.7272
 267  148.6503
 268  177.0811
 269  237.7546
 270  303.6457
 271  399.6121
 272  320.2896
 273  269.2244
 274  227.0079
 275  225.9753
 276  162.4123
 277  133.4594
 278  74.51775
 279  122.3747
 280  155.3104
 281  178.9037
 282  225.3191
 283  236.2179
 284  315.8997
 285  246.3852
 286  226.5753
 287  280.3625
 288  236.4245
 289  187.1971
 290  177.0851
 291  180.3445
 292  266.3258
 293  195.6453
 294  148.3926
 295  216.1542
 296  179.8138
 297  276.8051
 298  275.9609
 299  182.588
 300  87.28306
 301  218.7982
 302  194.4093
 303  248.2061
 304  221.5696
 305  347.8232
 306  334.9001
 307  232.7015
 308  215.5537
 309  197.6791
 310  233.3153
 311  211.73
 312  229.7397
 313  133.3044
 314  219.0129
 315  277.4295
 316  100.2899
 317  120.9897
 318  134.3812
 319  264.7457
 320  153.3369
 321  164.4669
 322  289.9049
 323  374.8827
 324  318.3963
 325  240.2027
 326  281.6135
 327  346.0211
 328  192.9868
 329  149.1231
 330  195.1098
 331  244.1015
 332  281.4541
 333  225.6547
 334  280.6215
 335  270.386
 336  203.5198
 337  267.0905
 338  263.228
 339  213.1596
 340  244.9694
 341  357.9046
 342  229.8392
 343  188.277
 344  261.0873
 345  237.4498
 346  268.0145
 347  257.692
 348  177.1539
 349  89.7683
 350  142.4178
 351  179.183
 352  92.68938
 353  215.6675
 354  126.2362
 355  166.364
 356  163.4592
 357  206.8104
 358  295.0074
 359  238.1292
 360  196.7112
 361  92.57542
 362  170.1418
 363  117.4758
 364  235.9527
 365  215.1576
 366  217.8319
 367  108.809
 368  -31.53011
 369  156.1222
 370  315.207
 371  288.4576
 372  282.7697
 373  257.7878
 374  255.6361
 375  282.9935
 376  252.2973
 377  147.4771
 378  170.6778
 379  240.7974
 380  130.6672
 381  154.5787
 382  123.8151
 383  162.4639
 384  218.3615
 385  102.5247
 386  148.0636
 387  268.8358
 388  214.3554
 389  124.1112
 390  68.25883
 391  190.784
 392  168.5176
 393  172.7445
 394  251.8454
 395  192.0776
 396  224.2781
 397  185.8848
 398  257.5987
 399  203.7565
 400  166.4328
 401  209.1896
 402  224.5319
 403  305.4776
 404  302.0784
 405  173.866
 406  154.5119
 407  151.0627
 408  193.4332
 409  226.2491
 410  158.5823
 411  176.9539
 412  248.078
 413  236.7926
 414  190.8388
 415  287.9337
 416  325.1376
 417  192.8412
 418  232.781
 419  290.111
 420  237.0745
 421  175.4025
 422  135.0435
 423  67.4718
 424  83.01354
 425  213.6709
 426  111.8931
 427  22.44372
 428  170.4527
 429  285.7934
 430  231.7796
 431  217.3119
 432  222.9127
 433  215.8941
 434  221.1685
 435  124.1208
 436  132.2538
 437  118.3563
 438  4.074435
 439  65.76628
 440  159.6929
 441  127.1754
 442  132.7372
 443  107.5677
 444  239.3587
 445  321.5908
 446  244.3217
 447  209.5956
 448  252.2861
 449  208.4277
 450  115.5624
 451  1.965112
 452  29.81852
 453  79.02394
 454  255.2469
 455  250.5392
 456  260.2044
 457  185.7454
 458  135.7684
 459  249.1416
 460  422.0613
 461  263.5159
 462  114.6872
 463  231.3758
 464  231.0449
 465  252.1314
 466  192.6427
 467  186.9494
 468  114.6579
 469  139.8013
 470  147.5986
 471  209.6495
 472  306.7251
 473  396.9174
 474  258.7035
 475  168.7972
 476  207.6913
 477  265.5211
 478  265.1085
 479  314.0906
 480  378.3181
 481  321.9052
 482  241.6121
 483  199.3403
 484  259.6656
 485  286.116
 486  246.2855
 487  333.7155
 488  368.1909
 489  370.5095
 490  310.2686
 491  366.1157
 492  188.7218
 493  137.9653
 494  282.0598
 495  354.8757
 496  327.3623
 497  317.4146
 498  188.7733
 499  266.4389
 500  241.2977
 501  281.9373
 502  244.2813
 503  353.5087
 504  378.0578
 505  338.3839
 506  307.7287
 507  324.628
 508  425.0896
 509  661.0801
 510  610.4583
 511  708.5015
