# Input file       =  1201964296.100175_cleaned.dat
# Candidate        =  PSR_0332+5434
# Telescope        =  AR
# Epoch_topo       =  58155.624017363138
# Epoch_bary       =  N/A
# T_sample         =  0.002
# Data Folded      =  7340032
# Data Avg         =  0.185612347909357
# Data StdDev      =  7.16108947696701 
# Profile Bins     =  256
# Profile Avg      =  5321.33247018318 
# Profile StdDev   =  1212.57355982952 
# Reduced chi-sqr  =  1.027
# Prob(Noise)      <  0.372   (~0.3 sigma)
# P_topo (ms)      =  714.577961204422  +/- 0.000584
# P'_topo (s/s)    =  -0                +/- 3.08e-10
# P''_topo (s/s^2) =  0                 +/- 1.36e-13
# P_bary (ms)      =  N/A
# P'_bary (s/s)    =  N/A
# P''_bary (s/s^2) =  N/A
# P_orb (s)        =  N/A
# asin(i)/c (s)    =  N/A
# eccentricity     =  N/A
# w (rad)          =  N/A
# T_peri           =  N/A
######################################################
   0  4098.404
   1  5358.638
   2  4970.057
   3  4699.798
   4  4648.299
   5  6200.635
   6  6608.847
   7  5046.103
   8  5630.02
   9  6080.757
  10  5228.543
  11  4737.435
  12  5827.304
  13  6793.284
  14  6559.841
  15  6592.184
  16  6381.526
  17  6198.128
  18  5620.364
  19  6446.279
  20  6517.967
  21  5733.792
  22  5866.514
  23  6364.2
  24  5074.993
  25  5756.419
  26  6569.658
  27  6491.52
  28  5540.762
  29  5557.039
  30  5676.966
  31  5326.945
  32  4229.806
  33  4158.106
  34  3207.27
  35  4494.11
  36  4244.745
  37  4653.9
  38  5295.689
  39  4079.772
  40  3748.642
  41  4257.649
  42  5045.188
  43  5224.017
  44  4118.438
  45  4933.333
  46  5018.25
  47  4408.831
  48  6441.703
  49  6511.366
  50  5957.754
  51  5968.482
  52  5870.062
  53  6338.229
  54  5559.617
  55  6331.202
  56  7261.285
  57  5754.95
  58  6317.53
  59  5418.74
  60  5782.023
  61  4746.72
  62  5084.545
  63  5900.79
  64  4342.972
  65  5566.632
  66  5847.02
  67  6136.471
  68  4848.815
  69  6129.214
  70  6717.9
  71  6183.438
  72  5269.181
  73  5077.851
  74  4571.349
  75  4724.88
  76  4187.536
  77  5257.378
  78  4966.604
  79  5405.778
  80  5036.003
  81  6543.128
  82  5066.649
  83  5667.605
  84  6005.192
  85  6611.45
  86  6086.956
  87  6872.351
  88  6850.293
  89  6835.478
  90  6435.901
  91  6053.827
  92  5853.837
  93  5042.016
  94  5797.058
  95  4570.686
  96  5414.959
  97  5526.383
  98  4179.397
  99  5059.896
 100  5133.031
 101  5043.07
 102  4680.634
 103  5965.565
 104  5913.879
 105  6415.093
 106  6542.487
 107  5013.647
 108  4925.859
 109  4574.892
 110  4933.052
 111  4479.595
 112  6267.97
 113  4690.434
 114  4763.612
 115  5327.621
 116  4214.728
 117  3492.413
 118  3550.927
 119  4354.254
 120  3672.771
 121  3723.335
 122  4323.415
 123  5087.32
 124  6215.098
 125  5784.822
 126  5596.482
 127  6139.804
 128  5934.728
 129  6307.363
 130  6060.673
 131  5247.274
 132  6696.177
 133  5958.353
 134  6715.155
 135  6790.642
 136  5175.118
 137  5040.779
 138  4670.856
 139  6594.194
 140  4613.829
 141  5065.941
 142  4355.73
 143  5280.945
 144  6224.564
 145  4724.42
 146  5553.314
 147  4677.945
 148  5263.882
 149  6410.135
 150  5027.869
 151  5224.8
 152  7395.699
 153  9269.039
 154  7809.567
 155  6695.618
 156  7830.259
 157  8016.848
 158  7454.083
 159  8134.322
 160  8738.168
 161  7360.351
 162  6700.56
 163  6202.153
 164  6384.188
 165  5899.266
 166  7018.345
 167  5751.455
 168  5285.721
 169  5928.088
 170  6590.698
 171  6972.051
 172  5105.937
 173  6773.347
 174  5543.878
 175  5052.728
 176  4520.234
 177  5411.472
 178  5367.597
 179  5124.249
 180  6472.015
 181  4832.418
 182  4191.098
 183  5305.238
 184  5832.282
 185  5474.765
 186  3328.121
 187  4239.291
 188  3416.561
 189  4059.722
 190  4491.498
 191  3451.889
 192  4506.326
 193  4044.902
 194  4834.015
 195  4747.325
 196  4936.977
 197  5736.037
 198  5523.669
 199  4382.567
 200  4829.269
 201  4291.02
 202  5275.435
 203  3775.736
 204  5815.87
 205  5286.855
 206  4362.196
 207  5028.789
 208  5224.97
 209  5545.953
 210  4157.609
 211  3964.138
 212  5308.562
 213  4679.94
 214  3993.907
 215  3146.195
 216  3317.266
 217  2835.824
 218  2559.418
 219  3123.041
 220  3195.054
 221  3744.944
 222  4921.979
 223  4886.048
 224  3648.812
 225  4510.589
 226  4359.994
 227  4803.126
 228  4988.384
 229  4265.276
 230  5526.654
 231  5450.464
 232  5413.094
 233  5090.584
 234  5123.7
 235  5274.115
 236  5152.351
 237  5940.414
 238  5432.986
 239  6278.315
 240  5456.084
 241  6221.37
 242  5486.728
 243  5463.687
 244  4089.416
 245  5080.292
 246  4000.862
 247  3232.629
 248  3810.712
 249  3565.409
 250  4136.332
 251  4196.135
 252  4802.366
 253  4606.526
 254  4280.892
 255  5411.609
