# Input file       =  1201634619.11026_cleaned.dat
# Candidate        =  PSR_0332+5434
# Telescope        =  AR
# Epoch_topo       =  58151.808311461340
# Epoch_bary       =  N/A
# T_sample         =  0.002
# Data Folded      =  7340032
# Data Avg         =  0.0149116338069507
# Data StdDev      =  1.00002027179845 
# Profile Bins     =  512
# Profile Avg      =  213.726690933476 
# Profile StdDev   =  119.735463580747 
# Reduced chi-sqr  =  1.035
# Prob(Noise)      <  0.283   (~0.6 sigma)
# P_topo (ms)      =  714.576957592845  +/- 0.000675
# P'_topo (s/s)    =  -0                +/- 3.56e-10
# P''_topo (s/s^2) =  0                 +/- 1.57e-13
# P_bary (ms)      =  N/A
# P'_bary (s/s)    =  N/A
# P''_bary (s/s^2) =  N/A
# P_orb (s)        =  N/A
# asin(i)/c (s)    =  N/A
# eccentricity     =  N/A
# w (rad)          =  N/A
# T_peri           =  N/A
######################################################
   0  806.2385
   1  613.4306
   2  420.8378
   3  323.5948
   4  187.2333
   5  163.0437
   6  209.1093
   7  196.7141
   8  202.1429
   9  249.7565
  10  302.3201
  11  201.6946
  12  227.7494
  13  263.2158
  14  202.72
  15  214.5716
  16  257.5274
  17  289.1009
  18  241.0961
  19  179.8249
  20  169.6595
  21  124.8108
  22  172.6658
  23  214.7219
  24  197.713
  25  125.4886
  26  199.9732
  27  264.1237
  28  129.4888
  29  258.0172
  30  283.9805
  31  397.9534
  32  263.8213
  33  173.121
  34  103.4704
  35  79.80199
  36  163.1773
  37  218.773
  38  268.7876
  39  180.05
  40  97.57755
  41  -2.104373
  42  29.08388
  43  263.4034
  44  233.6586
  45  221.7464
  46  322.1269
  47  231.6823
  48  183.2249
  49  83.69363
  50  50.35085
  51  45.68099
  52  119.8998
  53  202.0432
  54  135.0572
  55  107.5094
  56  188.1101
  57  297.778
  58  181.6871
  59  271.9882
  60  320.8287
  61  209.8713
  62  193.372
  63  209.7369
  64  317.569
  65  221.4418
  66  147.1708
  67  186.754
  68  141.3775
  69  229.8646
  70  234.4445
  71  245.9938
  72  291.4081
  73  216.0419
  74  253.9483
  75  215.4206
  76  231.2985
  77  137.0717
  78  284.6929
  79  292.0104
  80  211.184
  81  151.1187
  82  53.43444
  83  158.7188
  84  201.6043
  85  160.8484
  86  175.3802
  87  233.6291
  88  225.7915
  89  207.0628
  90  121.395
  91  232.2845
  92  224.0676
  93  343.5125
  94  246.1177
  95  186.7176
  96  232.7037
  97  227.5665
  98  226.1651
  99  168.2182
 100  278.113
 101  225.8339
 102  183.124
 103  280.6103
 104  262.1418
 105  124.2732
 106  27.64399
 107  -0.4785917
 108  307.5103
 109  390.8051
 110  453.4967
 111  412.9399
 112  245.4196
 113  65.10295
 114  129.94
 115  166.2153
 116  201.9603
 117  242.4404
 118  202.3157
 119  171.0654
 120  248.7722
 121  290.9277
 122  256.8404
 123  220.2624
 124  170.8997
 125  204.97
 126  146.7214
 127  188.1165
 128  241.9477
 129  291.5158
 130  289.3411
 131  252.9944
 132  118.9568
 133  235.5424
 134  351.4005
 135  200.2205
 136  124.4689
 137  246.7494
 138  306.599
 139  171.1008
 140  23.3809
 141  171.8503
 142  266.953
 143  316.2291
 144  384.5082
 145  331.9386
 146  207.6935
 147  163.2826
 148  122.1039
 149  120.5714
 150  202.9205
 151  257.3071
 152  287.2859
 153  263.0879
 154  288.5953
 155  187.3633
 156  240.4877
 157  257.5817
 158  197.6318
 159  223.1232
 160  178.8322
 161  159.8931
 162  117.1001
 163  151.5491
 164  150.8986
 165  199.3031
 166  245.3583
 167  221.4437
 168  213.4518
 169  170.0785
 170  132.6793
 171  253.0664
 172  186.9471
 173  39.60934
 174  140.1221
 175  183.8294
 176  153.5494
 177  195.5303
 178  244.5813
 179  295.9251
 180  321.246
 181  268.2333
 182  255.5591
 183  230.204
 184  236.8082
 185  235.0748
 186  242.3415
 187  218.5397
 188  254.3586
 189  172.1876
 190  305.5999
 191  218.5948
 192  243.3638
 193  150.5336
 194  94.21364
 195  187.6112
 196  199.0204
 197  250.5725
 198  299.1641
 199  254.588
 200  191.081
 201  101.0232
 202  202.526
 203  267.8582
 204  166.6541
 205  185.1886
 206  276.0165
 207  219.0907
 208  114.0536
 209  205.053
 210  233.436
 211  137.3693
 212  180.9659
 213  97.47286
 214  149.4203
 215  107.5636
 216  125.6592
 217  287.964
 218  249.74
 219  185.7641
 220  203.4536
 221  291.654
 222  226.1737
 223  117.6468
 224  229.9937
 225  225.2148
 226  99.96235
 227  161.9519
 228  341.9698
 229  319.9044
 230  73.82344
 231  44.92438
 232  167.9488
 233  123.7703
 234  254.1432
 235  297.6502
 236  202.1329
 237  284.9738
 238  261.4414
 239  224.1587
 240  310.0822
 241  236.7813
 242  199.134
 243  287.1926
 244  332.1287
 245  192.8066
 246  52.86752
 247  236.371
 248  304.6095
 249  198.0079
 250  229.6276
 251  191.0952
 252  188.5316
 253  178.5166
 254  301.3948
 255  186.8212
 256  216.4325
 257  191.9224
 258  227.5761
 259  219.4364
 260  217.7251
 261  209.0577
 262  148.7886
 263  178.6092
 264  265.5036
 265  248.8033
 266  86.5527
 267  43.61987
 268  190.8949
 269  248.1662
 270  239.3304
 271  188.9135
 272  167.6062
 273  181.9986
 274  243.4852
 275  176.901
 276  201.7377
 277  319.2439
 278  285.9441
 279  280.0799
 280  265.1415
 281  279.1536
 282  262.1079
 283  155.958
 284  202.1957
 285  198.5914
 286  293.2211
 287  336.7218
 288  241.7815
 289  284.9588
 290  311.7002
 291  238.8072
 292  195.5869
 293  285.1686
 294  170.9986
 295  157.3038
 296  161.5062
 297  278.1613
 298  143.1559
 299  141.5573
 300  331.4947
 301  216.1367
 302  127.9928
 303  92.47327
 304  109.6892
 305  240.2589
 306  196.5526
 307  121.0788
 308  89.04071
 309  269.6245
 310  280.6846
 311  222.3186
 312  190.9046
 313  337.4544
 314  361.367
 315  258.2878
 316  215.3311
 317  218.6412
 318  214.1886
 319  263.8708
 320  175.7267
 321  151.9005
 322  210.5673
 323  164.5351
 324  190.2225
 325  171.5058
 326  252.8048
 327  319.9635
 328  204.6045
 329  283.5546
 330  181.275
 331  128.8041
 332  153.2925
 333  128.0224
 334  203.2568
 335  218.1607
 336  165.2888
 337  273.1761
 338  164.7924
 339  216.6942
 340  311.1935
 341  237.8078
 342  191.371
 343  210.9348
 344  331.9117
 345  224.0702
 346  213.0502
 347  275.7427
 348  261.0799
 349  167.4379
 350  256.7866
 351  339.3994
 352  229.2833
 353  122.2581
 354  238.5903
 355  282.6799
 356  318.5496
 357  285.0948
 358  183.6458
 359  185.9716
 360  204.7597
 361  190.6209
 362  130.8861
 363  259.6599
 364  281.2644
 365  223.3813
 366  207.4178
 367  126.4908
 368  60.08018
 369  144.2096
 370  216.4046
 371  180.9031
 372  261.133
 373  138.7574
 374  162.476
 375  55.25566
 376  176.545
 377  170.1951
 378  231.7417
 379  346.6045
 380  163.5372
 381  118.7165
 382  135.4959
 383  190.5692
 384  167.0979
 385  136.3973
 386  168.0389
 387  141.7907
 388  190.8628
 389  155.6452
 390  158.8747
 391  161.8158
 392  163.0783
 393  304.6628
 394  198.8914
 395  96.60601
 396  40.09402
 397  128.3021
 398  144.5758
 399  127.4979
 400  72.04885
 401  124.2886
 402  153.4422
 403  130.0627
 404  159.4731
 405  134.7276
 406  210.6402
 407  140.924
 408  71.39343
 409  7.615498
 410  96.90139
 411  176.157
 412  120.3948
 413  127.4426
 414  161.3667
 415  210.0443
 416  209.5604
 417  233.202
 418  341.8707
 419  151.2638
 420  115.9366
 421  39.01173
 422  100.5829
 423  236.3274
 424  340.1027
 425  330.9297
 426  256.0133
 427  208.6193
 428  108.5867
 429  143.4525
 430  286.1353
 431  241.2377
 432  274.5335
 433  190.5152
 434  237.3524
 435  257.5519
 436  126.2543
 437  165.8556
 438  179.2183
 439  284.7955
 440  272.2075
 441  225.3797
 442  209.1903
 443  150.1505
 444  236.1845
 445  270.5883
 446  212.1832
 447  224.4014
 448  206.647
 449  363.7571
 450  241.4047
 451  157.1193
 452  245.6896
 453  266.4105
 454  132.4407
 455  206.2089
 456  179.0336
 457  96.50822
 458  193.0134
 459  263.6291
 460  167.6338
 461  87.43954
 462  13.89494
 463  104.7489
 464  71.44633
 465  152.7453
 466  138.6109
 467  76.74341
 468  171.3266
 469  212.9892
 470  190.548
 471  213.361
 472  220.3018
 473  227.5741
 474  283.1565
 475  261.6138
 476  172.7427
 477  185.838
 478  246.2278
 479  295.9678
 480  268.1325
 481  193.5729
 482  298.584
 483  211.8188
 484  198.9159
 485  275.7609
 486  183.6162
 487  290.1237
 488  349.2245
 489  302.5586
 490  379.3019
 491  296.5365
 492  329.0591
 493  246.2853
 494  206.5609
 495  243.7215
 496  257.2832
 497  266.6673
 498  232.0613
 499  329.2671
 500  375.4295
 501  244.5513
 502  216.7281
 503  269.2152
 504  317.7845
 505  239.8091
 506  208.8948
 507  384.1709
 508  448.8147
 509  518.117
 510  618.1113
 511  848.058
