# Input file       =  1201346468.110104_cleaned.dat
# Candidate        =  PSR_0332+5434
# Telescope        =  AR
# Epoch_topo       =  58148.473230441021
# Epoch_bary       =  N/A
# T_sample         =  0.002
# Data Folded      =  7208960
# Data Avg         =  0.0211542027514226
# Data StdDev      =  1.00009842444084 
# Profile Bins     =  512
# Profile Avg      =  297.873509402415 
# Profile StdDev   =  118.670854756559 
# Reduced chi-sqr  =  1.540
# Prob(Noise)      <  4.48e-14   (~7.5 sigma)
# P_topo (ms)      =  714.575238764335  +/- 0.000128
# P'_topo (s/s)    =  -0                +/- 6.85e-11
# P''_topo (s/s^2) =  0                 +/- 3.08e-14
# P_bary (ms)      =  N/A
# P'_bary (s/s)    =  N/A
# P''_bary (s/s^2) =  N/A
# P_orb (s)        =  N/A
# asin(i)/c (s)    =  N/A
# eccentricity     =  N/A
# w (rad)          =  N/A
# T_peri           =  N/A
######################################################
   0  1046.552
   1  950.1651
   2  824.8132
   3  594.8412
   4  362.5866
   5  346.06
   6  301.6111
   7  311.4189
   8  296.2438
   9  274.5984
  10  369.4211
  11  426.4651
  12  402.5586
  13  358.6465
  14  238.1086
  15  384.3629
  16  409.6023
  17  286.4706
  18  286.9457
  19  305.0452
  20  333.6426
  21  237.0127
  22  170.5681
  23  229.8293
  24  281.4631
  25  265.3623
  26  297.2638
  27  272.1902
  28  306.71
  29  384.0443
  30  348.7737
  31  344.4878
  32  285.0537
  33  280.1664
  34  314.2876
  35  288.5013
  36  365.9534
  37  232.1414
  38  266.815
  39  257.9546
  40  418.7889
  41  450.0886
  42  332.9006
  43  277.1353
  44  204.7921
  45  218.9523
  46  273.1583
  47  334.2667
  48  441.2336
  49  403.5278
  50  353.8869
  51  184.2513
  52  226.353
  53  282.7994
  54  403.3553
  55  407.0008
  56  384.1927
  57  331.9144
  58  434.8803
  59  414.4166
  60  293.916
  61  404.4715
  62  353.8166
  63  245.6673
  64  282.6606
  65  345.1779
  66  270.9608
  67  250.7416
  68  318.6891
  69  277.1085
  70  227.7255
  71  318.4471
  72  261.5376
  73  209.9792
  74  256.2556
  75  243.7562
  76  303.6021
  77  268.3707
  78  392.7862
  79  427.5285
  80  330.0038
  81  270.7469
  82  352.0996
  83  294.7284
  84  156.434
  85  194.3725
  86  137.5554
  87  250.1244
  88  193.7305
  89  241.2153
  90  270.3304
  91  310.175
  92  359.3022
  93  449.0599
  94  384.3528
  95  231.9472
  96  193.1155
  97  275.2527
  98  413.545
  99  436.4351
 100  511.2665
 101  498.3115
 102  330.4847
 103  277.0451
 104  284.7934
 105  419.7803
 106  336.3992
 107  331.6797
 108  247.7595
 109  307.8366
 110  325.5708
 111  258.8412
 112  142.2081
 113  278.106
 114  450.5197
 115  470.7762
 116  374.2764
 117  392.8196
 118  397.7325
 119  296.0303
 120  358.1618
 121  328.6548
 122  216.9622
 123  201.4157
 124  189.0178
 125  258.2998
 126  321.3179
 127  287.0468
 128  327.2022
 129  251.8241
 130  343.5638
 131  331.9034
 132  362.9008
 133  403.2195
 134  351.4423
 135  328.8008
 136  330.9825
 137  303.2431
 138  304.7392
 139  276.4374
 140  371.5389
 141  260.3767
 142  223.9849
 143  213.5354
 144  179.9126
 145  389.0376
 146  289.3611
 147  245.4556
 148  385.3347
 149  374.7971
 150  344.3203
 151  280.6143
 152  317.5501
 153  334.2143
 154  197.3336
 155  234.4037
 156  368.4799
 157  223.4243
 158  192.4587
 159  183.2975
 160  258.4394
 161  348.7571
 162  264.1877
 163  290.1287
 164  256.0063
 165  357.2852
 166  464.7616
 167  272.3827
 168  235.0679
 169  359.3745
 170  236.3844
 171  217.892
 172  381.7143
 173  378.4116
 174  253.7717
 175  268.12
 176  414.0912
 177  299.0669
 178  114.8002
 179  184.2252
 180  296.6308
 181  352.2269
 182  412.3967
 183  419.6185
 184  386.5503
 185  265.8518
 186  240.0349
 187  176.7664
 188  265.719
 189  279.5307
 190  210.1036
 191  193.9814
 192  334.8851
 193  363.4554
 194  266.2661
 195  185.5197
 196  262.2975
 197  406.4769
 198  388.6425
 199  250.2759
 200  231.6886
 201  242.589
 202  405.4183
 203  479.884
 204  343.9872
 205  172.2432
 206  224.0068
 207  120.2317
 208  195.9413
 209  211.9628
 210  224.6492
 211  286.7957
 212  255.804
 213  333.3419
 214  267.4987
 215  342.5203
 216  301.3081
 217  179.3159
 218  281.7951
 219  328.1056
 220  204.1143
 221  187.6421
 222  222.0821
 223  195.7861
 224  150.6366
 225  67.79118
 226  102.6841
 227  213.8283
 228  181.0594
 229  227.3147
 230  395.893
 231  373.3339
 232  319.3325
 233  323.5043
 234  234.7807
 235  303.0374
 236  365.0475
 237  302.8883
 238  255.7505
 239  311.3851
 240  306.8264
 241  225.5858
 242  140.8292
 243  355.3651
 244  354.6609
 245  339.6396
 246  342.6131
 247  341.1041
 248  433.0864
 249  418.4375
 250  379.5821
 251  299.0198
 252  308.6012
 253  287.6294
 254  381.6866
 255  497.4727
 256  438.1476
 257  340.9654
 258  299.9167
 259  326.8939
 260  287.85
 261  319.7841
 262  278.68
 263  355.7207
 264  466.4529
 265  478.4911
 266  399.1668
 267  433.0698
 268  466.6342
 269  301.8987
 270  167.2811
 271  144.2071
 272  278.1048
 273  289.4083
 274  356.0265
 275  289.0099
 276  307.6415
 277  337.7551
 278  348.8344
 279  342.2827
 280  323.114
 281  307.5744
 282  424.6433
 283  192.576
 284  232.5739
 285  333.1084
 286  337.9719
 287  291.08
 288  244.5742
 289  299.7726
 290  230.6675
 291  274.1541
 292  238.3544
 293  241.2056
 294  250.4955
 295  165.8972
 296  245.92
 297  284.2488
 298  285.8449
 299  236.135
 300  394.3092
 301  312.4881
 302  208.4362
 303  192.0236
 304  240.7366
 305  147.2309
 306  132.2005
 307  73.28021
 308  171.1052
 309  317.9919
 310  330.0814
 311  350.4799
 312  410.8322
 313  287.8773
 314  237.093
 315  182.7704
 316  238.6583
 317  200.5704
 318  252.3189
 319  263.8641
 320  240.3978
 321  248.9035
 322  335.5892
 323  357.4316
 324  229.0046
 325  212.5601
 326  218.4754
 327  452.532
 328  407.4166
 329  434.503
 330  456.5663
 331  405.0676
 332  295.6068
 333  308.4456
 334  230.6064
 335  237.4189
 336  335.8697
 337  285.1516
 338  262.8069
 339  214.6849
 340  113.3142
 341  109.5869
 342  217.4767
 343  197.6043
 344  329.9508
 345  305.3203
 346  242.148
 347  231.6299
 348  259.4832
 349  221.5061
 350  316.6934
 351  315.2929
 352  291.6274
 353  196.7494
 354  278.0803
 355  273.9158
 356  187.3323
 357  195.4819
 358  240.5836
 359  199.1098
 360  245.1915
 361  267.1167
 362  243.205
 363  354.19
 364  269.0541
 365  236.1603
 366  227.1535
 367  250.6512
 368  159.1467
 369  250.1271
 370  276.2878
 371  242.266
 372  255.5875
 373  65.67428
 374  86.4764
 375  120.4972
 376  210.7246
 377  133.5515
 378  252.7242
 379  324.0006
 380  263.1642
 381  247.0383
 382  230.9011
 383  202.3157
 384  236.5895
 385  316.9351
 386  264.6313
 387  147.446
 388  160.6613
 389  134.2572
 390  101.3679
 391  81.55781
 392  156.0599
 393  256.1747
 394  313.6655
 395  341.0844
 396  368.8925
 397  323.651
 398  247.0455
 399  201.7498
 400  260.9682
 401  290.1793
 402  347.2902
 403  342.5211
 404  216.0332
 405  300.1128
 406  403.258
 407  336.2663
 408  255.2676
 409  256.2414
 410  379.1555
 411  337.1295
 412  347.8638
 413  374.6646
 414  412.2199
 415  237.6655
 416  168.7006
 417  365.4933
 418  488.8398
 419  503.2225
 420  453.0546
 421  367.1274
 422  319.8543
 423  163.5106
 424  135.5137
 425  107.6448
 426  84.34133
 427  179.6742
 428  395.9085
 429  480.9885
 430  340.3294
 431  217.5799
 432  317.0841
 433  309.5865
 434  308.1128
 435  304.2514
 436  287.502
 437  344.4648
 438  339.9589
 439  236.6789
 440  252.2657
 441  189.5292
 442  181.156
 443  301.2801
 444  321.1269
 445  369.659
 446  292.0032
 447  220.999
 448  229.5644
 449  254.0091
 450  318.1603
 451  238.1027
 452  189.3884
 453  190.257
 454  158.5112
 455  92.3828
 456  145.4082
 457  242.747
 458  145.8391
 459  226.7945
 460  245.1371
 461  384.9124
 462  234.0596
 463  338.9711
 464  259.7745
 465  157.0845
 466  269.8328
 467  321.4337
 468  319.4254
 469  190.5837
 470  293.9344
 471  177.8954
 472  192.5865
 473  221.496
 474  248.1682
 475  397.868
 476  371.1005
 477  426.628
 478  391.9359
 479  353.4793
 480  428.181
 481  480.6923
 482  372.0039
 483  385.7445
 484  317.3052
 485  247.5926
 486  203.1669
 487  266.4846
 488  367.5979
 489  284.7349
 490  272.9273
 491  336.3713
 492  321.2456
 493  285.5951
 494  332.525
 495  442.2974
 496  497.7444
 497  281.8659
 498  343.8658
 499  315.8477
 500  287.1482
 501  332.7978
 502  386.0987
 503  412.5161
 504  235.184
 505  247.6312
 506  393.589
 507  348.354
 508  462.7866
 509  580.0906
 510  767.4581
 511  982.2787
