# Input file       =  1201346468.110104-PSRB0329-2ms-sampling-dd.dat
# Candidate        =  PSR_0332+5434
# Telescope        =  AR
# Epoch_topo       =  58148.473230441021
# Epoch_bary       =  N/A
# T_sample         =  0.002
# Data Folded      =  7208960
# Data Avg         =  6.72515519070708e-10
# Data StdDev      =  9.58188493512775 
# Profile Bins     =  512
# Profile Avg      =  0.118555828329001
# Profile StdDev   =  1136.97856895071 
# Reduced chi-sqr  =  1.008
# Prob(Noise)      <  0.444   (~0.1 sigma)
# P_topo (ms)      =  714.575239915597  +/- 0.000149
# P'_topo (s/s)    =  -0                +/- 7.99e-11
# P''_topo (s/s^2) =  0                 +/- 3.59e-14
# P_bary (ms)      =  N/A
# P'_bary (s/s)    =  N/A
# P''_bary (s/s^2) =  N/A
# P_orb (s)        =  N/A
# asin(i)/c (s)    =  N/A
# eccentricity     =  N/A
# w (rad)          =  N/A
# T_peri           =  N/A
######################################################
   0  -535.0442
   1  -732.7889
   2  -1455.14
   3  -1522.037
   4  -823.5305
   5  -395.7245
   6  269.9805
   7  1624.171
   8  1966.863
   9  2131.231
  10  1146.418
  11  348.6633
  12  961.8612
  13  2111.586
  14  2586.838
  15  1888.046
  16  1784.796
  17  425.6201
  18  -303.5851
  19  -1042.704
  20  -1151.647
  21  -927.3841
  22  -842.106
  23  -541.2391
  24  -355.835
  25  442.3973
  26  -93.26932
  27  -162.9903
  28  -655.7681
  29  -647.8152
  30  -822.0191
  31  -484.2321
  32  38.00599
  33  -298.6025
  34  -253.6711
  35  -1152.788
  36  -1450.85
  37  -1527.6
  38  -1109.31
  39  -426.1256
  40  24.43364
  41  284.7073
  42  244.6861
  43  -515.5955
  44  -791.4714
  45  -572.0226
  46  125.3132
  47  327.337
  48  -214.1235
  49  -415.8755
  50  -534.3953
  51  -822.6263
  52  -1040.739
  53  -921.1458
  54  -570.0479
  55  23.4078
  56  853.4712
  57  1346.975
  58  1829.529
  59  1696.049
  60  -290.5923
  61  134.7399
  62  925.0458
  63  2469.104
  64  2570.568
  65  2378.122
  66  1705.644
  67  -106.0959
  68  -371.494
  69  -632.8138
  70  -770.9907
  71  -599.1355
  72  25.732
  73  64.89703
  74  435.6357
  75  358.9052
  76  104.8844
  77  -760.9552
  78  -1087.313
  79  -620.4096
  80  -432.6796
  81  -387.1072
  82  -301.4293
  83  -255.0806
  84  -754.7663
  85  -1351.683
  86  -1448.955
  87  -1409.002
  88  -1166.838
  89  -930.8339
  90  27.2897
  91  313.6327
  92  -69.12846
  93  -454.0038
  94  -88.90925
  95  282.8796
  96  698.0941
  97  740.1678
  98  225.0308
  99  137.1567
 100  -23.30296
 101  25.93572
 102  1049.596
 103  1913.419
 104  1819.794
 105  2057.964
 106  1366.581
 107  894.7052
 108  1251.077
 109  2057.872
 110  1965.238
 111  2362.053
 112  2262.714
 113  1742.893
 114  652.6765
 115  649.1029
 116  128.7769
 117  -574.4178
 118  -628.6882
 119  -161.8636
 120  -277.3022
 121  -426.5617
 122  -710.6383
 123  -706.797
 124  -1049.308
 125  -662.0697
 126  -786.7023
 127  -852.6092
 128  -446.8859
 129  -325.7665
 130  -547.4091
 131  -1024.293
 132  -656.6648
 133  -972.6143
 134  -1005.655
 135  -1026.753
 136  -492.3477
 137  -176.8564
 138  -458.9796
 139  148.2126
 140  218.3573
 141  344.6722
 142  299.9829
 143  237.3034
 144  107.1371
 145  376.7661
 146  585.1361
 147  705.0666
 148  876.0427
 149  1057.708
 150  1275.927
 151  1170.989
 152  650.7859
 153  1348.337
 154  2754.438
 155  2447.54
 156  2912.116
 157  2813.796
 158  1903.74
 159  460.5346
 160  511.2652
 161  427.0707
 162  163.1534
 163  -136.2626
 164  -349.343
 165  -449.74
 166  -768.1833
 167  -354.2783
 168  113.6694
 169  424.427
 170  221.107
 171  507.2888
 172  1333.6
 173  2190.596
 174  2120.569
 175  1462.96
 176  866.1589
 177  36.05403
 178  -522.6448
 179  -441.9905
 180  -462.6927
 181  -188.8231
 182  52.63071
 183  -489.1869
 184  -484.8126
 185  -7.517362
 186  130.4296
 187  97.41637
 188  -536.2417
 189  -151.2035
 190  33.53013
 191  240.0032
 192  587.2507
 193  530.4623
 194  657.3276
 195  40.76186
 196  -727.5038
 197  -761.4772
 198  -521.1926
 199  35.84811
 200  -314.7423
 201  -247.3022
 202  81.27811
 203  333.4012
 204  15.23885
 205  -199.7203
 206  78.36522
 207  54.74446
 208  226.4653
 209  229.67
 210  327.3528
 211  -247.9639
 212  -303.7485
 213  -544.8795
 214  -50.15408
 215  291.1777
 216  -413.7944
 217  -588.8814
 218  -929.5727
 219  -751.1657
 220  -482.7258
 221  -391.6261
 222  91.3487
 223  228.5883
 224  272.8288
 225  -480.8523
 226  -533.9727
 227  -552.1951
 228  -171.7325
 229  -229.213
 230  80.98862
 231  -20.9248
 232  -23.37516
 233  -363.6646
 234  -750.6649
 235  -170.2431
 236  12.83643
 237  -234.6217
 238  63.68773
 239  453.2304
 240  507.1192
 241  86.52428
 242  -82.47993
 243  -263.3166
 244  -341.591
 245  -280.7038
 246  -534.2086
 247  -448.1589
 248  -649.1727
 249  -992.0591
 250  -1215.046
 251  -1233.14
 252  -364.963
 253  -152.6353
 254  -223.209
 255  -10.2811
 256  59.62474
 257  -552.0531
 258  -1011.286
 259  -175.5236
 260  231.2493
 261  837.8781
 262  404.9682
 263  -122.0356
 264  -705.9338
 265  -811.3234
 266  -885.6292
 267  -871.8411
 268  -488.5221
 269  -771.4532
 270  -813.4783
 271  -492.229
 272  63.17151
 273  284.4069
 274  299.0183
 275  348.6217
 276  -15.6446
 277  -239.4265
 278  -229.2792
 279  -210.8816
 280  -295.8521
 281  -402.6165
 282  -478.6777
 283  -357.1931
 284  -183.0944
 285  70.65755
 286  -172.372
 287  213.9155
 288  249.1944
 289  267.1426
 290  -12.71107
 291  718.7512
 292  319.4098
 293  162.8657
 294  280.0197
 295  -148.254
 296  393.639
 297  457.7784
 298  458.9524
 299  156.9292
 300  -665.7194
 301  -823.4725
 302  189.7916
 303  1240.279
 304  1285.434
 305  1280.753
 306  1029.384
 307  408.5629
 308  -265.2689
 309  -280.7288
 310  -293.6381
 311  -391.4469
 312  -523.8067
 313  -624.3403
 314  -148.0795
 315  -946.3331
 316  -1175.894
 317  -1145.753
 318  -744.8138
 319  102.0978
 320  51.24359
 321  7.134171
 322  534.1627
 323  870.1917
 324  417.7474
 325  215.1052
 326  313.2536
 327  354.5074
 328  -173.5039
 329  32.08539
 330  672.7636
 331  70.00079
 332  -571.9597
 333  -911.8673
 334  -900.9899
 335  -228.3687
 336  -185.791
 337  55.41427
 338  153.8485
 339  434.2765
 340  269.3124
 341  -572.7861
 342  -627.0832
 343  -442.5503
 344  -973.5259
 345  -1230.45
 346  -1033.545
 347  -834.2255
 348  -980.9207
 349  -1220.161
 350  -608.3154
 351  -612.0818
 352  -826.132
 353  -913.6361
 354  -558.6641
 355  -316.3828
 356  -370.5138
 357  -99.81451
 358  -221.027
 359  -541.7499
 360  -1037.052
 361  -1108.901
 362  -1066.393
 363  -998.3038
 364  -934.7778
 365  -449.9077
 366  615.3067
 367  957.6817
 368  1023.762
 369  911.1746
 370  956.1219
 371  1286.457
 372  2387.398
 373  2282.687
 374  2139.734
 375  1161.332
 376  1296.474
 377  1118.96
 378  133.8869
 379  298.6446
 380  336.0581
 381  54.44084
 382  -137.6796
 383  -655.6922
 384  -688.1231
 385  -781.7699
 386  -838.7575
 387  -225.4125
 388  -224.2657
 389  -147.5206
 390  -606.82
 391  -1024.129
 392  -788.1818
 393  -904.2431
 394  -1090.924
 395  -940.1581
 396  -519.914
 397  -308.3319
 398  -745.6777
 399  -787.8671
 400  -668.6923
 401  -90.65048
 402  285.865
 403  1051.76
 404  2204.637
 405  2255.389
 406  1696.546
 407  789.1948
 408  -126.4143
 409  390.2246
 410  363.8365
 411  314.9592
 412  284.8635
 413  306.1508
 414  -142.1643
 415  -683.6128
 416  -1027.404
 417  -240.0066
 418  33.72437
 419  -187.4456
 420  -114.802
 421  29.98817
 422  -155.7892
 423  101.4631
 424  191.6073
 425  498.9752
 426  774.6666
 427  168.7398
 428  29.46248
 429  -37.28176
 430  108.2502
 431  100.4947
 432  -216.7371
 433  -62.87342
 434  -72.30196
 435  224.9263
 436  268.5224
 437  545.2438
 438  974.7702
 439  1006.672
 440  413.0493
 441  486.3879
 442  267.3777
 443  -319.9044
 444  -776.8815
 445  -697.629
 446  -255.8316
 447  -385.9065
 448  -2.988567
 449  -535.0209
 450  -369.5167
 451  -328.4867
 452  -501.6456
 453  -284.8122
 454  -103.8451
 455  -246.6773
 456  -243.3761
 457  -762.0102
 458  -651.8754
 459  -428.9507
 460  -330.1363
 461  -207.2542
 462  132.6132
 463  594.6136
 464  479.8464
 465  303.0517
 466  -252.3396
 467  437.5377
 468  546.4713
 469  384.0162
 470  725.5641
 471  940.7409
 472  515.2729
 473  -325.2334
 474  -90.77509
 475  -378.0277
 476  -642.5099
 477  -937.257
 478  -708.7067
 479  -803.939
 480  -929.2405
 481  -1643.672
 482  -1841.951
 483  -884.6854
 484  -338.0836
 485  -237.4393
 486  -12.6666
 487  -227.3763
 488  -570.6633
 489  -1003.175
 490  -999.7814
 491  -547.1064
 492  347.5562
 493  328.4978
 494  446.7751
 495  399.7466
 496  227.2882
 497  -240.4156
 498  -1212.676
 499  -751.8791
 500  0.8693642
 501  1267.007
 502  1145.013
 503  1021.173
 504  700.6201
 505  88.235
 506  -572.9579
 507  -619.2723
 508  -1053.905
 509  -761.0567
 510  -322.4614
 511  -408.5694
