# Input file       =  1201949674.108761_cleaned.dat
# Candidate        =  PSR_0332+5434
# Telescope        =  AR
# Epoch_topo       =  58155.454781351400
# Epoch_bary       =  N/A
# T_sample         =  0.002
# Data Folded      =  7143424
# Data Avg         =  0.130234106492952
# Data StdDev      =  5.25400293670018 
# Profile Bins     =  512
# Profile Avg      =  1817.03240023974 
# Profile StdDev   =  620.595389746598 
# Reduced chi-sqr  =  5.532
# Prob(Noise)      <  0   (~0.0 sigma)
# P_topo (ms)      =  714.5778882894    +/- 1.11e-05
# P'_topo (s/s)    =  -0                +/- 6e-12
# P''_topo (s/s^2) =  0                 +/- 2.72e-15
# P_bary (ms)      =  N/A
# P'_bary (s/s)    =  N/A
# P''_bary (s/s^2) =  N/A
# P_orb (s)        =  N/A
# asin(i)/c (s)    =  N/A
# eccentricity     =  N/A
# w (rad)          =  N/A
# T_peri           =  N/A
######################################################
   0  1185.27
   1  720.4697
   2  590.9279
   3  1609.182
   4  2071.819
   5  1937.94
   6  1246.12
   7  468.5862
   8  295.8257
   9  189.2471
  10  1052.996
  11  2920.29
  12  3666.177
  13  3762.718
  14  2756.946
  15  1982.467
  16  1227.991
  17  828.7629
  18  732.0014
  19  1156.492
  20  2187.593
  21  2463.504
  22  2106.818
  23  1497.184
  24  902.0793
  25  411.172
  26  616.5719
  27  1868.768
  28  3525.244
  29  3954.933
  30  3478.809
  31  2391.57
  32  1683.342
  33  1121.174
  34  489.95
  35  1165.639
  36  1992.789
  37  2289.478
  38  1759.383
  39  854.2767
  40  838.1313
  41  561.9458
  42  249.2424
  43  1645.443
  44  2889.853
  45  3728.587
  46  3506.625
  47  2780.501
  48  1937.71
  49  1253.841
  50  864.2513
  51  863.8103
  52  1370.133
  53  2601.377
  54  2795.123
  55  1755.979
  56  1431.496
  57  1021.26
  58  905.3605
  59  2076.279
  60  3716.413
  61  4548.313
  62  4942.097
  63  4438.066
  64  2781.344
  65  1873.805
  66  1204.964
  67  681.02
  68  964.8333
  69  1778.583
  70  2208.763
  71  1908.272
  72  1504.006
  73  1158.379
  74  664.5671
  75  347.6819
  76  1223.062
  77  3088.916
  78  3701.365
  79  3998.417
  80  3392.793
  81  2099.814
  82  1351.916
  83  898.2152
  84  498.0977
  85  991.6495
  86  1827.636
  87  2265.863
  88  1942.263
  89  1230.984
  90  758.6788
  91  35.38657
  92  387.0335
  93  1698.313
  94  3060.09
  95  3831.546
  96  3569.27
  97  2695.178
  98  1725.581
  99  1102.689
 100  719.7051
 101  434.9525
 102  1372.337
 103  2294.871
 104  2192.102
 105  1307.439
 106  982.4951
 107  785.9509
 108  620.6472
 109  1192.032
 110  2800.961
 111  4077.43
 112  3869.396
 113  2604.622
 114  1973.781
 115  1311.518
 116  809.4418
 117  741.3062
 118  1291.649
 119  2151.157
 120  2366.381
 121  1791.283
 122  1082.882
 123  612.8734
 124  289.6791
 125  870.5393
 126  1863.247
 127  3199.979
 128  3778.668
 129  3146.505
 130  2160.9
 131  1444.375
 132  1275.891
 133  805.1193
 134  933.2758
 135  1856.034
 136  2600.9
 137  2248.159
 138  1545.413
 139  982.496
 140  430.2317
 141  466.9993
 142  1018.26
 143  2771.586
 144  4022.538
 145  3840.161
 146  2449.072
 147  1334.98
 148  1078.515
 149  884.4288
 150  771.7779
 151  1229.19
 152  2420.84
 153  2198.544
 154  1538.767
 155  927.296
 156  772.7283
 157  982.1133
 158  673.2966
 159  1704.74
 160  3113.685
 161  3471.803
 162  3285.423
 163  2404.972
 164  1564.171
 165  1207.874
 166  686.8123
 167  478.6629
 168  1235.233
 169  2490.884
 170  2389.394
 171  1498.293
 172  1068.752
 173  606.7418
 174  723.2455
 175  1045.349
 176  2344.217
 177  3499.608
 178  3550.178
 179  2925.369
 180  1716.398
 181  1521.182
 182  814.0362
 183  592.9675
 184  1313.404
 185  1900.044
 186  2138.875
 187  1852.305
 188  921.9042
 189  731.6249
 190  482.8795
 191  614.1055
 192  1666.082
 193  2715.912
 194  3555.599
 195  3145.165
 196  2304.49
 197  1660.607
 198  881.0052
 199  659.0303
 200  430.1316
 201  1445.017
 202  2381.002
 203  2404.266
 204  1445.271
 205  435.3419
 206  95.27021
 207  420.6718
 208  1363.4
 209  2291.947
 210  3265.13
 211  3217.663
 212  2503.759
 213  2011.967
 214  1529.88
 215  831.0619
 216  791.846
 217  1252.224
 218  1960.595
 219  1838.696
 220  1587.629
 221  889.6315
 222  510.1782
 223  303.9242
 224  194.797
 225  1373.081
 226  2944.05
 227  3470.761
 228  3207.226
 229  2010.947
 230  1380.657
 231  893.2904
 232  505.3258
 233  729.9483
 234  1304.054
 235  2292.105
 236  2183.32
 237  1396.645
 238  1264.466
 239  603.7635
 240  468.6164
 241  1211.378
 242  2656.297
 243  3848.023
 244  3691.986
 245  2694.302
 246  1720.296
 247  1448.518
 248  1140.092
 249  600.9781
 250  926.8867
 251  1826.233
 252  2218.06
 253  2035.86
 254  1268.248
 255  614.2349
 256  679.7194
 257  729.454
 258  1628.678
 259  3077.142
 260  3897.454
 261  3885.168
 262  2722.777
 263  1581.909
 264  1208.922
 265  1088.62
 266  844.657
 267  1613.169
 268  2562.538
 269  2300.26
 270  1885.111
 271  1166.075
 272  700.1113
 273  684.5518
 274  1100.061
 275  2153.518
 276  3462.738
 277  4019.241
 278  3040.979
 279  1963.466
 280  1504.327
 281  868.2294
 282  735.5474
 283  1352.547
 284  2097.748
 285  2350.927
 286  2130.079
 287  1422.285
 288  704.7535
 289  549.8658
 290  706.9277
 291  1877.218
 292  3092.462
 293  3667.619
 294  3799.949
 295  2907.645
 296  1916.361
 297  843.2679
 298  458.4532
 299  432.6528
 300  1421.447
 301  2530.002
 302  2104.719
 303  1452.603
 304  1342.082
 305  973.2388
 306  491.2311
 307  793.7004
 308  2447.427
 309  3703.748
 310  4181.883
 311  3172.541
 312  2389.952
 313  1587.096
 314  743.3565
 315  509.4395
 316  1186.61
 317  1928.558
 318  2620.212
 319  1952.597
 320  1498.617
 321  1297.626
 322  721.9669
 323  731.3867
 324  1855.312
 325  3197.076
 326  4258.114
 327  3762.758
 328  2697.603
 329  1730.977
 330  1508.774
 331  574.035
 332  373.8472
 333  1357.242
 334  2073.029
 335  2310.112
 336  1497.912
 337  1082.009
 338  1003.868
 339  292.2358
 340  777.4612
 341  2015.816
 342  3935.341
 343  3950.146
 344  3448.235
 345  2332.866
 346  1367.005
 347  1059.768
 348  867.6771
 349  1122.03
 350  1480.234
 351  2277.387
 352  1869.833
 353  916.0394
 354  997.1351
 355  654.1794
 356  588.7501
 357  1202.087
 358  2737.648
 359  3858.852
 360  3648.2
 361  2615.483
 362  2011.49
 363  1094.587
 364  648.6119
 365  755.6539
 366  1659.187
 367  2715.912
 368  2426.573
 369  1545.941
 370  856.4103
 371  625.6391
 372  430.8089
 373  1062.327
 374  2057.113
 375  3273.979
 376  3951.26
 377  3103.159
 378  2505.604
 379  1809.48
 380  1269.933
 381  631.7217
 382  849.9573
 383  1914.319
 384  2455.211
 385  1985.384
 386  1399.319
 387  1088.962
 388  454.9403
 389  216.3824
 390  2014.242
 391  3588.21
 392  4102.75
 393  3858.036
 394  2841.405
 395  2213.692
 396  1572.486
 397  1244.791
 398  1233.75
 399  1900.07
 400  2611.06
 401  2491.567
 402  2097.513
 403  1151.403
 404  738.9954
 405  605.2351
 406  1553.208
 407  2899.643
 408  3705.753
 409  4578.502
 410  3980.66
 411  2517.761
 412  1525.573
 413  1211.339
 414  393.5334
 415  606.21
 416  1758.798
 417  2408.07
 418  2109.506
 419  1213.702
 420  797.4683
 421  860.7339
 422  458.7007
 423  1294.661
 424  3057.352
 425  4306.317
 426  4046.854
 427  3002.757
 428  1752.171
 429  1338.828
 430  1095.196
 431  945.5599
 432  1520.409
 433  2160.518
 434  2351.977
 435  1513.882
 436  1228.978
 437  703.103
 438  527.8923
 439  925.9025
 440  2189.653
 441  3685.232
 442  3948.495
 443  3091.772
 444  2423.592
 445  1980.274
 446  1280.736
 447  1220.623
 448  1327.074
 449  2005.604
 450  2632.142
 451  2412.408
 452  1881.509
 453  1066.143
 454  589.5568
 455  740.9984
 456  1613.037
 457  2611.618
 458  3534.157
 459  3636.243
 460  2980.734
 461  2085.05
 462  1419.064
 463  1100.144
 464  901.6817
 465  1329.913
 466  2455.111
 467  2661.549
 468  1699.159
 469  1320.412
 470  954.3018
 471  837.1958
 472  1280.095
 473  2605.87
 474  3929.078
 475  4133.043
 476  3881.026
 477  2749.14
 478  1837.774
 479  1325.498
 480  820.1777
 481  1098.975
 482  1998.731
 483  2803.179
 484  1978.47
 485  1332.968
 486  1064.527
 487  351.6061
 488  593.1857
 489  1411.723
 490  2906.977
 491  3515.154
 492  3737.548
 493  3113.037
 494  2105.774
 495  1692.042
 496  1048.205
 497  680.6405
 498  1098.214
 499  2085.404
 500  2565.411
 501  2232.838
 502  1345.101
 503  829.37
 504  522.7094
 505  791.9395
 506  2154.76
 507  3370.754
 508  4327.205
 509  3238.201
 510  2182.838
 511  1706.325
