# Input file       =  1201533515.125070-PSRB0329-2ms-sampling-dd.dat
# Candidate        =  PSR_0332+5434
# Telescope        =  AR
# Epoch_topo       =  58150.638126447571
# Epoch_bary       =  N/A
# T_sample         =  0.002
# Data Folded      =  7340032
# Data Avg         =  -2.3297677498517e-10
# Data StdDev      =  83.8062751279391 
# Profile Bins     =  512
# Profile Avg      =  0.533373955426693
# Profile StdDev   =  10034.3797884948 
# Reduced chi-sqr  =  1.247
# Prob(Noise)      <  0.000115   (~3.7 sigma)
# P_topo (ms)      =  714.576162353505  +/- 0.000466
# P'_topo (s/s)    =  -0                +/- 2.46e-10
# P''_topo (s/s^2) =  0                 +/- 1.09e-13
# P_bary (ms)      =  N/A
# P'_bary (s/s)    =  N/A
# P''_bary (s/s^2) =  N/A
# P_orb (s)        =  N/A
# asin(i)/c (s)    =  N/A
# eccentricity     =  N/A
# w (rad)          =  N/A
# T_peri           =  N/A
######################################################
   0  -2203.971
   1  -1634.277
   2  -1539.135
   3  -1478.651
   4  -1769.726
   5  -2136.866
   6  -2765.371
   7  -2281.205
   8  -2195.75
   9  -2094.174
  10  -1860.799
  11  -1663.331
  12  -1522.636
  13  -2133.398
  14  -1874.651
  15  -1528.662
  16  -661.5511
  17  381.8081
  18  691.0103
  19  352.4479
  20  -785.875
  21  -964.0056
  22  -756.1561
  23  396.7263
  24  326.4443
  25  228.2403
  26  -210.5679
  27  -974.9107
  28  -1543.474
  29  -1713.355
  30  -1752.703
  31  -1950.707
  32  -1958.366
  33  -1744.161
  34  -2345.975
  35  -2314.047
  36  -2238.37
  37  -2247.983
  38  -2382.396
  39  -2637.82
  40  -2244.219
  41  -1990.153
  42  -2155.675
  43  -2128.114
  44  -2241.009
  45  -1971.607
  46  -1530.837
  47  -1138.32
  48  -1220.914
  49  -1384.636
  50  -1978.346
  51  -1524.185
  52  -1400.94
  53  -1002.325
  54  -1274.046
  55  -1733.494
  56  -1657.166
  57  -1767.296
  58  -1513.283
  59  -690.0521
  60  654.4333
  61  595.4932
  62  716.7335
  63  -761.131
  64  -1341.507
  65  -1189.426
  66  -9.304204
  67  -464.5322
  68  -547.3095
  69  -617.9487
  70  -1320.929
  71  -2121.717
  72  -2197.22
  73  -1253.587
  74  -1025.354
  75  -450.7734
  76  -711.6856
  77  -1556.509
  78  -2356.878
  79  -2327.085
  80  -1629.753
  81  -1549.413
  82  -1280.45
  83  -1276.074
  84  -1507.853
  85  -2360.533
  86  -2394.172
  87  -1930.29
  88  -2262.185
  89  -1905.003
  90  -1437.25
  91  -2126.152
  92  -3073.845
  93  -3280.113
  94  -2319.479
  95  -2034.46
  96  -2363.935
  97  -2474.985
  98  -2487.836
  99  -2690.961
 100  -2527.753
 101  -2376.453
 102  -1607.139
 103  -1597.562
 104  -1949.012
 105  -2730.902
 106  -3292.28
 107  -2454.857
 108  -2201.087
 109  -2134.765
 110  -2526.646
 111  -2286.825
 112  -2629.28
 113  -3199.966
 114  -3083.507
 115  -2351.643
 116  -1893.516
 117  -1863.48
 118  -1724.054
 119  -2312.257
 120  -3223.931
 121  -3192.965
 122  -2311.299
 123  -1929.314
 124  -2540.646
 125  -2737.783
 126  -3142.858
 127  -3048.393
 128  -3583.081
 129  -3406.618
 130  -3482.504
 131  -2993.2
 132  -2901.987
 133  -3011.49
 134  -3183.274
 135  -3517.983
 136  -3143.877
 137  -3043.67
 138  -3103.239
 139  -3105.269
 140  -3361.263
 141  -2891.41
 142  -3230.078
 143  -3268.125
 144  -2777.606
 145  -2659.009
 146  -2592.477
 147  -2722.821
 148  -2990.724
 149  -3669.876
 150  -3684.303
 151  -3119.513
 152  -2830.769
 153  -3017.243
 154  -2893.503
 155  -3228.639
 156  -3549.904
 157  -3480.859
 158  -3473.942
 159  -3379.072
 160  -3272.919
 161  -2778.776
 162  -2852.576
 163  -2976.345
 164  -2884.176
 165  -3206.305
 166  -2613.031
 167  -2555.74
 168  -2402.701
 169  -2253.884
 170  -2520.49
 171  -3000.001
 172  -1998.091
 173  -1292.958
 174  -1238.455
 175  -568.4957
 176  -1169.446
 177  -2296.017
 178  4479.191
 179  18386.22
 180  32086.18
 181  56196.92
 182  61663.16
 183  56836.59
 184  40862.52
 185  29107.44
 186  31189.68
 187  36156.25
 188  76435.11
 189  68357.55
 190  57938.98
 191  30764.9
 192  12057.11
 193  1748.451
 194  -3513.628
 195  -2674.938
 196  -2860.338
 197  -3221.448
 198  -2400.991
 199  -2529.961
 200  -2845.223
 201  -2315.023
 202  -2440.999
 203  -2360.096
 204  -2414.371
 205  -2449.078
 206  -2882.96
 207  -2986.627
 208  -2918.369
 209  -2404.727
 210  -2366.759
 211  -2813.785
 212  -3151.473
 213  -2979.079
 214  -2640.27
 215  -2403.944
 216  -2831.963
 217  -3203.897
 218  -2983.467
 219  -3058.617
 220  -3282.684
 221  -3551.509
 222  -3227.706
 223  -3046.302
 224  -3280.933
 225  -3101.936
 226  -2770.907
 227  -2914.515
 228  -3061.136
 229  -2646.352
 230  -2478.911
 231  -2752.048
 232  -2300.625
 233  -1937.691
 234  -1895.597
 235  -2181.487
 236  -2577.567
 237  -2309.549
 238  -2263.269
 239  -2172.498
 240  -1907.393
 241  -2350.889
 242  -2054.363
 243  -2292.372
 244  -1970.045
 245  -1613.892
 246  -871.3623
 247  -150.1953
 248  -60.08628
 249  311.2282
 250  -240.6357
 251  -1247.008
 252  -666.8079
 253  -330.9491
 254  425.782
 255  -825.7288
 256  -1156.559
 257  -1597.293
 258  -1958.415
 259  -1710.636
 260  -1478.449
 261  -1457.941
 262  -1410.235
 263  -1945.942
 264  -2658.339
 265  3349.635
 266  5269.43
 267  6385.19
 268  5891.794
 269  2030.975
 270  -488.0363
 271  -2395.903
 272  3490.12
 273  4000.902
 274  3838.164
 275  2558.758
 276  264.8453
 277  -1124.97
 278  -2260.654
 279  -2489.107
 280  -2212.476
 281  -1945.971
 282  -1275.089
 283  -292.1572
 284  2415.166
 285  1520.131
 286  828.916
 287  1635.841
 288  249.5922
 289  1995.469
 290  8149.259
 291  11817.54
 292  11768.98
 293  10534.06
 294  1501.656
 295  1185.335
 296  965.2468
 297  6153.338
 298  5087.552
 299  4069.772
 300  2338.385
 301  -949.37
 302  -1913.082
 303  -2562.592
 304  -2118.599
 305  -1181.545
 306  -821.0724
 307  -1551.179
 308  -2383.938
 309  -2044.276
 310  -2208.189
 311  -1247.108
 312  -625.4512
 313  -298.6663
 314  -29.51714
 315  -759.024
 316  -1248.49
 317  -2809.567
 318  -1525.206
 319  -1262.693
 320  -690.5848
 321  -1057.601
 322  -1249.516
 323  -1156.968
 324  -1537.511
 325  -1227.136
 326  -721.3219
 327  2027.47
 328  2295.557
 329  2062.26
 330  1608.303
 331  340.138
 332  -267.6867
 333  -175.2324
 334  2334.779
 335  1678.511
 336  -593.8084
 337  -1747.134
 338  -2143.913
 339  -2562.136
 340  -1651.227
 341  -620.5968
 342  -366.4896
 343  -601.8738
 344  -887.9294
 345  -1880.298
 346  -2551.102
 347  -998.3127
 348  -248.2178
 349  -413.5212
 350  -1135.92
 351  -2252.602
 352  -2759.485
 353  -2910.606
 354  -2462.012
 355  -1516.758
 356  -616.0483
 357  -1049.244
 358  -1621.629
 359  -1765.168
 360  -2917.554
 361  -2198.598
 362  -1400.81
 363  -734.9166
 364  -1217.178
 365  -1971.6
 366  -2223.897
 367  -2218.419
 368  -2404.214
 369  -2086.852
 370  -1148.249
 371  -250.4167
 372  -1012.887
 373  -852.3527
 374  -319.9578
 375  166.3164
 376  -328.8079
 377  58.91123
 378  -291.6995
 379  -976.832
 380  -2013.461
 381  -1351.182
 382  -946.3272
 383  -808.0814
 384  -1255.498
 385  -1166.399
 386  -1786.201
 387  -1724.095
 388  -1786.827
 389  -2501.972
 390  -940.9236
 391  -457.1791
 392  -645.5982
 393  -1254.562
 394  -1602.32
 395  -2121.783
 396  -2943.519
 397  -1781.312
 398  -698.1268
 399  91.97997
 400  88.82645
 401  -533.6594
 402  -1415.884
 403  -2453.222
 404  -1564.665
 405  -409.6206
 406  -434.9179
 407  -1040.725
 408  -1574.895
 409  -2695.662
 410  -2451.774
 411  -2134.2
 412  -1697.242
 413  -1393.541
 414  -1641.433
 415  -1568.112
 416  -1381.371
 417  -2014.556
 418  -1962.118
 419  -749.8663
 420  -388.5335
 421  -1285.266
 422  -1816.077
 423  -2333.99
 424  -1793.24
 425  -2217.073
 426  -1834.689
 427  -1501.784
 428  -1187.579
 429  -217.5542
 430  -999.5098
 431  -1115.026
 432  -1474.105
 433  -2107.32
 434  -1964.793
 435  -1312.814
 436  -731.4405
 437  -1411.805
 438  -1418.24
 439  -2538.726
 440  -2326.594
 441  -1903.369
 442  -1420.566
 443  -1643.75
 444  -2194.845
 445  -2026.382
 446  -2802.914
 447  -2184.632
 448  -1865.68
 449  -2069.933
 450  -2430.166
 451  -2452.466
 452  -2905.802
 453  -2559.751
 454  -1868.498
 455  -723.5606
 456  -127.4545
 457  327.9388
 458  323.7849
 459  -915.6829
 460  -1786.338
 461  -2054.235
 462  -1947.333
 463  -1927.358
 464  -2076.591
 465  -2665.334
 466  -2631.3
 467  -2261.44
 468  -1900.022
 469  2006.592
 470  4077.047
 471  5092.372
 472  4601.064
 473  1877.956
 474  325.3373
 475  -1485.242
 476  3019.251
 477  3016.372
 478  2414.825
 479  960.2187
 480  -493.4345
 481  -1648.834
 482  -2709.423
 483  -1714.584
 484  -918.8566
 485  519.9937
 486  1202.402
 487  1652.742
 488  873.8135
 489  -1031.931
 490  -217.5222
 491  667.5443
 492  1212.613
 493  831.1517
 494  395.79
 495  -632.7541
 496  -1444.935
 497  -672.4003
 498  1561.315
 499  3159.218
 500  2813.365
 501  1869.471
 502  1172.673
 503  -376.0993
 504  -101.51
 505  2014.099
 506  2525.025
 507  1802.126
 508  321.0512
 509  -1456.937
 510  -1840.809
 511  -2313.364
