# Input file       =  1201260330.103407_cleaned.dat
# Candidate        =  PSR_0332+5434
# Telescope        =  AR
# Epoch_topo       =  58147.476262770913
# Epoch_bary       =  N/A
# T_sample         =  0.002
# Data Folded      =  7143424
# Data Avg         =  0.0184580350942337
# Data StdDev      =  1.00022205198933 
# Profile Bins     =  512
# Profile Avg      =  257.498028412393 
# Profile StdDev   =  118.144812948528 
# Reduced chi-sqr  =  1.872
# Prob(Noise)      <  1.75e-29   (~11.2 sigma)
# P_topo (ms)      =  714.574798757518  +/- 7.45e-05
# P'_topo (s/s)    =  -0                +/- 4.04e-11
# P''_topo (s/s^2) =  0                 +/- 1.83e-14
# P_bary (ms)      =  N/A
# P'_bary (s/s)    =  N/A
# P''_bary (s/s^2) =  N/A
# P_orb (s)        =  N/A
# asin(i)/c (s)    =  N/A
# eccentricity     =  N/A
# w (rad)          =  N/A
# T_peri           =  N/A
######################################################
   0  190.0728
   1  297.7537
   2  304.705
   3  326.9816
   4  374.5145
   5  237.5946
   6  119.818
   7  41.93869
   8  232.2314
   9  315.2218
  10  401.9124
  11  364.906
  12  310.5768
  13  304.6513
  14  240.5125
  15  114.7193
  16  196.3725
  17  220.3515
  18  358.6727
  19  408.2611
  20  286.7389
  21  268.2964
  22  231.5955
  23  137.8126
  24  158.5644
  25  229.2014
  26  336.0214
  27  284.7258
  28  158.8147
  29  222.5913
  30  85.21814
  31  171.9919
  32  283.6376
  33  279.5968
  34  309.8648
  35  421.5406
  36  401.5709
  37  257.7828
  38  219.7379
  39  217.384
  40  138.8073
  41  122.4603
  42  155.5395
  43  318.4731
  44  265.3514
  45  162.5491
  46  196.3608
  47  150.4586
  48  238.9159
  49  178.2831
  50  157.4435
  51  423.7069
  52  302.1963
  53  202.6404
  54  259.7903
  55  193.3752
  56  197.328
  57  113.9365
  58  207.8539
  59  258.8127
  60  323.2514
  61  263.7075
  62  180.6233
  63  81.76051
  64  65.52738
  65  363.7305
  66  353.2204
  67  243.7662
  68  226.7232
  69  139.6516
  70  235.1324
  71  259.2582
  72  149.2141
  73  189.5077
  74  124.5323
  75  257.5368
  76  311.2131
  77  284.9128
  78  306.9103
  79  324.4788
  80  145.7545
  81  170.4031
  82  264.4764
  83  216.3373
  84  166.0912
  85  342.2404
  86  324.1886
  87  296.1721
  88  242.5593
  89  104.6707
  90  107.4163
  91  42.93564
  92  121.7748
  93  404.6894
  94  479.4396
  95  408.5033
  96  129.6248
  97  213.5119
  98  253.6464
  99  145.6336
 100  134.0751
 101  245.5173
 102  159.4866
 103  5.960377
 104  64.88055
 105  97.13107
 106  156.1715
 107  407.3899
 108  376.2751
 109  371.1501
 110  406.6065
 111  315.4223
 112  149.8399
 113  232.8533
 114  332.1249
 115  337.9206
 116  386.9379
 117  306.0569
 118  387.412
 119  273.6737
 120  346.4437
 121  351.2015
 122  248.9034
 123  292.1424
 124  293.0808
 125  213.7281
 126  240.4827
 127  346.5
 128  264.3611
 129  275.798
 130  242.6569
 131  180.583
 132  166.2176
 133  163.0081
 134  324.838
 135  404.3385
 136  340.2233
 137  258.9582
 138  122.2445
 139  30.42836
 140  40.56458
 141  140.698
 142  159.2769
 143  284.4865
 144  282.8638
 145  213.0553
 146  145.3567
 147  78.35303
 148  183.9641
 149  214.2153
 150  281.4611
 151  347.1088
 152  376.9838
 153  254.291
 154  38.38469
 155  90.13998
 156  198.2242
 157  199.9583
 158  185.1348
 159  284.6369
 160  215.4331
 161  122.096
 162  125.0781
 163  249.5866
 164  212.2771
 165  179.221
 166  392.5551
 167  328.6365
 168  327.6212
 169  177.937
 170  237.4624
 171  257.097
 172  127.2062
 173  279.8336
 174  311.6397
 175  231.9456
 176  365.2361
 177  382.7497
 178  295.6729
 179  305.1286
 180  315.9768
 181  230.238
 182  313.3319
 183  307.6733
 184  277.5067
 185  394.2614
 186  351.1286
 187  239.3284
 188  164.4473
 189  292.4967
 190  323.0033
 191  348.3792
 192  287.4995
 193  216.3106
 194  301.0181
 195  161.8083
 196  30.04617
 197  163.4643
 198  260.2484
 199  263.0552
 200  247.2863
 201  351.0121
 202  285.7592
 203  238.2747
 204  313.3893
 205  224.0592
 206  202.0505
 207  218.0098
 208  228.9498
 209  126.7789
 210  239.7587
 211  342.7109
 212  304.1365
 213  274.9123
 214  246.4985
 215  218.8291
 216  319.2049
 217  439.0753
 218  307.3324
 219  271.7608
 220  158.0562
 221  301.6454
 222  332.1142
 223  188.6205
 224  159.4608
 225  393.584
 226  434.8983
 227  314.7484
 228  226.749
 229  169.617
 230  207.2173
 231  279.6199
 232  172.1708
 233  161.1877
 234  315.8752
 235  407.1774
 236  409.5112
 237  172.5883
 238  157.5506
 239  236.2489
 240  49.30594
 241  82.8549
 242  300.2439
 243  283.3083
 244  240.5799
 245  152.6582
 246  119.3804
 247  222.9352
 248  362.427
 249  305.246
 250  318.3878
 251  236.0863
 252  195.2961
 253  270.3528
 254  157.5122
 255  254.8915
 256  421.8626
 257  367.4972
 258  410.7859
 259  402.4645
 260  339.9227
 261  272.1176
 262  272.8941
 263  59.42588
 264  86.00541
 265  292.4916
 266  327.4866
 267  294.7728
 268  226.3436
 269  116.4879
 270  214.5339
 271  194.86
 272  85.13324
 273  95.11429
 274  328.8325
 275  399.621
 276  376.6873
 277  218.1209
 278  306.2533
 279  141.1255
 280  291.4223
 281  367.9787
 282  150.7915
 283  223.277
 284  212.3924
 285  125.6479
 286  231.4315
 287  203.9791
 288  301.8696
 289  344.5607
 290  376.0785
 291  243.5844
 292  181.5471
 293  212.5059
 294  216.1283
 295  167.6698
 296  170.9491
 297  109.1678
 298  159.6193
 299  276.6391
 300  307.6635
 301  220.6497
 302  103.0203
 303  154.8468
 304  182.1547
 305  140.9676
 306  136.6916
 307  375.1817
 308  335.3997
 309  346.7891
 310  262.8538
 311  164.1644
 312  257.5528
 313  350.8562
 314  227.3082
 315  253.8524
 316  279.4728
 317  313.562
 318  248.6305
 319  230.6653
 320  270.0194
 321  183.188
 322  214.7253
 323  396.8386
 324  512.9331
 325  520.7318
 326  422.6214
 327  296.2642
 328  349.4921
 329  355.7774
 330  379.1859
 331  318.8384
 332  277.4238
 333  330.1717
 334  343.4398
 335  273.2423
 336  175.2575
 337  257.6476
 338  214.6864
 339  337.4509
 340  603.4216
 341  747.2947
 342  883.9647
 343  979.443
 344  1049.002
 345  981.4151
 346  907.901
 347  523.1966
 348  229.957
 349  172.9781
 350  345.8026
 351  378.1379
 352  312.3884
 353  133.6538
 354  146.0443
 355  169.8435
 356  179.5275
 357  204.5229
 358  270.2286
 359  254.3715
 360  182.2591
 361  217.2518
 362  171.9638
 363  256.2525
 364  264.328
 365  256.7468
 366  270.6023
 367  186.866
 368  158.4399
 369  273.4917
 370  270.2419
 371  343.1446
 372  348.1328
 373  297.6353
 374  222.8999
 375  239.8427
 376  283.1548
 377  188.124
 378  138.6321
 379  377.8805
 380  420.0908
 381  305.6082
 382  251.0786
 383  259.8915
 384  255.4397
 385  174.7439
 386  153.7137
 387  232.6052
 388  267.6876
 389  272.144
 390  257.7796
 391  311.7376
 392  350.2352
 393  166.9226
 394  179.0277
 395  146.3677
 396  275.3463
 397  365.8138
 398  277.8864
 399  265.9909
 400  119.755
 401  210.952
 402  220.2562
 403  99.70712
 404  186.1459
 405  196.3234
 406  236.0195
 407  234.6504
 408  316.2016
 409  318.5923
 410  384.444
 411  327.2733
 412  332.6667
 413  243.4263
 414  117.0393
 415  48.10138
 416  86.7001
 417  155.5673
 418  151.3144
 419  87.3624
 420  225.593
 421  160.2039
 422  253.6681
 423  359.2426
 424  324.3283
 425  280.1885
 426  300.7447
 427  216.8053
 428  181.9574
 429  118.046
 430  146.6805
 431  189.2363
 432  261.8498
 433  357.2565
 434  214.3298
 435  170.5812
 436  219.5909
 437  163.3535
 438  84.87446
 439  191.3172
 440  301.4004
 441  216.3035
 442  185.8706
 443  70.11369
 444  245.4603
 445  330.4489
 446  379.5948
 447  313.1183
 448  415.3517
 449  446.6443
 450  280.1014
 451  272.3654
 452  359.1557
 453  282.0398
 454  173.3495
 455  127.8576
 456  197.1289
 457  332.0901
 458  363.9083
 459  364.9485
 460  324.5613
 461  340.0536
 462  340.1426
 463  178.8694
 464  212.1291
 465  302.7081
 466  295.5917
 467  124.1792
 468  296.5196
 469  229.1122
 470  121.4478
 471  251.7877
 472  283.2101
 473  359.1681
 474  320.033
 475  252.4724
 476  267.4241
 477  115.8241
 478  149.3214
 479  264.2491
 480  206.0204
 481  342.8
 482  343.3218
 483  266.7723
 484  269.3072
 485  195.4246
 486  182.83
 487  220.2721
 488  229.6958
 489  341.316
 490  326.5675
 491  300.0937
 492  295.0013
 493  254.268
 494  212.0468
 495  280.204
 496  228.4476
 497  239.0726
 498  202.5257
 499  166.8541
 500  289.4368
 501  246.8924
 502  117.5571
 503  222.7829
 504  358.762
 505  333.7932
 506  382.2471
 507  377.1841
 508  208.7849
 509  272.6003
 510  189.0949
 511  206.0342
