# Input file       =  1201533515.12507_cleaned.dat
# Candidate        =  PSR_0332+5434
# Telescope        =  AR
# Epoch_topo       =  58150.638126447571
# Epoch_bary       =  N/A
# T_sample         =  0.002
# Data Folded      =  7340032
# Data Avg         =  0.028798287839119
# Data StdDev      =  1.00004909190211 
# Profile Bins     =  512
# Profile Avg      =  412.86338759883  
# Profile StdDev   =  119.738914299267 
# Reduced chi-sqr  =  1.265
# Prob(Noise)      <  4.25e-05   (~3.9 sigma)
# P_topo (ms)      =  714.576161233479  +/- 0.000245
# P'_topo (s/s)    =  -0                +/- 1.29e-10
# P''_topo (s/s^2) =  0                 +/- 5.7e-14
# P_bary (ms)      =  N/A
# P'_bary (s/s)    =  N/A
# P''_bary (s/s^2) =  N/A
# P_orb (s)        =  N/A
# asin(i)/c (s)    =  N/A
# eccentricity     =  N/A
# w (rad)          =  N/A
# T_peri           =  N/A
######################################################
   0  1158.611
   1  1049.205
   2  798.7877
   3  569.2665
   4  376.6604
   5  276.577
   6  302.2756
   7  270.9332
   8  323.6982
   9  329.4808
  10  327.0525
  11  483.6433
  12  433.2772
  13  480.4138
  14  437.9367
  15  451.0229
  16  478.4047
  17  504.7651
  18  426.8485
  19  410.6364
  20  356.6201
  21  426.8157
  22  434.4207
  23  397.4132
  24  380.369
  25  329.0832
  26  296.6172
  27  335.0084
  28  375.6755
  29  483.3627
  30  392.5447
  31  338.196
  32  469.7461
  33  385.0233
  34  473.9247
  35  400.1319
  36  375.6372
  37  436.9306
  38  492.5619
  39  420.1264
  40  352.4096
  41  397.4158
  42  386.0627
  43  329.4085
  44  400.0148
  45  611.5024
  46  486.9225
  47  384.5847
  48  419.0446
  49  423.5526
  50  385.758
  51  391.1488
  52  352.0178
  53  432.9123
  54  438.0839
  55  403.6892
  56  409.0999
  57  368.7943
  58  391.0867
  59  388.009
  60  388.1143
  61  403.5018
  62  403.054
  63  275.6649
  64  315.5776
  65  283.7805
  66  328.5396
  67  363.5628
  68  276.1053
  69  266.0347
  70  346.5907
  71  299.8667
  72  276.5523
  73  241.2716
  74  241.7234
  75  359.3853
  76  326.8481
  77  383.1196
  78  394.7878
  79  491.1418
  80  377.1088
  81  397.2743
  82  407.9177
  83  442.4081
  84  398.4207
  85  405.0721
  86  407.0409
  87  477.1592
  88  470.3158
  89  416.839
  90  425.4639
  91  386.5595
  92  423.5432
  93  358.9915
  94  330.0858
  95  457.7967
  96  424.4046
  97  462.0523
  98  481.2356
  99  328.9789
 100  427.9606
 101  404.0097
 102  505.4321
 103  508.7344
 104  413.6513
 105  414.473
 106  496.5901
 107  581.6265
 108  497.2138
 109  443.1549
 110  428.6323
 111  457.1277
 112  402.6901
 113  351.2409
 114  490.2935
 115  511.8108
 116  506.429
 117  467.7906
 118  395.8079
 119  327.117
 120  281.9277
 121  315.4106
 122  383.4238
 123  435.8471
 124  387.1536
 125  397.5829
 126  366.4646
 127  376.0447
 128  332.1315
 129  469.9344
 130  447.0648
 131  457.759
 132  452.8802
 133  383.7426
 134  321.4388
 135  230.8309
 136  298.3862
 137  414.1538
 138  539.5497
 139  448.9825
 140  356.728
 141  368.0149
 142  375.2092
 143  321.6514
 144  481.7827
 145  485.2955
 146  482.8806
 147  340.6479
 148  320.5937
 149  414.549
 150  423.3369
 151  419.7653
 152  458.5364
 153  541.8925
 154  411.5263
 155  283.9208
 156  404.7939
 157  394.7477
 158  422.043
 159  344.1124
 160  386.5314
 161  398.0224
 162  340.7868
 163  334.225
 164  345.175
 165  389.7715
 166  491.0077
 167  375.1417
 168  193.5701
 169  276.7306
 170  291.1313
 171  434.9191
 172  478.7984
 173  516.6296
 174  520.4325
 175  358.1225
 176  409.8037
 177  329.433
 178  323.662
 179  346.4202
 180  340.5204
 181  433.5085
 182  345.7106
 183  352.3501
 184  346.8911
 185  351.1444
 186  399.3377
 187  348.1305
 188  398.3587
 189  357.6006
 190  354.2536
 191  376.032
 192  361.0421
 193  361.717
 194  356.1003
 195  456.3933
 196  434.0394
 197  317.4471
 198  376.7229
 199  425.6891
 200  369.234
 201  353.924
 202  332.7883
 203  298.8639
 204  344.6157
 205  369.6488
 206  411.9236
 207  382.1051
 208  402.9865
 209  396.7586
 210  368.5305
 211  422.5045
 212  350.7532
 213  357.2586
 214  337.5286
 215  332.1454
 216  329.4388
 217  414.1169
 218  349.913
 219  274.5512
 220  347.4336
 221  320.1478
 222  284.4641
 223  365.6411
 224  296.6935
 225  293.8121
 226  404.8625
 227  376.0112
 228  293.9961
 229  352.6044
 230  430.0864
 231  485.8934
 232  457.427
 233  461.5797
 234  433.1076
 235  437.3361
 236  408.9118
 237  412.5576
 238  363.7354
 239  438.9911
 240  506.0963
 241  414.6488
 242  360.9323
 243  290.6128
 244  281.7144
 245  406.3765
 246  391.1125
 247  356.1062
 248  417.0612
 249  374.3999
 250  337.8349
 251  330.9714
 252  270.1507
 253  381.8408
 254  458.6614
 255  355.847
 256  347.5
 257  417.4143
 258  287.3391
 259  373.9782
 260  398.748
 261  341.0363
 262  307.0262
 263  351.8616
 264  404.5784
 265  347.9158
 266  252.9403
 267  370.3277
 268  518.4832
 269  611.0262
 270  555.9297
 271  465.462
 272  470.7675
 273  398.1906
 274  291.6389
 275  333.7455
 276  386.7852
 277  464.2315
 278  427.8448
 279  369.8223
 280  456.1519
 281  424.0101
 282  301.0028
 283  409.5527
 284  493.6623
 285  408.5739
 286  312.1593
 287  415.7068
 288  452.1648
 289  506.2418
 290  403.9171
 291  448.7437
 292  459.2586
 293  373.8782
 294  381.845
 295  328.5511
 296  434.0616
 297  385.7448
 298  404.1097
 299  363.5652
 300  228.5485
 301  318.313
 302  359.8171
 303  459.346
 304  410.8399
 305  401.9925
 306  398.5543
 307  359.5632
 308  354.2412
 309  348.9394
 310  239.0647
 311  277.6485
 312  424.4158
 313  429.6011
 314  518.9954
 315  555.5496
 316  384.3109
 317  317.6003
 318  322.8477
 319  388.919
 320  416.6944
 321  449.3707
 322  413.9302
 323  381.8134
 324  460.157
 325  364.7122
 326  356.0241
 327  366.5034
 328  460.5078
 329  609.9145
 330  457.3689
 331  367.9825
 332  502.6562
 333  454.1103
 334  420.2287
 335  398.8789
 336  394.7275
 337  418.6637
 338  466.4027
 339  559.9151
 340  375.4291
 341  392.6901
 342  365.1534
 343  341.4153
 344  381.6304
 345  536.4264
 346  510.173
 347  494.3344
 348  410.3629
 349  388.6006
 350  426.5528
 351  430.4917
 352  376.2218
 353  253.8545
 354  359.3411
 355  392.4693
 356  394.884
 357  432.126
 358  295.9677
 359  319.2495
 360  340.3904
 361  342.202
 362  318.8482
 363  373.9254
 364  414.1521
 365  385.1605
 366  406.8215
 367  376.3942
 368  465.8174
 369  579.1051
 370  513.0576
 371  520.3467
 372  456.7907
 373  408.2039
 374  408.4527
 375  500.368
 376  564.7829
 377  546.4756
 378  639.1055
 379  546.7766
 380  490.3344
 381  541.8846
 382  601.403
 383  583.5222
 384  570.223
 385  582.8959
 386  591.1472
 387  473.412
 388  561.8163
 389  656.2382
 390  484.2418
 391  504.9608
 392  533.3675
 393  491.1419
 394  505.9738
 395  587.4785
 396  588.54
 397  515.0411
 398  626.8439
 399  532.8041
 400  468.1456
 401  484.4319
 402  461.517
 403  514.5026
 404  595.3936
 405  651.3259
 406  470.6335
 407  468.5582
 408  441.9039
 409  503.676
 410  545.1772
 411  485.7325
 412  462.4792
 413  411.1351
 414  490.2972
 415  433.4061
 416  446.6358
 417  378.3951
 418  357.8073
 419  411.0468
 420  304.431
 421  429.7606
 422  376.5109
 423  415.9032
 424  412.153
 425  517.5731
 426  393.8071
 427  295.205
 428  314.211
 429  414.4356
 430  446.737
 431  418.3815
 432  433.2222
 433  491.565
 434  410.3327
 435  385.903
 436  491.07
 437  541.8984
 438  408.7424
 439  484.5435
 440  398.0511
 441  408.256
 442  454.1807
 443  404.6879
 444  385.2289
 445  471.5025
 446  386.3652
 447  384.7386
 448  408.4958
 449  334.7155
 450  415.6814
 451  377.2985
 452  379.5993
 453  347.3334
 454  387.2476
 455  397.1637
 456  403.1483
 457  454.304
 458  418.4778
 459  445.3515
 460  466.9005
 461  347.3015
 462  381.7969
 463  360.8641
 464  340.5692
 465  387.6108
 466  457.0002
 467  485.7885
 468  318.8089
 469  259.5338
 470  442.0045
 471  427.9449
 472  423.7957
 473  474.6853
 474  597.6282
 475  458.9755
 476  409.8759
 477  404.3745
 478  396.7206
 479  325.683
 480  306.4547
 481  313.0181
 482  363.4996
 483  367.4818
 484  361.9638
 485  416.1991
 486  394.652
 487  406.0959
 488  371.47
 489  329.1836
 490  516.7003
 491  465.0466
 492  411.7773
 493  371.9722
 494  295.0479
 495  299.1466
 496  277.0678
 497  247.276
 498  259.6213
 499  303.9345
 500  449.7955
 501  402.7939
 502  376.9193
 503  313.3352
 504  320.8315
 505  470.4954
 506  542.7977
 507  583.5814
 508  618.3361
 509  713.9677
 510  861.4623
 511  1028.675
