# Input file       =  1201792005.108639-PSRB0329-2ms-sampling-dd.dat
# Candidate        =  PSR_0332+5434
# Telescope        =  AR
# Epoch_topo       =  58153.629908664807
# Epoch_bary       =  N/A
# T_sample         =  0.002
# Data Folded      =  7340032
# Data Avg         =  -8.53710028101851e-10
# Data StdDev      =  37.3659607925183 
# Profile Bins     =  512
# Profile Avg      =  -0.552105223254207
# Profile StdDev   =  4473.93994282341 
# Reduced chi-sqr  =  1.715
# Prob(Noise)      <  1.18e-21   (~9.5 sigma)
# P_topo (ms)      =  714.577290687603  +/- 0.000405
# P'_topo (s/s)    =  -0                +/- 2.14e-10
# P''_topo (s/s^2) =  0                 +/- 9.43e-14
# P_bary (ms)      =  N/A
# P'_bary (s/s)    =  N/A
# P''_bary (s/s^2) =  N/A
# P_orb (s)        =  N/A
# asin(i)/c (s)    =  N/A
# eccentricity     =  N/A
# w (rad)          =  N/A
# T_peri           =  N/A
######################################################
   0  -1001.875
   1  -115.9818
   2  452.058
   3  1206.47
   4  1941.979
   5  1821.407
   6  658.9189
   7  -1079.994
   8  -1023.924
   9  -1270.184
  10  -1340.058
  11  -1032.089
  12  -1241.841
  13  -1026.996
  14  -838.5726
  15  -1385.561
  16  -1780.377
  17  -1637.292
  18  -1501.205
  19  -1523.479
  20  -1106.25
  21  -852.7297
  22  -846.0443
  23  -956.8965
  24  -1330.064
  25  -1597.025
  26  -1285.085
  27  -850.808
  28  -831.715
  29  -1170.257
  30  -1289.364
  31  -1212.309
  32  -1457.076
  33  -1507.013
  34  -1516.396
  35  -1607.174
  36  -1351.731
  37  -1303.05
  38  -1522.484
  39  -1607.132
  40  -1949.716
  41  -2018.63
  42  -1660.454
  43  -1844.746
  44  -1498.027
  45  -1513.273
  46  -1519.598
  47  -1552.821
  48  -1797.568
  49  -1861.372
  50  -1439.118
  51  -1808.68
  52  -1471.974
  53  -1393.15
  54  -1202.633
  55  -1393.911
  56  -1860.793
  57  -1373.163
  58  -1528.937
  59  -895.5226
  60  -532.7478
  61  -308.201
  62  -188.9716
  63  -574.9925
  64  -713.7722
  65  -976.4796
  66  -1163.667
  67  -949.3347
  68  -680.1509
  69  -723.6571
  70  -593.7177
  71  -654.9414
  72  -1286.846
  73  -1479.421
  74  -1741.462
  75  -1585.626
  76  -1703.262
  77  -1601.569
  78  -1523.571
  79  -1511.839
  80  -1578.989
  81  -1671.393
  82  -2010.083
  83  -2104.012
  84  -1813.763
  85  -1902.291
  86  -1639.721
  87  -1787.379
  88  -1737.944
  89  -1919.749
  90  -1983.991
  91  -1629.588
  92  -1365.718
  93  -1083.365
  94  -1109.73
  95  -1599.173
  96  -2164.052
  97  -2005.512
  98  -1615.595
  99  -1228.834
 100  -1473.721
 101  -1654.242
 102  -1790.633
 103  -1847.083
 104  -1603.799
 105  -1429.318
 106  -1398.325
 107  -1288.895
 108  -1428.875
 109  -1201.349
 110  -1586.865
 111  -1393.472
 112  -1247.019
 113  -1087.065
 114  -1306.448
 115  -1135.278
 116  -1031.551
 117  -1308.848
 118  -1080.966
 119  -1572.754
 120  -1552.392
 121  -1377.856
 122  -1353.727
 123  -1149.891
 124  -741.085
 125  -1463.832
 126  -1430.431
 127  -1247.748
 128  -1216.505
 129  -934.0677
 130  -355.0699
 131  64.69562
 132  86.24588
 133  -176.3581
 134  -63.62825
 135  -284.0367
 136  271.3867
 137  152.5138
 138  -233.263
 139  309.1393
 140  346.6642
 141  485.539
 142  -70.76286
 143  -107.1239
 144  -591.2113
 145  -1026.673
 146  -1104.047
 147  -1686.767
 148  -1487.014
 149  -1351.904
 150  -1549.222
 151  -1734.643
 152  -1632.278
 153  -1770.829
 154  -1582.865
 155  -1737.007
 156  -1588.304
 157  -1354.098
 158  -1459.331
 159  -1591.922
 160  -1809.598
 161  -1551.785
 162  -1468.521
 163  -1499.006
 164  -1353.486
 165  -1394.697
 166  -976.4628
 167  -1113.821
 168  -1078.702
 169  -1315.488
 170  -1231.397
 171  -706.2467
 172  -556.2131
 173  -591.0117
 174  -792.5302
 175  -1145.527
 176  -1575.333
 177  -1262.757
 178  -960.4784
 179  -950.8421
 180  -938.7133
 181  -1251.25
 182  -1266.103
 183  -1457.44
 184  -753.9875
 185  -864.4542
 186  -798.1774
 187  -823.1072
 188  -871.2155
 189  -726.552
 190  -620.2264
 191  -640.4318
 192  -940.3361
 193  -150.3922
 194  -24.03144
 195  935.6287
 196  504.4434
 197  -68.57145
 198  -1349.583
 199  -1398.365
 200  -938.0878
 201  -574.7244
 202  -478.3355
 203  -479.7482
 204  -150.6649
 205  116.0951
 206  18.71628
 207  218.5605
 208  1373.111
 209  2558.939
 210  2648.858
 211  2534.693
 212  583.8896
 213  378.6605
 214  601.1392
 215  -500.9497
 216  -760.2203
 217  -980.1394
 218  -1208.305
 219  -1554.922
 220  -1673.568
 221  -1649.924
 222  -1449.896
 223  -957.2029
 224  -991.3713
 225  -1052.409
 226  -920.8994
 227  -852.878
 228  -441.5621
 229  -13.18223
 230  127.6945
 231  532.6868
 232  251.327
 233  -211.5643
 234  -353.8097
 235  -582.9554
 236  -614.9347
 237  -444.1169
 238  -973.8248
 239  -397.7439
 240  4247.031
 241  7945.833
 242  10748.72
 243  11908.66
 244  10895.09
 245  5343.098
 246  634.7468
 247  13490.57
 248  24974.34
 249  34392.29
 250  44487.2
 251  31858.81
 252  21676.35
 253  8351.626
 254  5636.951
 255  4832.704
 256  3774.267
 257  927.7087
 258  5724.491
 259  11570.05
 260  22191.31
 261  23679.76
 262  21702.15
 263  12122.14
 264  5973.992
 265  5334.975
 266  6843.614
 267  4607.235
 268  3101.056
 269  2198.895
 270  416.5545
 271  42.00557
 272  -336.8564
 273  -342.8719
 274  -84.19724
 275  -75.46816
 276  -276.7772
 277  -1237.519
 278  -899.0153
 279  -472.3187
 280  -48.55503
 281  233.7316
 282  -226.2615
 283  -735.8694
 284  -1651.74
 285  -1538.622
 286  -1803.021
 287  -2175.329
 288  -1873.352
 289  -1941.629
 290  -1826.219
 291  -1709.481
 292  -2095.098
 293  -2757.204
 294  -2473.351
 295  -2152.469
 296  -2009.78
 297  -1788.442
 298  -1710.199
 299  -1743.307
 300  -1998.825
 301  -1844.784
 302  -1778.069
 303  -1697.981
 304  -1462.074
 305  -1831.11
 306  -1696.551
 307  -1764.494
 308  -2147.44
 309  -1936.295
 310  -1551.984
 311  -1535.728
 312  -1716.603
 313  -2085.762
 314  -1382.511
 315  -1063.306
 316  -1460.482
 317  -1677.013
 318  -1701.85
 319  -1858.187
 320  -1887.712
 321  -1805.725
 322  -1437.58
 323  -1370.876
 324  -1278.549
 325  -899.783
 326  -1527.336
 327  -1642.435
 328  -1512.988
 329  -1139.172
 330  -1360.878
 331  -1441.196
 332  -1202.621
 333  -1454.318
 334  -1299.742
 335  -739.2899
 336  -1378.557
 337  -1566.921
 338  -1561.5
 339  -1386.9
 340  -1055.477
 341  -1477.506
 342  -1575.291
 343  -1514.366
 344  -1824.098
 345  -1830.391
 346  -1832.911
 347  -1597.966
 348  -1617.788
 349  -1524.681
 350  -1861.383
 351  -1776.823
 352  -1478.513
 353  -1306.477
 354  -1279.053
 355  -1578.527
 356  -1488.843
 357  -1729.135
 358  -1672.751
 359  -1805.225
 360  -1771.698
 361  -1623.263
 362  -1843.432
 363  -1501.149
 364  -1518.97
 365  -1352.807
 366  -1317.44
 367  -1411.957
 368  -1296.556
 369  -1335.824
 370  -1260.918
 371  -1530.947
 372  -1422.066
 373  -1296.022
 374  -1667.777
 375  -1507.671
 376  -1855.72
 377  -1722.063
 378  -1671.384
 379  -1481.19
 380  -1579.339
 381  -1553.369
 382  -1761.612
 383  -2078.14
 384  -2010.394
 385  -1765.591
 386  -1611.368
 387  -1454.655
 388  -1399.986
 389  -1593.127
 390  -1774.288
 391  -1883.88
 392  -1512.116
 393  -1549.957
 394  -1241.566
 395  -1692.589
 396  -1891.452
 397  -1398.159
 398  -1618.816
 399  -1448.271
 400  79.44391
 401  763.5721
 402  1285.36
 403  2043.512
 404  800.906
 405  263.8882
 406  -69.74741
 407  3173.684
 408  5364.101
 409  7649.41
 410  8580.021
 411  6699.183
 412  4424.131
 413  832.66
 414  -48.41177
 415  -818.8913
 416  -1076.411
 417  -1126.352
 418  -991.5947
 419  -733.6225
 420  -134.7931
 421  787.5266
 422  1295.022
 423  1429.556
 424  641.1569
 425  163.3088
 426  605.2455
 427  1102.631
 428  743.6127
 429  1015.995
 430  422.799
 431  1321.863
 432  2073.686
 433  3759.204
 434  5151.744
 435  4957.258
 436  3783.243
 437  1757.637
 438  654.8625
 439  101.5993
 440  238.2977
 441  -52.30491
 442  -186.9068
 443  -929.8291
 444  -971.2039
 445  -964.1108
 446  -1168
 447  -1193.276
 448  -1681.031
 449  -1600.278
 450  -1442.743
 451  -1253.873
 452  -1499.023
 453  -1344.12
 454  -1497.688
 455  -2033.599
 456  -1884.669
 457  -1766.826
 458  -1975.321
 459  -2195.851
 460  -1918.193
 461  -1792.818
 462  -1628.881
 463  -1386.885
 464  -1849.589
 465  -1885.922
 466  -1233.447
 467  -246.4447
 468  645.1025
 469  1233.349
 470  1423.553
 471  1.272068
 472  -1330.546
 473  -296.1228
 474  1212.92
 475  3096.84
 476  5958.655
 477  5242.938
 478  3253.373
 479  -1302.295
 480  -1013.609
 481  -1174.279
 482  -1529.685
 483  -883.4838
 484  -1356.227
 485  -1549.406
 486  -1016.327
 487  116.2073
 488  0.8087903
 489  -174.056
 490  911.4472
 491  430.3474
 492  -23.52024
 493  471.7717
 494  532.2044
 495  452.3684
 496  303.8214
 497  367.5552
 498  299.5452
 499  502.2279
 500  2226.085
 501  2815.802
 502  2725.202
 503  2189.272
 504  1249.562
 505  561.4312
 506  -365.0731
 507  -997.7742
 508  -989.7664
 509  -911.7802
 510  -624.9285
 511  -909.114
