# Input file       =  1201792005.108639_cleaned.dat
# Candidate        =  PSR_0332+5434
# Telescope        =  AR
# Epoch_topo       =  58153.629908664807
# Epoch_bary       =  N/A
# T_sample         =  0.002
# Data Folded      =  7340032
# Data Avg         =  0.0317760472546822
# Data StdDev      =  1.00006298139653 
# Profile Bins     =  512
# Profile Avg      =  455.785914405972 
# Profile StdDev   =  119.740577330608 
# Reduced chi-sqr  =  1.078
# Prob(Noise)      <  0.107   (~1.2 sigma)
# P_topo (ms)      =  714.577290687603  +/- 0.000429
# P'_topo (s/s)    =  -0                +/- 2.27e-10
# P''_topo (s/s^2) =  0                 +/- 1e-13
# P_bary (ms)      =  N/A
# P'_bary (s/s)    =  N/A
# P''_bary (s/s^2) =  N/A
# P_orb (s)        =  N/A
# asin(i)/c (s)    =  N/A
# eccentricity     =  N/A
# w (rad)          =  N/A
# T_peri           =  N/A
######################################################
   0  353.7457
   1  480.7407
   2  461.0566
   3  479.1295
   4  335.8125
   5  376.3693
   6  448.3136
   7  480.2135
   8  449.3468
   9  376.7322
  10  394.7049
  11  458.1698
  12  466.136
  13  577.9945
  14  611.2572
  15  407.3189
  16  288.7141
  17  328.9561
  18  365.3656
  19  391.6867
  20  439.7428
  21  500.5896
  22  533.3812
  23  583.4119
  24  543.3062
  25  443.5501
  26  534.0573
  27  609.3012
  28  626.3338
  29  569.3557
  30  550.405
  31  605.6569
  32  492.4002
  33  521.6987
  34  519.4022
  35  519.9946
  36  565.824
  37  520.1755
  38  470.7414
  39  390.7994
  40  326.6505
  41  348.9266
  42  389.5312
  43  237.0891
  44  323.7578
  45  331.0801
  46  304.0529
  47  346.0176
  48  311.9973
  49  343.2277
  50  421.4756
  51  325.0946
  52  377.9922
  53  476.0193
  54  557.6245
  55  485.5346
  56  345.2814
  57  430.3289
  58  414.1889
  59  526.8646
  60  535.517
  61  565.5073
  62  523.241
  63  439.0125
  64  446.9269
  65  507.6876
  66  425.1904
  67  457.1643
  68  461.6629
  69  449.2112
  70  460.7025
  71  475.121
  72  388.6712
  73  388.0432
  74  337.79
  75  422.5578
  76  453.9846
  77  454.0858
  78  477.4504
  79  423.7362
  80  439.5625
  81  472.004
  82  396.6393
  83  371.7451
  84  402.0793
  85  353.2522
  86  447.2465
  87  432.4946
  88  434.6538
  89  455.4157
  90  388.4926
  91  377.8962
  92  414.7827
  93  483.7492
  94  503.1572
  95  481.2404
  96  346.2606
  97  385.7393
  98  390.5393
  99  492.1802
 100  439.7443
 101  500.5413
 102  479.3711
 103  426.207
 104  482.6345
 105  459.1455
 106  412.2942
 107  458.3048
 108  470.0657
 109  558.8654
 110  453.3928
 111  417.8645
 112  512.6033
 113  523.2959
 114  471.2395
 115  502.5413
 116  472.7303
 117  456.5837
 118  475.1552
 119  415.2988
 120  419.6237
 121  396.9121
 122  392.9246
 123  421.6526
 124  470.6443
 125  356.3478
 126  414.6806
 127  586.7195
 128  503.3875
 129  429.6263
 130  492.1787
 131  647.2499
 132  505.5057
 133  477.9383
 134  459.6047
 135  406.8422
 136  535.1082
 137  488.668
 138  475.6182
 139  533.9307
 140  495.8197
 141  501.6811
 142  423.9446
 143  442.8412
 144  459.2641
 145  502.1426
 146  468.0585
 147  379.825
 148  466.3431
 149  457.5071
 150  411.6917
 151  327.8311
 152  413.2361
 153  446.2529
 154  503.4473
 155  438.6447
 156  428.9317
 157  429.4768
 158  402.6646
 159  428.1111
 160  413.9795
 161  442.2226
 162  414.9331
 163  368.196
 164  379.3293
 165  381.6746
 166  525.9276
 167  488.0876
 168  528.9601
 169  455.8283
 170  411.6422
 171  350.6646
 172  461.4461
 173  447.3905
 174  434.3046
 175  409.1013
 176  354.2226
 177  453.7635
 178  520.7414
 179  462.3891
 180  470.2749
 181  408.1418
 182  382.5706
 183  277.7164
 184  450.2389
 185  413.2032
 186  417.3019
 187  355.8082
 188  352.0938
 189  371.8178
 190  426.3024
 191  466.3073
 192  420.8936
 193  389.5289
 194  299.3692
 195  262.85
 196  227.3061
 197  306.7575
 198  418.0522
 199  462.9409
 200  435.5758
 201  441.1595
 202  408.127
 203  357.8449
 204  355.2798
 205  529.9742
 206  436.1137
 207  384.151
 208  415.8654
 209  431.5371
 210  499.8953
 211  506.4481
 212  478.7532
 213  528.3632
 214  631.5665
 215  510.7108
 216  542.3492
 217  432.4521
 218  393.4349
 219  393.3993
 220  360.7138
 221  435.0529
 222  451.23
 223  580.4014
 224  558.8162
 225  488.0767
 226  466.5769
 227  436.9649
 228  567.9625
 229  815.9662
 230  929.8438
 231  1029.038
 232  1010.384
 233  823.5812
 234  692.6378
 235  615.9851
 236  586.1998
 237  536.3598
 238  455.3314
 239  457.2121
 240  439.5293
 241  413.7397
 242  429.0403
 243  490.4578
 244  428.9471
 245  448.5732
 246  514.0814
 247  458.7758
 248  385.6745
 249  415.941
 250  507.1548
 251  541.3332
 252  473.5038
 253  379.2748
 254  318.3169
 255  386.5021
 256  460.0868
 257  396.2196
 258  347.0673
 259  384.8828
 260  476.0493
 261  450.1503
 262  463.4519
 263  575.9109
 264  529.5518
 265  502.6067
 266  584.0569
 267  604.527
 268  555.7493
 269  548.0772
 270  567.381
 271  526.8058
 272  487.2511
 273  466.35
 274  462.0542
 275  516.3442
 276  490.9004
 277  505.0899
 278  490.4994
 279  566.8561
 280  470.4053
 281  395.4757
 282  312.1411
 283  366.1957
 284  418.1537
 285  438.1411
 286  454.2812
 287  427.5099
 288  479.3945
 289  451.6388
 290  441.3142
 291  468.0023
 292  377.9661
 293  305.2296
 294  343.88
 295  326.8149
 296  273.6291
 297  341.1436
 298  387.934
 299  442.9674
 300  380.1227
 301  382.0169
 302  423.8652
 303  394.5093
 304  392.0631
 305  350.0736
 306  434.2136
 307  470.5664
 308  338.1327
 309  351.8316
 310  420.9082
 311  449.0146
 312  393.5639
 313  374.7781
 314  478.0355
 315  466.9642
 316  348.2169
 317  293.8893
 318  391.2463
 319  373.1963
 320  316.2018
 321  398.2062
 322  411.3609
 323  379.5677
 324  414.1721
 325  479.2103
 326  427.382
 327  331.5023
 328  400.5576
 329  450.5794
 330  452.6599
 331  521.9018
 332  533.9415
 333  415.9637
 334  328.7788
 335  478.8511
 336  398.546
 337  324.0439
 338  328.7167
 339  320.5261
 340  340.3782
 341  307.6938
 342  377.5122
 343  405.1516
 344  333.3112
 345  378.2719
 346  410.2903
 347  420.2877
 348  456.1699
 349  523.5396
 350  460.7829
 351  434.9149
 352  510.5597
 353  520.8051
 354  512.9055
 355  425.3906
 356  456.7941
 357  406.8336
 358  421.461
 359  396.6346
 360  482.5501
 361  518.9125
 362  409.4703
 363  434.4543
 364  433.1744
 365  441.6076
 366  446.1814
 367  473.0471
 368  412.55
 369  427.7358
 370  489.8254
 371  451.9502
 372  440.346
 373  521.8847
 374  405.4213
 375  444.5096
 376  314.89
 377  357.361
 378  467.2004
 379  509.4914
 380  460.3173
 381  483.8047
 382  487.707
 383  434.0217
 384  454.4634
 385  459.0562
 386  456.9963
 387  554.1608
 388  624.1703
 389  585.9164
 390  511.0587
 391  451.4376
 392  517.7495
 393  439.9707
 394  564.2681
 395  480.508
 396  476.2074
 397  602.2413
 398  458.7042
 399  439.7589
 400  481.2148
 401  438.8916
 402  421.8892
 403  380.9221
 404  368.8708
 405  402.6957
 406  424.2379
 407  521.5971
 408  495.4178
 409  462.7165
 410  441.7998
 411  511.1174
 412  416.3962
 413  434.2808
 414  528.5472
 415  543.5784
 416  396.5862
 417  432.0823
 418  471.4752
 419  550.684
 420  578.1292
 421  617.7115
 422  618.1249
 423  703.3055
 424  567.9056
 425  596.4363
 426  548.1011
 427  532.4854
 428  505.4973
 429  658.8979
 430  676.5918
 431  607.1577
 432  595.1349
 433  633.6638
 434  645.1537
 435  619.524
 436  561.1312
 437  596.0181
 438  537.7659
 439  504.2626
 440  607.434
 441  578.1727
 442  582.4694
 443  611.7231
 444  621.6605
 445  558.1231
 446  448.6276
 447  470.2595
 448  399.7909
 449  469.8409
 450  549.45
 451  496.0353
 452  432.4488
 453  472.752
 454  464.2042
 455  409.4996
 456  452.9382
 457  460.5259
 458  440.9249
 459  432.0938
 460  448.1405
 461  487.3802
 462  586.1899
 463  588.1941
 464  433.2001
 465  384.7539
 466  438.2363
 467  473.4544
 468  478.6617
 469  512.7181
 470  451.7766
 471  361.4433
 472  488.7715
 473  488.4568
 474  428.6345
 475  406.4499
 476  400.0974
 477  497.955
 478  400.7897
 479  360.9295
 480  384.0597
 481  407.782
 482  370.4584
 483  395.2941
 484  382.9801
 485  328.7485
 486  485.3103
 487  577.1611
 488  480.8697
 489  471.0734
 490  428.7472
 491  406.8846
 492  419.9628
 493  495.1928
 494  410.6559
 495  389.163
 496  418.8315
 497  402.164
 498  344.1952
 499  417.0347
 500  433.6523
 501  368.236
 502  435.7831
 503  469.9683
 504  461.933
 505  481.8336
 506  308.1859
 507  291.5825
 508  362.1826
 509  469.2715
 510  481.4373
 511  439.5183
