# Input file       =  1201260330.103407_cleaned.dat
# Candidate        =  PSR_0332+5434
# Telescope        =  AR
# Epoch_topo       =  58147.476262770913
# Epoch_bary       =  N/A
# T_sample         =  0.002
# Data Folded      =  7143424
# Data Avg         =  0.0184580350942337
# Data StdDev      =  1.00022205198933 
# Profile Bins     =  512
# Profile Avg      =  257.498010092888 
# Profile StdDev   =  118.144812948528 
# Reduced chi-sqr  =  1.875
# Prob(Noise)      <  1.34e-29   (~11.2 sigma)
# P_topo (ms)      =  714.574797522024  +/- 7.38e-05
# P'_topo (s/s)    =  -0                +/- 4e-11
# P''_topo (s/s^2) =  0                 +/- 1.81e-14
# P_bary (ms)      =  N/A
# P'_bary (s/s)    =  N/A
# P''_bary (s/s^2) =  N/A
# P_orb (s)        =  N/A
# asin(i)/c (s)    =  N/A
# eccentricity     =  N/A
# w (rad)          =  N/A
# T_peri           =  N/A
######################################################
   0  1046.17
   1  986.4382
   2  929.2878
   3  563.3478
   4  247.0479
   5  161.1286
   6  333.4934
   7  375.7401
   8  330.3171
   9  140.205
  10  146.1808
  11  162.2118
  12  179.0728
  13  203.3903
  14  268.9465
  15  260.9019
  16  182.4491
  17  216.0278
  18  174.2298
  19  243.387
  20  266.7425
  21  259.1921
  22  271.188
  23  201.0493
  24  147.5433
  25  269.1065
  26  265.1874
  27  338.1565
  28  352.4987
  29  306.3995
  30  222.9077
  31  240.4285
  32  275.9107
  33  211.1807
  34  121.9649
  35  356.6663
  36  430.1484
  37  316.7262
  38  250.5575
  39  255.9099
  40  257.7098
  41  181.816
  42  157.7181
  43  219.828
  44  270.8018
  45  265.3494
  46  260.5118
  47  310.2514
  48  355.0604
  49  182.8464
  50  169.3857
  51  148.6923
  52  257.0882
  53  367.0762
  54  287.3324
  55  272.489
  56  128.2007
  57  196.02
  58  232.8391
  59  101.8996
  60  175.452
  61  194.808
  62  229.6673
  63  242.1066
  64  303.6723
  65  322.7763
  66  376.1062
  67  334.6418
  68  330.3196
  69  259.897
  70  124.8354
  71  53.83471
  72  76.91058
  73  150.6165
  74  160.7082
  75  78.93128
  76  215.943
  77  166.1066
  78  237.5296
  79  368.6092
  80  316.2981
  81  292.1932
  82  293.1314
  83  229.3294
  84  177.6332
  85  127.1328
  86  140.3345
  87  189.4262
  88  251.1381
  89  353.7924
  90  234.667
  91  160.0955
  92  221.2223
  93  168.916
  94  90.96211
  95  177.2131
  96  294.7459
  97  229.4204
  98  191.4793
  99  75.97382
 100  223.1609
 101  324.6245
 102  377.8882
 103  313.6399
 104  405.5617
 105  451.1931
 106  295.2489
 107  263.4697
 108  358.0208
 109  291.8273
 110  183.1312
 111  130.061
 112  183.5554
 113  327.6407
 114  358.6945
 115  367.3891
 116  325.1139
 117  335.3867
 118  352.4353
 119  192.7466
 120  203.31
 121  293.0217
 122  305.3253
 123  125.5035
 124  280.2408
 125  249.4344
 126  118.4682
 127  243.2757
 128  281.0915
 129  355.8939
 130  325.8084
 131  252.3928
 132  272.0954
 133  130.4831
 134  135.1964
 135  261.7038
 136  204.4548
 137  323.2128
 138  364.4878
 139  263.8576
 140  274.6336
 141  200.9019
 142  182.8687
 143  213.3791
 144  221.7853
 145  335.5849
 146  336.1299
 147  296.5384
 148  302.8127
 149  258.9576
 150  207.7553
 151  275.9801
 152  233.1696
 153  238.0742
 154  212.2235
 155  159.0365
 156  277.871
 157  259.7748
 158  123.263
 159  204.6006
 160  360.8393
 161  326.2242
 162  377.8251
 163  393.1986
 164  211.1006
 165  271.1403
 166  193.7977
 167  209.0144
 168  185.3667
 169  289.0218
 170  306.5955
 171  319.7047
 172  376.3847
 173  257.2793
 174  128.2737
 175  41.7268
 176  205.7851
 177  313.7614
 178  395.9088
 179  374.0872
 180  313.2425
 181  307.7603
 182  248.43
 183  115.9166
 184  191.0398
 185  214.3126
 186  343.7207
 187  417.4836
 188  297.2596
 189  262.7591
 190  242.6596
 191  140.9226
 192  154.1652
 193  223.506
 194  327.6139
 195  301.7181
 196  158.5899
 197  223.5967
 198  88.08995
 199  164.0196
 200  273.4517
 201  285.4234
 202  295.761
 203  422.1378
 204  404.6204
 205  272.1653
 206  219.0469
 207  222.9928
 208  140.2761
 209  123.2574
 210  148.1112
 211  303.4892
 212  284.2663
 213  161.0075
 214  198.4674
 215  150.5111
 216  226.8003
 217  194.668
 218  140.7599
 219  408.7554
 220  324.7265
 221  201.5904
 222  261.4688
 223  193.6956
 224  198.0554
 225  116.9812
 226  202.9175
 227  252.7977
 228  323.4267
 229  274.3761
 230  181.4795
 231  93.70432
 232  48.95781
 233  344.5936
 234  368.8163
 235  243.0394
 236  232.0222
 237  145.3871
 238  221.9976
 239  270.2841
 240  151.6588
 241  185.8187
 242  128.407
 243  239.9828
 244  316.8805
 245  282.4094
 246  299.6187
 247  332.4506
 248  160.0386
 249  166.972
 250  256.6472
 251  225.6304
 252  155.0252
 253  332.0636
 254  333.8436
 255  296.5523
 256  253.8792
 257  108.1209
 258  110.6022
 259  46.74791
 260  104.1194
 261  377.4382
 262  485.5093
 263  420.0428
 264  157.6325
 265  188.3389
 266  264.7089
 267  151.1416
 268  129.3465
 269  231.2699
 270  183.7756
 271  6.111793
 272  57.47028
 273  100.2636
 274  137.0415
 275  392.7243
 276  386.9061
 277  366.9354
 278  404.4002
 279  333.9604
 280  154.3449
 281  218.8708
 282  329.6481
 283  335.5488
 284  388.1018
 285  312.6275
 286  382.1225
 287  287.6328
 288  324.4818
 289  365.5302
 290  247.4573
 291  295.4192
 292  290.7583
 293  225.5489
 294  224.5742
 295  349.1963
 296  267.9716
 297  271.8896
 298  253.4113
 299  182.2809
 300  168.6006
 301  155.3793
 302  309.482
 303  405.1897
 304  345.2589
 305  271.6456
 306  127.9196
 307  43.5067
 308  31.36965
 309  139.4752
 310  148.5829
 311  279.6618
 312  286.3097
 313  217.4884
 314  154.3882
 315  77.30952
 316  174.6503
 317  208.1021
 318  281.063
 319  335.56
 320  384.5496
 321  271.7446
 322  46.30761
 323  80.9341
 324  192.1933
 325  204.9521
 326  173.9987
 327  283.0991
 328  229.6067
 329  123.1805
 330  123.924
 331  233.5441
 332  237.6045
 333  155.277
 334  384.8578
 335  333.4668
 336  332.751
 337  189.7011
 338  221.4659
 339  271.1166
 340  126.2131
 341  263.2055
 342  320.6725
 343  231.3492
 344  350.059
 345  388.9792
 346  307.0597
 347  294.4682
 348  323.8003
 349  229.4269
 350  305.5376
 351  313.0671
 352  273.7885
 353  393.7076
 354  356.1922
 355  254.6963
 356  156.3451
 357  280.1454
 358  325.8339
 359  346.0237
 360  299.2771
 361  211.2036
 362  300.596
 363  188.0526
 364  22.4203
 365  154.6022
 366  250.2806
 367  272.6452
 368  234.2637
 369  343.1267
 370  298.5639
 371  238.22
 372  309.3906
 373  233.5844
 374  203.3376
 375  206.4142
 376  241.5099
 377  123.7172
 378  231.3927
 379  340.0681
 380  308.4645
 381  274.7984
 382  256.6113
 383  216.7032
 384  301.9021
 385  437.1258
 386  317.3013
 387  276.8602
 388  166.1641
 389  282.4939
 390  342.8618
 391  200.1959
 392  142.8801
 393  372.8893
 394  439.8287
 395  334.5534
 396  224.2196
 397  186.4445
 398  187.251
 399  284.3875
 400  184.041
 401  149.8477
 402  306.7146
 403  400.9979
 404  417.316
 405  192.7222
 406  143.5837
 407  243.7918
 408  70.21931
 409  63.06633
 410  286.0832
 411  291.3247
 412  237.7926
 413  172.6394
 414  106.6
 415  213.1717
 416  356.1433
 417  311.3497
 418  323.2063
 419  241.2981
 420  193.7394
 421  264.028
 422  172.857
 423  226.9783
 424  421.4564
 425  367.823
 426  412.8173
 427  406.7804
 428  346.5199
 429  269.6621
 430  277.8664
 431  81.12505
 432  69.6302
 433  276.2109
 434  337.3991
 435  282.8057
 436  253.2764
 437  110.921
 438  208.7566
 439  199.0517
 440  95.36908
 441  79.82089
 442  311.7314
 443  399.0039
 444  388.9277
 445  224.4186
 446  301.7971
 447  164.7715
 448  247.933
 449  392.343
 450  154.8288
 451  218.1152
 452  220.928
 453  123.7697
 454  224.6141
 455  204.0684
 456  291.3745
 457  342.7181
 458  379.7166
 459  258.4883
 460  181.251
 461  207.5756
 462  218.1882
 463  165.7807
 464  178.8715
 465  109.2831
 466  153.1281
 467  273.7462
 468  301.5831
 469  237.1382
 470  100.8454
 471  153.0255
 472  184.5958
 473  147.4738
 474  119.6653
 475  359.8899
 476  346.7906
 477  346.7299
 478  275.9307
 479  161.8623
 480  248.9311
 481  347.014
 482  239.3808
 483  240.5546
 484  282.7287
 485  317.7819
 486  256.4523
 487  220.2027
 488  271.5105
 489  192.6539
 490  200.2753
 491  381.5732
 492  507.7613
 493  526.1552
 494  437.8464
 495  297.3578
 496  338.8789
 497  355.2791
 498  382.1204
 499  324.1305
 500  285.1917
 501  324.1698
 502  344.8025
 503  280.6285
 504  173.9648
 505  257.0706
 506  220.4125
 507  308.1718
 508  586.1774
 509  729.7346
 510  877.847
 511  973.7697
