# Input file       =  1201964296.100175_cleaned.dat
# Candidate        =  PSR_0332+5434
# Telescope        =  AR
# Epoch_topo       =  58155.624017363138
# Epoch_bary       =  N/A
# T_sample         =  0.002
# Data Folded      =  7340032
# Data Avg         =  0.185612347909357
# Data StdDev      =  7.16108947696701 
# Profile Bins     =  512
# Profile Avg      =  2660.66623527552 
# Profile StdDev   =  857.418986842968 
# Reduced chi-sqr  =  0.821
# Prob(Noise)      <  0.999   (~0.0 sigma)
# P_topo (ms)      =  714.577961160395  +/- 0.000586
# P'_topo (s/s)    =  -0                +/- 3.09e-10
# P''_topo (s/s^2) =  0                 +/- 1.37e-13
# P_bary (ms)      =  N/A
# P'_bary (s/s)    =  N/A
# P''_bary (s/s^2) =  N/A
# P_orb (s)        =  N/A
# asin(i)/c (s)    =  N/A
# eccentricity     =  N/A
# w (rad)          =  N/A
# T_peri           =  N/A
######################################################
   0  2257.347
   1  2711.981
   2  2841.965
   3  2538.322
   4  3060.689
   5  2770.459
   6  2475.154
   7  2516.207
   8  2598.214
   9  2667.604
  10  2373.415
  11  2727.775
  12  2549.645
  13  2440.162
  14  2892.97
  15  2863.437
  16  3204.872
  17  2484.152
  18  2961.111
  19  3019.713
  20  3192.579
  21  2542.9
  22  2895.927
  23  3291.121
  24  2759.325
  25  2562.147
  26  3018.279
  27  2731.677
  28  2517.271
  29  1864.106
  30  2309.428
  31  2651.909
  32  2358.021
  33  2095.979
  34  1589.164
  35  1746.036
  36  1419.538
  37  1853.542
  38  2242.771
  39  1767.157
  40  1792.364
  41  2193.918
  42  1882.18
  43  2264.942
  44  2026.293
  45  2589.901
  46  2289.654
  47  2264.52
  48  2424.103
  49  2057.791
  50  2260.911
  51  2778.166
  52  2514.245
  53  1920.171
  54  2134.649
  55  2564.849
  56  2989.033
  57  2459.8
  58  2468.884
  59  2554.505
  60  1877.278
  61  2455.734
  62  2505.173
  63  2962.583
  64  3427.677
  65  3275.559
  66  3291.099
  67  2488.028
  68  2202.91
  69  2624.763
  70  3294.951
  71  2746.173
  72  3478.518
  73  2749.303
  74  1999.595
  75  2276.875
  76  2760.758
  77  2933.094
  78  3004.235
  79  3506.128
  80  3347.411
  81  3296.336
  82  3230.961
  83  3241.645
  84  3283.712
  85  3064.838
  86  3398.222
  87  3087.258
  88  3063.029
  89  2784.096
  90  2715.83
  91  3212.419
  92  3481.175
  93  3289.258
  94  2985.78
  95  2858.24
  96  2783.802
  97  2897.916
  98  3197.623
  99  3218.589
 100  2994.993
 101  2307.676
 102  2778.9
 103  2786.824
 104  3132.456
 105  3363.795
 106  3220.868
 107  3394.269
 108  3000.702
 109  2871.316
 110  2519.024
 111  2832.391
 112  2740.102
 113  2938.772
 114  2704.735
 115  2440.885
 116  2971.715
 117  2080.847
 118  1957.509
 119  2226.787
 120  1656.801
 121  1545.369
 122  1806.325
 123  2227.598
 124  2387.418
 125  2064.683
 126  2164.617
 127  2236.899
 128  2471.694
 129  2691.78
 130  2623.041
 131  1952.082
 132  1851.371
 133  1774.326
 134  2229.18
 135  2199.119
 136  1947.729
 137  2434.567
 138  2860.299
 139  2692.969
 140  2391.46
 141  2132.796
 142  1805.361
 143  2467.278
 144  2759.973
 145  2531.744
 146  2234.877
 147  2101.873
 148  2606.249
 149  3114.368
 150  3635.349
 151  3330.106
 152  2985.77
 153  2948.215
 154  2871.749
 155  2973.002
 156  3051.854
 157  2830.054
 158  3106.164
 159  3282.816
 160  2943.581
 161  2742.981
 162  2821.081
 163  3153.98
 164  3403.608
 165  3668.664
 166  3564.881
 167  2947.724
 168  2608.033
 169  3190.615
 170  3113.982
 171  2502.903
 172  2875.365
 173  2974.189
 174  2640.766
 175  2414.967
 176  2251.348
 177  2701.031
 178  2593.535
 179  3149.269
 180  2747.171
 181  2277.388
 182  1872.504
 183  2736.735
 184  3235.667
 185  2796.194
 186  3060.506
 187  3022.983
 188  3042.149
 189  2309.074
 190  2327.133
 191  2874.649
 192  3714.094
 193  3191.166
 194  3483.737
 195  3288.926
 196  2468.282
 197  2472.847
 198  2885.744
 199  2630.741
 200  2330.465
 201  2177.55
 202  2424.725
 203  2430.757
 204  2258.766
 205  2203.737
 206  1994.515
 207  2772.187
 208  2577.622
 209  2304.144
 210  2749.45
 211  2649.169
 212  2762.074
 213  2440.683
 214  2722.749
 215  3445.67
 216  3098.927
 217  2543.522
 218  2350.187
 219  2885.812
 220  2927.623
 221  2950.924
 222  3181.802
 223  3222.129
 224  3281.471
 225  3066.279
 226  3071.755
 227  3636.454
 228  3012.49
 229  3571.707
 230  3459.918
 231  3414.943
 232  3262.528
 233  3197.081
 234  3458.206
 235  3081.603
 236  2734.923
 237  3020.636
 238  2781.24
 239  2529.933
 240  2496.254
 241  3087.131
 242  2718.205
 243  2078.406
 244  2604.864
 245  2608.066
 246  2904.018
 247  2648.139
 248  2739.09
 249  2059.428
 250  1958.074
 251  2554.361
 252  2527.28
 253  2481.729
 254  2717.208
 255  2515.212
 256  2401.219
 257  2022.935
 258  3007.038
 259  3032.794
 260  2867.573
 261  2941.139
 262  2949.497
 263  3209.691
 264  3343.909
 265  3431.116
 266  2961.341
 267  2459.854
 268  2403.366
 269  2401.967
 270  2637.445
 271  2161.161
 272  2346.72
 273  2343.022
 274  2610.187
 275  2128.23
 276  2425.437
 277  3413.284
 278  2690.096
 279  2210.854
 280  2511.142
 281  2427.438
 282  2330.471
 283  2764.131
 284  2631.788
 285  2407.255
 286  1379.416
 287  1985.406
 288  1433.869
 289  1734.83
 290  2212.452
 291  2378.087
 292  1808.93
 293  1989.041
 294  1711.802
 295  2024.551
 296  1692.015
 297  2104.291
 298  2364.769
 299  2526.553
 300  2727.139
 301  3180.048
 302  3057.586
 303  2746.776
 304  3200.514
 305  2672.385
 306  2743.821
 307  3087.294
 308  3107.77
 309  2987.893
 310  2960.844
 311  3299.419
 312  2904.924
 313  3298.927
 314  2386.313
 315  2556.379
 316  3348.185
 317  3547.826
 318  2878.091
 319  3084.282
 320  2891.637
 321  3317.377
 322  3526.259
 323  3563.177
 324  3114.071
 325  2489.929
 326  2511.854
 327  2583.853
 328  2422.084
 329  1939.505
 330  3208.104
 331  3499.845
 332  2687.459
 333  2178.756
 334  2479.64
 335  2532.616
 336  2489.551
 337  2090.35
 338  2312.565
 339  2527.346
 340  2891.743
 341  3211.842
 342  2882.712
 343  2211.441
 344  2470.276
 345  2627.022
 346  3155.341
 347  2296.142
 348  2034.333
 349  2624.477
 350  2914.929
 351  3215.508
 352  3309.961
 353  2556.67
 354  2128.104
 355  2317.84
 356  3471.866
 357  3734.833
 358  3769.2
 359  4845.387
 360  4507.244
 361  3953.611
 362  3556.451
 363  3285.373
 364  3477.869
 365  3950.102
 366  3992.869
 367  4170.882
 368  3695.638
 369  3579.854
 370  4007.534
 371  4099.122
 372  4054.679
 373  4383.36
 374  4309.294
 375  3814.636
 376  3265.396
 377  3421.727
 378  3222.704
 379  3163.756
 380  3092.303
 381  3241.124
 382  3159.445
 383  2890.595
 384  3281.138
 385  3805.752
 386  2770.308
 387  2820.579
 388  3003.567
 389  2521.11
 390  2777.831
 391  2684.617
 392  3487.215
 393  3272.97
 394  3315.081
 395  3765.232
 396  2819.094
 397  2722.3
 398  2403.793
 399  3571.944
 400  3271.617
 401  2864.405
 402  2617.786
 403  2618.805
 404  2332.319
 405  2170.876
 406  2469.029
 407  2666.493
 408  2756.083
 409  2780.378
 410  2601.411
 411  2446.922
 412  2772.21
 413  3451.645
 414  2893.647
 415  2285.533
 416  2361.927
 417  1957.631
 418  2352.333
 419  2763.462
 420  2626.471
 421  2911.173
 422  3044.537
 423  2877.269
 424  2102.184
 425  1775.429
 426  1523.781
 427  1980.056
 428  2450.573
 429  1601.72
 430  1629.764
 431  2056.901
 432  2161.383
 433  2459.679
 434  2006.693
 435  1800.384
 436  1574.268
 437  2416.214
 438  2212.455
 439  1827.684
 440  2378.548
 441  2385.574
 442  2487.908
 443  2432.052
 444  2149.747
 445  2488.092
 446  2579.104
 447  2746.667
 448  3161.676
 449  2742.598
 450  2537.317
 451  1926.501
 452  2608.3
 453  2616.577
 454  1880.201
 455  2025.026
 456  2681.012
 457  2803.143
 458  2126.404
 459  1581.59
 460  2299.201
 461  2998.629
 462  2937.157
 463  2746.466
 464  2343.59
 465  1980.626
 466  2641.67
 467  2576.598
 468  2306.736
 469  2708.578
 470  2731.217
 471  2928.528
 472  2317.116
 473  2011.481
 474  2009.478
 475  1841.224
 476  2459.304
 477  2734.408
 478  2383.463
 479  2199.97
 480  2534.936
 481  2061.43
 482  1538.025
 483  1493.135
 484  1805.976
 485  1772.512
 486  1281.339
 487  1529.818
 488  1417.648
 489  1115.659
 490  1576.437
 491  1590.182
 492  1461.553
 493  1427.021
 494  1943.602
 495  1949.499
 496  1837.853
 497  2411.593
 498  2669.893
 499  2627.926
 500  2078.581
 501  1948.782
 502  1578.582
 503  2343.229
 504  2282.489
 505  2079.343
 506  2346.089
 507  2327.666
 508  2689.414
 509  2482.814
 510  2372.122
 511  2050.099
