# Input file       =  1201289859.116976_cleaned.dat
# Candidate        =  PSR_0332+5434
# Telescope        =  AR
# Epoch_topo       =  58147.818033761294
# Epoch_bary       =  N/A
# T_sample         =  0.002
# Data Folded      =  7340032
# Data Avg         =  0.0649287345222549
# Data StdDev      =  3.1207568051385  
# Profile Bins     =  256
# Profile Avg      =  1861.64104453911 
# Profile StdDev   =  528.431770157371 
# Reduced chi-sqr  =  1.163
# Prob(Noise)      <  0.0375   (~1.8 sigma)
# P_topo (ms)      =  714.575305633459  +/- 0.000653
# P'_topo (s/s)    =  -0                +/- 3.45e-10
# P''_topo (s/s^2) =  0                 +/- 1.52e-13
# P_bary (ms)      =  N/A
# P'_bary (s/s)    =  N/A
# P''_bary (s/s^2) =  N/A
# P_orb (s)        =  N/A
# asin(i)/c (s)    =  N/A
# eccentricity     =  N/A
# w (rad)          =  N/A
# T_peri           =  N/A
######################################################
   0  1425.048
   1  1720.241
   2  1309.813
   3  1590.145
   4  1499.226
   5  2338.646
   6  2117.479
   7  2075.625
   8  1859.895
   9  2184.057
  10  1968.787
  11  1602.396
  12  931.8859
  13  1474.408
  14  1551.329
  15  895.4757
  16  1282.77
  17  1740.261
  18  1747.181
  19  1285.371
  20  1643.21
  21  1754.42
  22  2364.227
  23  1983.636
  24  1607.721
  25  1379.042
  26  2504.586
  27  2031.533
  28  1417.678
  29  1807.054
  30  2139.865
  31  1747.596
  32  2681.462
  33  1247.659
  34  1793.873
  35  1383.004
  36  1730.947
  37  1420.051
  38  2293.597
  39  2785.141
  40  2367.728
  41  2051.062
  42  1511.507
  43  2162.954
  44  2130.009
  45  1944.907
  46  1298.104
  47  1649.802
  48  1922.265
  49  1255.731
  50  1530.881
  51  1183.497
  52  1881.557
  53  1366.468
  54  1506.131
  55  2428.876
  56  1895.976
  57  2136.333
  58  1194.945
  59  1595.091
  60  1994.013
  61  1642.495
  62  1827.903
  63  1808.165
  64  1556.719
  65  1856.223
  66  2129.215
  67  1969.694
  68  2020.722
  69  2094.013
  70  1591.43
  71  2114.738
  72  2409.924
  73  2404.079
  74  2278.172
  75  2817.062
  76  2451.148
  77  2503.453
  78  2193.381
  79  1941.964
  80  1992.392
  81  1743.323
  82  2028.265
  83  1876.118
  84  2336.212
  85  2589.436
  86  2042.227
  87  2780.166
  88  2159.358
  89  1821.404
  90  2273.85
  91  1681.712
  92  1367.296
  93  2206.519
  94  1973.513
  95  1889.609
  96  1907.924
  97  1536.777
  98  1955.644
  99  1681.911
 100  1804.666
 101  1343.375
 102  1881.534
 103  1504.52
 104  1443.578
 105  1543.925
 106  1722.482
 107  2489.034
 108  1849.388
 109  1932.987
 110  2006.248
 111  2170.795
 112  2104.648
 113  2297.849
 114  2398.876
 115  1827.176
 116  1839.692
 117  2373.884
 118  2677.095
 119  2129.379
 120  2464.25
 121  1864.012
 122  1738.727
 123  1838.678
 124  2939.061
 125  2362.322
 126  2030.703
 127  1463.794
 128  1929.26
 129  2141.661
 130  1434.499
 131  1635.144
 132  1040.36
 133  2073.083
 134  1486.758
 135  1428.81
 136  1990.235
 137  1772.451
 138  1853.806
 139  1986.387
 140  1018.494
 141  1469.242
 142  1925.271
 143  2872.587
 144  2800.484
 145  2738.788
 146  2296.292
 147  2033.436
 148  2238.257
 149  1942.758
 150  3034.939
 151  2811.032
 152  3238.278
 153  5154.445
 154  4149.252
 155  2675.209
 156  2173.657
 157  1764.542
 158  2409.78
 159  1973.897
 160  2473.912
 161  2080.041
 162  1383.486
 163  1319.736
 164  1428.478
 165  2086.416
 166  1759.565
 167  1804.048
 168  2058.82
 169  2277.247
 170  1865.853
 171  835.3008
 172  1364.185
 173  1122.066
 174  1535.211
 175  2228.755
 176  1423.141
 177  1247.479
 178  1869.198
 179  2158.052
 180  1829.306
 181  1706.363
 182  1883.591
 183  1713.181
 184  1607.418
 185  2085.883
 186  1733.436
 187  1659.387
 188  1407.771
 189  1777.205
 190  1587.596
 191  1615.655
 192  1962.517
 193  2032.542
 194  1783.081
 195  1500.121
 196  1299.984
 197  1535.115
 198  871.6077
 199  1661.795
 200  1877.885
 201  1281.212
 202  1573.678
 203  1989.689
 204  1653.828
 205  1364.107
 206  1237.662
 207  1497.628
 208  1565.607
 209  1810.773
 210  2075.084
 211  1578.982
 212  1543.25
 213  1437.097
 214  1780.984
 215  1991
 216  2620.893
 217  1996.611
 218  2221.978
 219  1756.018
 220  2220.442
 221  1638.598
 222  803.2996
 223  1960.028
 224  2035.549
 225  1040.202
 226  1486.887
 227  1201.862
 228  1855.524
 229  1880.01
 230  1857.426
 231  2054.643
 232  1631.799
 233  1123.651
 234  1317.996
 235  1837.942
 236  1641.238
 237  1817.514
 238  1803.482
 239  1628.106
 240  1047.329
 241  1877.505
 242  2000.18
 243  1477.977
 244  1500.763
 245  1793.955
 246  2073.594
 247  1122.666
 248  1574.488
 249  2231.307
 250  1718.583
 251  1880.808
 252  1431.435
 253  1811.458
 254  1757.019
 255  1702.227
