# Input file       =  1201376082.115093_cleaned.dat
# Candidate        =  PSR_0332+5434
# Telescope        =  AR
# Epoch_topo       =  58148.815985128393
# Epoch_bary       =  N/A
# T_sample         =  0.002
# Data Folded      =  7340032
# Data Avg         =  0.0229321305344219
# Data StdDev      =  1.00007559758771 
# Profile Bins     =  512
# Profile Avg      =  328.777955375766 
# Profile StdDev   =  119.742087905485 
# Reduced chi-sqr  =  1.337
# Prob(Noise)      <  4.76e-07   (~4.9 sigma)
# P_topo (ms)      =  714.575743272235  +/- 0.000221
# P'_topo (s/s)    =  -0                +/- 1.17e-10
# P''_topo (s/s^2) =  0                 +/- 5.14e-14
# P_bary (ms)      =  N/A
# P'_bary (s/s)    =  N/A
# P''_bary (s/s^2) =  N/A
# P_orb (s)        =  N/A
# asin(i)/c (s)    =  N/A
# eccentricity     =  N/A
# w (rad)          =  N/A
# T_peri           =  N/A
######################################################
   0  357.0974
   1  328.6929
   2  373.0783
   3  526.7689
   4  453.2905
   5  219.1513
   6  178.0982
   7  353.562
   8  418.9757
   9  328.4379
  10  442.0503
  11  440.2397
  12  389.4857
  13  345.2466
  14  276.7286
  15  312.5545
  16  244.7757
  17  313.0897
  18  353.9487
  19  295.2688
  20  290.1148
  21  253.2628
  22  193.7572
  23  191.3754
  24  143.9894
  25  129.6796
  26  217.7732
  27  203.9419
  28  349.2188
  29  380.1225
  30  375.4104
  31  281.3332
  32  307.7998
  33  319.4198
  34  328.054
  35  335.6796
  36  397.7315
  37  450.4087
  38  433.0999
  39  368.5466
  40  341.0546
  41  331.4957
  42  333.1935
  43  293.8745
  44  290.4125
  45  319.8809
  46  265.8335
  47  230.5371
  48  214.7865
  49  98.59591
  50  300.8054
  51  385.531
  52  325.4155
  53  262.8112
  54  335.7648
  55  458.2107
  56  430.9265
  57  380.358
  58  403.5083
  59  424.5295
  60  380.2654
  61  292.4514
  62  323.2752
  63  409.1833
  64  321.8391
  65  275.587
  66  260.6179
  67  206.8998
  68  320.0164
  69  422.5815
  70  302.8893
  71  233.6484
  72  216.3298
  73  104.8828
  74  183.2505
  75  304.3376
  76  436.1427
  77  290.175
  78  360.3385
  79  308.407
  80  428.2074
  81  359.1949
  82  256.6519
  83  281.7535
  84  290.7919
  85  212.9588
  86  114.9297
  87  258.9856
  88  402.2228
  89  245.5361
  90  150.0377
  91  239.1017
  92  364.2849
  93  325.7776
  94  295.8154
  95  367.6985
  96  347.5276
  97  274.2429
  98  135.2642
  99  233.0916
 100  298.4161
 101  229.5094
 102  233.355
 103  334.7186
 104  344.5858
 105  337.5445
 106  249.7875
 107  346.8705
 108  339.3259
 109  325.7791
 110  371.2571
 111  407.7549
 112  272.2621
 113  331.7949
 114  277.4951
 115  289.7379
 116  244.5163
 117  236.879
 118  256.5121
 119  238.8348
 120  235.6921
 121  241.3212
 122  340.8634
 123  355.3386
 124  323.7227
 125  256.9863
 126  328.1494
 127  423.2851
 128  410.3069
 129  317.7393
 130  292.1233
 131  332.8037
 132  353.9726
 133  381.4064
 134  381.3043
 135  426.2279
 136  348.5425
 137  336.1135
 138  420.979
 139  463.2496
 140  347.4368
 141  289.8694
 142  294.1078
 143  328.7784
 144  369.1672
 145  391.3808
 146  526.7092
 147  454.0554
 148  367.9934
 149  322.8241
 150  331.3168
 151  391.4304
 152  401.9507
 153  373.2058
 154  346.7682
 155  330.6082
 156  243.186
 157  323.7448
 158  293.2318
 159  175.2783
 160  291.6126
 161  312.4442
 162  333.4233
 163  400.9017
 164  394.1295
 165  396.6794
 166  313.0178
 167  391.2987
 168  419.1182
 169  593.3335
 170  412.2198
 171  450.834
 172  460.9062
 173  381.0888
 174  428.3883
 175  347.407
 176  378.6955
 177  316.9695
 178  354.0486
 179  398.8061
 180  299.6447
 181  270.981
 182  314.6741
 183  354.6123
 184  339.8699
 185  289.6325
 186  234.4643
 187  335.8129
 188  302.286
 189  331.4339
 190  345.4627
 191  277.8344
 192  226.188
 193  341.2963
 194  322.9328
 195  358.1304
 196  405.1006
 197  238.7889
 198  190.8354
 199  460.1897
 200  392.0638
 201  229.3075
 202  354.0472
 203  457.9915
 204  414.6815
 205  296.9201
 206  334.4476
 207  360.2809
 208  314.0416
 209  424.2134
 210  488.5962
 211  318.9853
 212  302.544
 213  300.4791
 214  290.1783
 215  281.926
 216  353.1357
 217  338.1344
 218  367.1023
 219  353.5725
 220  226.4652
 221  357.9899
 222  280.4123
 223  181.5638
 224  210.0835
 225  310.9487
 226  310.2691
 227  258.7799
 228  286.0986
 229  120.1453
 230  142.2749
 231  204.3275
 232  228.95
 233  269.9468
 234  215.3175
 235  341.2939
 236  286.5035
 237  227.8743
 238  317.5049
 239  282.9689
 240  343.6894
 241  354.2002
 242  370.5061
 243  329.1812
 244  222.1533
 245  254.5105
 246  414.7445
 247  314.7414
 248  394.4705
 249  347.5197
 250  367.4336
 251  380.08
 252  354.128
 253  277.5723
 254  282.7695
 255  338.4801
 256  284.3376
 257  363.8176
 258  355.0876
 259  387.7212
 260  476.9635
 261  367.0069
 262  244.6357
 263  312.0756
 264  334.2936
 265  334.1657
 266  269.2227
 267  259.6288
 268  234.017
 269  355.4465
 270  450.4881
 271  462.3383
 272  462.9756
 273  609.4685
 274  755.2956
 275  902.6024
 276  1004.94
 277  1110.793
 278  936.8973
 279  641.8786
 280  285
 281  341.827
 282  425.2611
 283  484.1405
 284  379.2013
 285  447.9324
 286  394.5768
 287  469.9181
 288  533.2225
 289  460.9488
 290  362.8969
 291  295.6082
 292  386.7705
 293  357.3037
 294  429.9541
 295  270.0665
 296  356.8367
 297  383.3259
 298  348.7154
 299  208.6091
 300  261.6034
 301  310.7675
 302  417.025
 303  349.1651
 304  330.8958
 305  316.0675
 306  354.315
 307  425.2246
 308  392.0174
 309  359.1062
 310  312.8554
 311  267.0316
 312  307.231
 313  321.339
 314  238.8352
 315  200.1847
 316  165.8934
 317  217.1113
 318  310.1822
 319  305.375
 320  354.011
 321  369.6255
 322  322.6922
 323  350.3678
 324  318.4192
 325  323.8187
 326  210.709
 327  180.077
 328  202.6916
 329  298.5577
 330  313.8364
 331  305.5135
 332  338.4158
 333  330.3013
 334  335.6595
 335  275.6733
 336  202.4187
 337  299.9538
 338  314.1292
 339  269.2953
 340  239.0187
 341  285.3748
 342  351.8835
 343  250.0812
 344  371.0314
 345  531.8591
 346  393.4333
 347  374.5728
 348  362.0018
 349  356.7301
 350  284.282
 351  294.3791
 352  359.453
 353  312.5505
 354  321.8065
 355  391.9772
 356  244.4739
 357  260.931
 358  370.2238
 359  378.5739
 360  266.8672
 361  230.6874
 362  346.9962
 363  502.7654
 364  337.4901
 365  303.265
 366  343.3541
 367  274.4061
 368  292.2692
 369  309.8997
 370  335.2472
 371  192.9096
 372  239.8717
 373  301.5016
 374  344.5981
 375  272.9281
 376  219.7387
 377  316.7204
 378  247.73
 379  160.8619
 380  186.5549
 381  265.592
 382  229.0638
 383  246.9799
 384  240.0083
 385  344.9596
 386  371.8413
 387  236.8346
 388  175.6538
 389  235.4307
 390  240.129
 391  312.5461
 392  316.0401
 393  267.1288
 394  314.2398
 395  270.5562
 396  268.8458
 397  260.089
 398  337.3861
 399  314.1137
 400  392.4657
 401  374.3066
 402  411.2686
 403  354.9417
 404  375.1238
 405  314.4194
 406  305.3851
 407  310.6734
 408  379.0972
 409  394.2521
 410  323.5167
 411  402.0663
 412  402.3636
 413  372.6606
 414  213.7369
 415  364.0793
 416  427.0182
 417  301.3049
 418  307.885
 419  393.2384
 420  344.4706
 421  304.6597
 422  266.8144
 423  234.9969
 424  261.731
 425  325.4796
 426  349.0529
 427  359.2251
 428  314.1222
 429  181.7704
 430  227.7548
 431  204.6692
 432  257.22
 433  389.4866
 434  416.0919
 435  287.2756
 436  340.5822
 437  280.0947
 438  111.6528
 439  257.4637
 440  314.2511
 441  214.6123
 442  197.6656
 443  339.0362
 444  456.0894
 445  284.8383
 446  425.7482
 447  372.4016
 448  332.5154
 449  306.2823
 450  459.5256
 451  390.4964
 452  339.8119
 453  245.4218
 454  199.6291
 455  379.6562
 456  417.9506
 457  321.6784
 458  322.8657
 459  343.7491
 460  423.7735
 461  274.5743
 462  272.6488
 463  326.5841
 464  323.2404
 465  411.5041
 466  374.0987
 467  366.0538
 468  348.5303
 469  334.8274
 470  277.6774
 471  165.7299
 472  315.1779
 473  404.2403
 474  336.6841
 475  223.2897
 476  234.1567
 477  309.8989
 478  369.5167
 479  372.2171
 480  305.6934
 481  272.3139
 482  516.8156
 483  513.0021
 484  351.3314
 485  429.0991
 486  436.3355
 487  362.8596
 488  284.5405
 489  200.806
 490  209.712
 491  388.581
 492  413.9353
 493  381.5433
 494  387.6235
 495  361.2087
 496  191.6264
 497  213.6971
 498  312.7854
 499  338.8704
 500  231.2945
 501  276.1861
 502  426.6886
 503  348.0963
 504  215.9298
 505  259.9885
 506  361.0307
 507  433.3756
 508  407.0084
 509  329.728
 510  226.5985
 511  257.4673
