# Input file       =  1201031938.106413_cleaned.dat
# Candidate        =  PSR_0332+5434
# Telescope        =  AR
# Epoch_topo       =  58144.832836879781
# Epoch_bary       =  N/A
# T_sample         =  0.002
# Data Folded      =  7340032
# Data Avg         =  0.0454361139917247
# Data StdDev      =  3.55686606378185 
# Profile Bins     =  1024
# Profile Avg      =  325.725369426426 
# Profile StdDev   =  301.138657649023 
# Reduced chi-sqr  =  0.657
# Prob(Noise)      <  1   (~0.0 sigma)
# P_topo (ms)      =  714.573921290458  +/- 0.000212
# P'_topo (s/s)    =  -0                +/- 1.12e-10
# P''_topo (s/s^2) =  0                 +/- 4.95e-14
# P_bary (ms)      =  N/A
# P'_bary (s/s)    =  N/A
# P''_bary (s/s^2) =  N/A
# P_orb (s)        =  N/A
# asin(i)/c (s)    =  N/A
# eccentricity     =  N/A
# w (rad)          =  N/A
# T_peri           =  N/A
######################################################
   0  401.1082
   1  374.5032
   2  449.9588
   3  432.1611
   4  361.598
   5  350.5579
   6  423.4653
   7  501.5291
   8  535.545
   9  550.7853
  10  592.5597
  11  496.3292
  12  476.8782
  13  391.8506
  14  335.136
  15  407.8371
  16  479.8957
  17  649.3741
  18  635.995
  19  593.6239
  20  421.6033
  21  283.8976
  22  327.9081
  23  397.3758
  24  482.6792
  25  466.6939
  26  474.4466
  27  403.0984
  28  361.3616
  29  269.3492
  30  388.0785
  31  450.5979
  32  521.2371
  33  641.4261
  34  630.9675
  35  565.4526
  36  353.821
  37  321.6963
  38  324.9116
  39  297.1212
  40  362.5218
  41  424.6158
  42  497.4753
  43  380.207
  44  473.1401
  45  490.9402
  46  462.6105
  47  321.5109
  48  344.0139
  49  397.2882
  50  348.5451
  51  299.8145
  52  365.8392
  53  334.1415
  54  246.0374
  55  260.6659
  56  304.1364
  57  255.8846
  58  243.7948
  59  368.3725
  60  477.7155
  61  419.6049
  62  407.898
  63  296.0227
  64  350.4321
  65  296.2131
  66  394.5234
  67  413.8397
  68  405.3405
  69  426.2998
  70  267.5613
  71  255.6922
  72  294.5844
  73  235.8566
  74  236.1266
  75  229.3125
  76  388.2149
  77  401.6281
  78  409.9331
  79  388.7903
  80  419.3635
  81  507.3972
  82  534.4558
  83  412.5147
  84  277.5995
  85  374.7336
  86  419.4807
  87  385.2715
  88  306.8959
  89  283.7871
  90  301.9151
  91  320.5608
  92  355.8893
  93  399.5577
  94  370.7185
  95  507.609
  96  546.3314
  97  486.5746
  98  344.5949
  99  269.7645
 100  254.843
 101  362.2366
 102  439.3141
 103  479.3463
 104  432.1927
 105  384.5627
 106  409.5354
 107  373.4059
 108  336.5476
 109  394.3917
 110  303.1377
 111  323.5566
 112  197.3765
 113  161.8794
 114  214.4756
 115  345.1586
 116  345.6211
 117  222.0104
 118  136.1389
 119  393.646
 120  576.4043
 121  595.2741
 122  483.4051
 123  359.2938
 124  327.9659
 125  250.635
 126  330.7787
 127  427.9686
 128  374.476
 129  220.0826
 130  51.95649
 131  185.1967
 132  257.1872
 133  365.8016
 134  320.8765
 135  359.9081
 136  339.9319
 137  286.424
 138  205.659
 139  105.9043
 140  39.4348
 141  112.7507
 142  149.3736
 143  226.4634
 144  38.88608
 145  21.84259
 146  20.32681
 147  231.1735
 148  274.1185
 149  202.0825
 150  251.8364
 151  279.461
 152  266.7258
 153  136.9048
 154  140.739
 155  205.3013
 156  195.8698
 157  290.4065
 158  416.4987
 159  442.711
 160  406.3105
 161  419.7161
 162  477.2705
 163  486.7585
 164  404.8243
 165  389.4839
 166  389.3934
 167  433.3306
 168  496.364
 169  503.4996
 170  364.653
 171  151.0058
 172  2.559956
 173  135.0083
 174  246.6448
 175  207.8362
 176  255.7247
 177  264.9983
 178  287.5111
 179  205.5444
 180  222.0912
 181  204.2725
 182  209.4756
 183  193.4853
 184  280.1281
 185  308.2824
 186  245.2421
 187  267.0572
 188  254.0355
 189  254.6961
 190  240.6285
 191  184.1663
 192  143.2724
 193  78.88226
 194  144.5749
 195  202.6613
 196  215.1743
 197  212.1819
 198  225.8438
 199  233.6808
 200  251.2622
 201  229.3034
 202  256.2083
 203  217.4136
 204  162.44
 205  62.32225
 206  137.6117
 207  81.78689
 208  240.8042
 209  259.3015
 210  367.6751
 211  199.473
 212  103.0352
 213  11.56962
 214  148.943
 215  338.5384
 216  386.9204
 217  295.2806
 218  243.7989
 219  323.5145
 220  361.5959
 221  393.0319
 222  340.2844
 223  417.4867
 224  382.9508
 225  367.986
 226  237.5255
 227  145.1633
 228  161.87
 229  172.477
 230  264.0114
 231  270.9301
 232  313.149
 233  269.8428
 234  299.4558
 235  345.0198
 236  300.9056
 237  266.8778
 238  259.3264
 239  357.4223
 240  336.655
 241  302.2037
 242  210.9756
 243  285.7293
 244  398.2183
 245  446.9291
 246  333.6424
 247  232.664
 248  243.5878
 249  345.4484
 250  321.6852
 251  183.51
 252  154.0873
 253  216.5775
 254  283.8667
 255  233.2211
 256  178.5212
 257  270.9291
 258  279.9856
 259  389.0773
 260  390.238
 261  356.1881
 262  345.0174
 263  279.2062
 264  208.9791
 265  152.0249
 266  190.324
 267  199.8517
 268  212.1402
 269  145.4182
 270  176.6658
 271  156.2967
 272  177.1553
 273  185.3754
 274  278.651
 275  393.3634
 276  419.4989
 277  419.9264
 278  461.4908
 279  408.9968
 280  392.3687
 281  430.2052
 282  418.294
 283  345.1355
 284  347.4844
 285  323.6795
 286  416.1058
 287  360.4745
 288  528.336
 289  379.5891
 290  312.5019
 291  205.4615
 292  315.3119
 293  273.1325
 294  257.694
 295  252.0629
 296  483.8296
 297  548.7782
 298  487.0286
 299  376.7799
 300  420.9753
 301  416.2313
 302  409.86
 303  312.2994
 304  410.7265
 305  481.9241
 306  433.3599
 307  409.8504
 308  308.9541
 309  330.5154
 310  282.9426
 311  241.1951
 312  231.4851
 313  225.0504
 314  266.3486
 315  299.1936
 316  437.2389
 317  544.2386
 318  572.3945
 319  457.2823
 320  485.3459
 321  511.1352
 322  491.6302
 323  457.2265
 324  500.2257
 325  494.2178
 326  400.2903
 327  294.2808
 328  155.0993
 329  133.5573
 330  162.5831
 331  196.9089
 332  302.3863
 333  257.9725
 334  282.3276
 335  293.7808
 336  249.1801
 337  260.5427
 338  288.817
 339  335.6435
 340  224.8328
 341  96.56083
 342  93.80766
 343  148.0766
 344  93.79864
 345  88.26208
 346  88.92836
 347  313.8077
 348  411.9174
 349  358.0324
 350  280.7409
 351  196.6422
 352  178.9903
 353  278.9446
 354  353.8417
 355  407.9663
 356  358.3979
 357  357.3773
 358  396.4489
 359  451.745
 360  446.2025
 361  352.5109
 362  338.0549
 363  341.5356
 364  413.5675
 365  354.3596
 366  383.4908
 367  405.5543
 368  441.3993
 369  269.8929
 370  180.2221
 371  142.3747
 372  293.4182
 373  278.5058
 374  343.7911
 375  372.5406
 376  387.2704
 377  304.3098
 378  349.7242
 379  318.3259
 380  416.6973
 381  364.387
 382  481.322
 383  488.0707
 384  527.5359
 385  370.4952
 386  425.1734
 387  352.6769
 388  334.2563
 389  302.8631
 390  406.6046
 391  454.6876
 392  376.382
 393  368.5214
 394  420.5459
 395  471.9922
 396  574.1089
 397  576.7565
 398  526.8487
 399  430.8871
 400  504.4903
 401  462.8263
 402  429.6194
 403  309.1918
 404  205.421
 405  215.289
 406  332.6081
 407  340.1462
 408  366.7166
 409  366.53
 410  439.529
 411  422.8221
 412  399.7219
 413  468.4482
 414  564.5285
 415  643.2513
 416  602.1868
 417  490.1793
 418  430.5715
 419  394.7061
 420  391.9156
 421  419.8509
 422  411.0784
 423  423.5847
 424  515.2364
 425  496.4966
 426  513.6262
 427  471.1772
 428  435.454
 429  396.892
 430  332.9681
 431  385.5301
 432  379.7088
 433  470.9768
 434  522.7665
 435  449.5882
 436  314.5888
 437  195.6379
 438  211.2466
 439  293.204
 440  329.3306
 441  311.667
 442  258.5347
 443  217.1499
 444  273.1756
 445  389.2429
 446  335.3655
 447  162.0463
 448  55.66885
 449  210.0765
 450  255.2812
 451  178.4892
 452  170.1576
 453  201.5607
 454  202.4893
 455  247.0518
 456  311.243
 457  355.0248
 458  408.4645
 459  414.0082
 460  382.6988
 461  232.7126
 462  242.7446
 463  288.3502
 464  422.6421
 465  348.6367
 466  221.2781
 467  191.2969
 468  334.5768
 469  416.6416
 470  459.1892
 471  346.3907
 472  254.2119
 473  258.0123
 474  345.9938
 475  297.1176
 476  253.9533
 477  250.7741
 478  207.9986
 479  163.5763
 480  212.4098
 481  346.8998
 482  435.0047
 483  455.6174
 484  405.0777
 485  373.1269
 486  352.9899
 487  304.4743
 488  424.8907
 489  477.4578
 490  398.9541
 491  381.4794
 492  411.1284
 493  385.063
 494  339.1573
 495  249.6533
 496  334.2527
 497  237.4152
 498  378.6848
 499  359.6294
 500  345.0536
 501  285.569
 502  385.4432
 503  341.1532
 504  223.4515
 505  158.3291
 506  180.7457
 507  281.532
 508  285.829
 509  338.3
 510  254.7099
 511  295.0563
 512  297.8763
 513  395.7437
 514  446.4087
 515  537.4293
 516  501.9135
 517  459.4857
 518  354.761
 519  292.2166
 520  222.7343
 521  232.423
 522  290.1505
 523  322.8389
 524  217.6598
 525  234.7215
 526  272.5281
 527  216.7612
 528  223.1016
 529  180.2601
 530  175.1262
 531  263.9459
 532  228.9
 533  248.3102
 534  111.8489
 535  171.912
 536  249.4534
 537  156.8804
 538  178.8206
 539  179.9671
 540  204.2974
 541  201.3481
 542  189.3418
 543  195.9844
 544  220.3583
 545  222.9719
 546  281.3228
 547  234.2674
 548  201.5595
 549  129.9954
 550  109.4649
 551  162.2579
 552  274.2478
 553  347.3243
 554  418.9488
 555  400.5949
 556  380.222
 557  253.8034
 558  270.8817
 559  413.3947
 560  583.5335
 561  467.6396
 562  287.5979
 563  238.2085
 564  238.2912
 565  254.5237
 566  233.9595
 567  321.754
 568  258.1489
 569  282.7693
 570  289.3343
 571  224.19
 572  251.8856
 573  353.3193
 574  481.0146
 575  488.7529
 576  312.9883
 577  354.1384
 578  364.1548
 579  570.6404
 580  582.8578
 581  502.3277
 582  437.9681
 583  365.4779
 584  321.0623
 585  272.7761
 586  322.3724
 587  394.3354
 588  440.2364
 589  432.3923
 590  353.0153
 591  312.384
 592  334.3728
 593  425.4526
 594  334.204
 595  241.9607
 596  137.6187
 597  159.0336
 598  270.4671
 599  389.6496
 600  388.0686
 601  425.6437
 602  348.5219
 603  342.667
 604  222.7709
 605  277.5521
 606  484.3005
 607  619.4595
 608  484.5583
 609  390.0873
 610  242.0668
 611  360.2063
 612  654.8777
 613  979.8446
 614  1060.87
 615  971.5011
 616  840.9418
 617  919.5516
 618  856.9764
 619  769.2026
 620  715.0912
 621  643.2869
 622  582.3877
 623  320.9449
 624  224.5709
 625  213.2952
 626  206.0213
 627  319.0623
 628  304.6593
 629  250.9005
 630  178.832
 631  141.3206
 632  236.3664
 633  218.2753
 634  101.5009
 635  58.35025
 636  132.6994
 637  106.7953
 638  128.5688
 639  95.04282
 640  217.4282
 641  219.6996
 642  237.4846
 643  161.9998
 644  267.1781
 645  308.7093
 646  498.567
 647  508.5063
 648  518.6885
 649  372.5453
 650  335.8947
 651  336.8455
 652  402.6221
 653  294.4248
 654  321.1232
 655  347.1209
 656  307.2379
 657  268.4626
 658  282.9761
 659  321.3219
 660  435.6798
 661  418.2309
 662  309.8286
 663  144.6274
 664  228.5246
 665  297.6993
 666  292.1361
 667  138.838
 668  204.8618
 669  231.9261
 670  311.1873
 671  324.8831
 672  327.2539
 673  297.6607
 674  302.5713
 675  215.7855
 676  221.1576
 677  195.638
 678  253.6126
 679  269.8513
 680  239.28
 681  219.6954
 682  294.1462
 683  326.068
 684  474.4511
 685  405.9257
 686  270.6204
 687  216.2191
 688  155.3028
 689  251.541
 690  257.1289
 691  403.3185
 692  545.9601
 693  501.7455
 694  433.2098
 695  454.4597
 696  458.4713
 697  411.6398
 698  354.7766
 699  383.4426
 700  443.817
 701  379.554
 702  491.3859
 703  502.9974
 704  444.7257
 705  212.1008
 706  88.71465
 707  158.9727
 708  253.5517
 709  204.535
 710  180.1152
 711  262.6001
 712  220.4628
 713  169.4615
 714  170.6927
 715  241.2906
 716  137.1673
 717  90.67541
 718  222.8988
 719  234.397
 720  244.3565
 721  203.8502
 722  299.0478
 723  298.7198
 724  289.3116
 725  299.9157
 726  218.0507
 727  201.6938
 728  237.7122
 729  350.8217
 730  362.118
 731  334.094
 732  360.229
 733  395.0078
 734  373.8445
 735  367.319
 736  364.7406
 737  296.1682
 738  232.1636
 739  228.5747
 740  368.3347
 741  450.6862
 742  383.7677
 743  319.187
 744  300.2935
 745  370.2904
 746  246.7562
 747  190.4434
 748  193.4893
 749  324.5537
 750  392.4908
 751  403.5104
 752  485.6891
 753  469.6921
 754  449.682
 755  297.5605
 756  229.0424
 757  280.1675
 758  362.3015
 759  502.0229
 760  555.3309
 761  502.9399
 762  469.9781
 763  427.4749
 764  376.9119
 765  251.3991
 766  109.5231
 767  163.3698
 768  359.9453
 769  482.0715
 770  548.0848
 771  598.2025
 772  583.6389
 773  473.8061
 774  379.3837
 775  480.1495
 776  540.6133
 777  541.3354
 778  551.8174
 779  587.744
 780  485.0182
 781  471.656
 782  323.0005
 783  333.5632
 784  285.6044
 785  403.1618
 786  436.2372
 787  350.1352
 788  291.5084
 789  256.9335
 790  256.6859
 791  211.4963
 792  198.8168
 793  241.8609
 794  325.5437
 795  306.7262
 796  325.7865
 797  320.5283
 798  365.1595
 799  358.8547
 800  314.2904
 801  161.6047
 802  211.0439
 803  432.8204
 804  568.8928
 805  563.8051
 806  439.8636
 807  419.3639
 808  334.5009
 809  368.8954
 810  289.8966
 811  301.4136
 812  264.5061
 813  318.0926
 814  313.3062
 815  294.4343
 816  369.7573
 817  338.5058
 818  349.9128
 819  412.7074
 820  422.501
 821  417.5327
 822  320.0936
 823  370.4325
 824  422.0772
 825  451.9913
 826  447.7138
 827  341.7925
 828  394.4964
 829  501.5171
 830  521.8708
 831  491.5493
 832  409.9601
 833  487.1303
 834  440.532
 835  521.9062
 836  434.0773
 837  403.7093
 838  386.0289
 839  396.8467
 840  410.4463
 841  301.5825
 842  276.108
 843  236.3601
 844  259.5894
 845  249.0113
 846  362.1087
 847  350.9658
 848  435.1414
 849  400.7166
 850  402.505
 851  413.9275
 852  304.9753
 853  330.7883
 854  259.3947
 855  446.6209
 856  364.5055
 857  376.7288
 858  220.1338
 859  288.9368
 860  273.2626
 861  209.4663
 862  173.0237
 863  154.897
 864  269.7509
 865  234.1753
 866  220.8957
 867  267.9862
 868  348.355
 869  281.287
 870  185.085
 871  80.1765
 872  67.05052
 873  159.9992
 874  293.6346
 875  417.7393
 876  402.3066
 877  391.5615
 878  433.7253
 879  321.2135
 880  199.5912
 881  147.949
 882  70.29615
 883  -50.67631
 884  -134.687
 885  -165.2025
 886  -143.6762
 887  -144.0578
 888  215.3596
 889  364.7729
 890  431.8945
 891  354.0516
 892  414.206
 893  475.591
 894  449.2143
 895  435.3777
 896  445.6807
 897  376.473
 898  299.6171
 899  104.2451
 900  59.76284
 901  -0.4617523
 902  69.47768
 903  255.6282
 904  355.1853
 905  391.9646
 906  302.0294
 907  310.665
 908  267.0626
 909  321.7941
 910  433.9327
 911  559.9435
 912  419.6755
 913  401.1811
 914  387.4305
 915  414.571
 916  246.7681
 917  261.1241
 918  252.5502
 919  334.4361
 920  245.5561
 921  268.5002
 922  239.553
 923  359.822
 924  293.5048
 925  163.3215
 926  85.80614
 927  134.5054
 928  215.1578
 929  249.3131
 930  254.2024
 931  266.4168
 932  305.455
 933  310.2455
 934  278.4953
 935  239.6438
 936  206.175
 937  264.7515
 938  234.734
 939  387.5742
 940  325.6452
 941  174.9127
 942  78.46391
 943  106.7802
 944  154.7836
 945  176.6896
 946  91.18008
 947  135.6745
 948  26.3761
 949  -40.19503
 950  -69.5645
 951  8.905143
 952  139.5227
 953  310.3235
 954  360.9387
 955  417.5524
 956  322.2915
 957  302.9109
 958  306.5093
 959  297.2792
 960  234.1876
 961  271.2005
 962  432.4753
 963  362.6577
 964  227.6605
 965  -30.33897
 966  41.06559
 967  55.21235
 968  200.4573
 969  236.1519
 970  177.3226
 971  98.02425
 972  215.8673
 973  343.0917
 974  454.0692
 975  402.0636
 976  340.2518
 977  240.0399
 978  160.3423
 979  30.12489
 980  160.7155
 981  220.0766
 982  339.7293
 983  281.1926
 984  358.6647
 985  391.3125
 986  460.5745
 987  488.2454
 988  519.6632
 989  475.9895
 990  427.1885
 991  322.6353
 992  203.8957
 993  157.9208
 994  191.1213
 995  242.8112
 996  374.8451
 997  395.393
 998  432.4885
 999  297.3564
1000  241.005
1001  179.6512
1002  221.1263
1003  292.2119
1004  436.7226
1005  515.4584
1006  572.2272
1007  602.0285
1008  623.8412
1009  555.2559
1010  466.5391
1011  430.6026
1012  503.602
1013  436.1194
1014  352.3332
1015  360.1429
1016  370.8394
1017  406.006
1018  462.0613
1019  524.063
1020  478.4222
1021  462.4772
1022  521.8963
1023  505.9844
