# Input file       =  1201447310.101719_cleaned.dat
# Candidate        =  PSR_0332+5434
# Telescope        =  AR
# Epoch_topo       =  58149.640383121747
# Epoch_bary       =  N/A
# T_sample         =  0.002
# Data Folded      =  7340032
# Data Avg         =  0.135853961690113
# Data StdDev      =  6.77708762482525 
# Profile Bins     =  256
# Profile Avg      =  3895.09757055294 
# Profile StdDev   =  1147.55126198918 
# Reduced chi-sqr  =  1.045
# Prob(Noise)      <  0.298   (~0.5 sigma)
# P_topo (ms)      =  714.575754374476  +/- 0.000565
# P'_topo (s/s)    =  -0                +/- 2.98e-10
# P''_topo (s/s^2) =  0                 +/- 1.32e-13
# P_bary (ms)      =  N/A
# P'_bary (s/s)    =  N/A
# P''_bary (s/s^2) =  N/A
# P_orb (s)        =  N/A
# asin(i)/c (s)    =  N/A
# eccentricity     =  N/A
# w (rad)          =  N/A
# T_peri           =  N/A
######################################################
   0  3137.857
   1  3475.449
   2  3333.021
   3  4477.439
   4  4041.82
   5  4801.631
   6  5305.019
   7  3935.895
   8  4931.423
   9  5176.212
  10  4728.177
  11  4125.031
  12  5914.218
  13  5051.796
  14  4337.438
  15  3823.488
  16  4278.319
  17  5612.775
  18  3899.849
  19  4590.208
  20  5901.414
  21  4844.466
  22  4647.792
  23  4117.376
  24  5064.712
  25  3866.652
  26  3144.097
  27  3749.53
  28  4395.874
  29  3443.79
  30  2702.401
  31  4088.473
  32  2667.385
  33  2669.919
  34  3001.69
  35  4856.46
  36  4329
  37  4168.982
  38  4051.755
  39  5030.417
  40  5161.824
  41  4330.244
  42  4500.418
  43  2944.82
  44  2093.553
  45  1925.485
  46  2642.482
  47  2580.317
  48  2530.844
  49  4045.875
  50  2980.376
  51  4221.994
  52  4288.269
  53  3979.811
  54  3842.952
  55  3169.083
  56  3314.889
  57  2674.615
  58  3457.646
  59  2723.702
  60  3046.432
  61  3089.784
  62  2933.627
  63  2935.998
  64  3570.937
  65  3346.497
  66  3712.428
  67  3735.488
  68  4431.164
  69  3531.157
  70  3714.385
  71  3356.3
  72  4420.779
  73  3464.494
  74  2908.543
  75  4322.369
  76  3748.161
  77  2398.225
  78  4910.18
  79  3344.621
  80  3559.174
  81  2700.802
  82  3707.117
  83  3982.623
  84  3140.079
  85  3448.773
  86  5051.792
  87  4350.877
  88  3189.588
  89  3518.016
  90  4424.847
  91  3311.312
  92  2214.88
  93  2875.451
  94  3103.062
  95  2272.545
  96  4354.243
  97  3469.358
  98  3021.383
  99  3209.066
 100  3114.895
 101  2746.483
 102  2199.56
 103  3458.983
 104  3720.281
 105  4118.872
 106  3262.016
 107  4347.622
 108  4359.845
 109  3738.56
 110  3259.075
 111  2679.133
 112  2795.815
 113  1865.563
 114  2425.194
 115  1448.193
 116  1971.085
 117  3553.922
 118  3773.956
 119  4331.075
 120  3424.061
 121  3835.123
 122  3905.359
 123  3724.787
 124  3431.525
 125  3011.087
 126  4322.084
 127  2609.149
 128  2516.41
 129  3951.681
 130  3409.296
 131  3852.534
 132  3324.718
 133  3047.122
 134  2885.021
 135  2748.133
 136  2221.581
 137  3772.936
 138  3398.289
 139  4347.923
 140  5039.617
 141  4346.461
 142  3756.861
 143  3683.435
 144  4772.059
 145  4634.911
 146  3906.234
 147  3477.326
 148  3742.781
 149  2925.649
 150  4988.323
 151  4003.987
 152  3465.434
 153  5807.41
 154  6861.936
 155  5776.145
 156  3072.088
 157  3118.468
 158  3089.789
 159  2790.77
 160  3938.532
 161  2376.904
 162  1820.802
 163  2284.638
 164  2865.075
 165  2183.797
 166  2648.975
 167  3856.812
 168  2939.76
 169  2454.357
 170  1928.491
 171  2088.962
 172  1552.445
 173  1812.138
 174  3192.298
 175  3846.82
 176  3754.015
 177  2430.697
 178  3282.756
 179  2906.672
 180  2420.326
 181  3131.904
 182  3926.908
 183  3820.251
 184  3843.57
 185  5172.53
 186  4350.957
 187  3947.696
 188  5666.152
 189  5085.481
 190  4023.882
 191  4156.398
 192  4818.599
 193  5390.759
 194  4461.091
 195  2887.91
 196  5795.136
 197  5461.753
 198  4127.893
 199  4622.271
 200  6141.996
 201  5540.034
 202  4697.038
 203  4865.164
 204  4100.341
 205  4373.768
 206  3090.823
 207  4002.646
 208  3706.765
 209  4266.609
 210  4343.296
 211  4424.765
 212  5001.142
 213  5027.625
 214  5465.833
 215  5649.919
 216  5658.888
 217  5997.194
 218  6033.473
 219  5007.478
 220  4953.389
 221  5448.9
 222  5379.938
 223  5428.011
 224  3330.971
 225  4086.166
 226  5369.674
 227  5322.501
 228  4627.673
 229  4147.89
 230  3863.875
 231  4462.64
 232  4978.309
 233  4246.346
 234  5077.766
 235  5087.832
 236  4509.795
 237  4785.594
 238  5312.653
 239  4769.99
 240  3988.569
 241  4731.482
 242  4399.222
 243  4439.085
 244  5072.254
 245  5620.041
 246  4740.944
 247  3286.428
 248  4999.8
 249  5085.01
 250  4374.226
 251  5105.078
 252  4368.188
 253  5116.661
 254  3478.503
 255  3354.734
