# Input file       =  1201447310.101719-PSRB0329-2ms-sampling-dd.dat
# Candidate        =  PSR_0332+5434
# Telescope        =  AR
# Epoch_topo       =  58149.640383121747
# Epoch_bary       =  N/A
# T_sample         =  0.002
# Data Folded      =  7340032
# Data Avg         =  9.01469627624473e-10
# Data StdDev      =  24.8261625563926 
# Profile Bins     =  512
# Profile Avg      =  -0.0468367869003559
# Profile StdDev   =  2972.51182446006 
# Reduced chi-sqr  =  1.270
# Prob(Noise)      <  3.18e-05   (~4.0 sigma)
# P_topo (ms)      =  714.575754298186  +/- 0.000167
# P'_topo (s/s)    =  -0                +/- 8.79e-11
# P''_topo (s/s^2) =  0                 +/- 3.88e-14
# P_bary (ms)      =  N/A
# P'_bary (s/s)    =  N/A
# P''_bary (s/s^2) =  N/A
# P_orb (s)        =  N/A
# asin(i)/c (s)    =  N/A
# eccentricity     =  N/A
# w (rad)          =  N/A
# T_peri           =  N/A
######################################################
   0  -796.7617
   1  -1019.149
   2  -1080.706
   3  -1016.217
   4  -982.4733
   5  79.62133
   6  133.8068
   7  -281.2099
   8  -872.417
   9  -1099.678
  10  -864.1073
  11  -360.8522
  12  -144.1496
  13  1174.076
  14  2118.191
  15  3272.884
  16  3901.026
  17  3780.725
  18  2929.505
  19  85.47781
  20  219.4509
  21  1883.048
  22  1101.326
  23  315.7304
  24  533.4601
  25  -332.9152
  26  -1368.978
  27  -1685.231
  28  -1478.024
  29  -1861.158
  30  -2381.859
  31  -2592.102
  32  -2056.786
  33  -2541.347
  34  -2772.827
  35  -1883.758
  36  -2226.415
  37  -2392.191
  38  -1981.547
  39  -1477.396
  40  -2164.794
  41  -2320.618
  42  -2228.127
  43  -2154.155
  44  -2122.992
  45  -1666.974
  46  -1034.217
  47  -1274.672
  48  -1641.958
  49  -1756.331
  50  -947.7474
  51  -1037.357
  52  -1635.647
  53  -854.385
  54  -850.0695
  55  4945.809
  56  10974.94
  57  14665.46
  58  15694.72
  59  13163.88
  60  4339.42
  61  1813.919
  62  6105.561
  63  15132.32
  64  13152.22
  65  12091.75
  66  9669.963
  67  1519.705
  68  1475.838
  69  1241.211
  70  -616.4651
  71  1197.365
  72  2736.631
  73  5490.998
  74  6402.271
  75  6549.943
  76  5255.995
  77  2923.431
  78  3096.029
  79  4715.334
  80  6551.095
  81  8126.141
  82  5784.197
  83  4019.848
  84  2828.198
  85  3724.56
  86  5518.464
  87  6219.082
  88  4179.653
  89  1978.229
  90  489.0371
  91  471.5233
  92  -27.7156
  93  1526.559
  94  2278.999
  95  1313.439
  96  734.7435
  97  -773.3101
  98  -932.4961
  99  -937.5504
 100  -248.6315
 101  296.5633
 102  48.98417
 103  -950.1643
 104  -1202.185
 105  -928.1464
 106  -330.5577
 107  459.7544
 108  263.1449
 109  -170.7994
 110  -443.6132
 111  -838.1349
 112  -1607.567
 113  -994.2305
 114  -110.7358
 115  265.1559
 116  155.7868
 117  -331.3211
 118  -230.409
 119  -462.1646
 120  -308.8938
 121  881.0814
 122  210.1415
 123  30.21006
 124  -367.9666
 125  254.7686
 126  -143.5999
 127  66.78083
 128  55.82063
 129  -692.221
 130  -864.8771
 131  -2120.364
 132  -1901.145
 133  -1852.933
 134  -2249.04
 135  -2306.294
 136  -1245.558
 137  -736.3746
 138  -861.8096
 139  -979.1525
 140  -1468.631
 141  -546.2719
 142  181.3915
 143  1966.22
 144  840.7437
 145  935.2798
 146  995.6727
 147  419.1819
 148  1908.14
 149  1586.513
 150  1719.922
 151  1278.26
 152  1628.042
 153  1372.312
 154  1085.658
 155  673.2944
 156  223.7278
 157  121.5133
 158  -587.0417
 159  -1291.265
 160  -2109.644
 161  -2158.032
 162  -1962.52
 163  -1501.785
 164  -1125.782
 165  -548.5194
 166  -548.1307
 167  -976.322
 168  -643.8892
 169  -831.8796
 170  -766.1863
 171  87.94781
 172  255.5022
 173  16.03307
 174  -343.805
 175  222.3574
 176  -236.4197
 177  -115.4802
 178  526.8199
 179  685.0479
 180  669.4685
 181  408.9123
 182  421.8497
 183  -699.6778
 184  -411.4233
 185  132.7592
 186  962.8677
 187  533.0436
 188  328.4525
 189  -738.7792
 190  -1348.272
 191  -976.9775
 192  -741.6551
 193  -196.7357
 194  -356.9441
 195  -914.8197
 196  -1596.938
 197  -2090.24
 198  -2096.814
 199  -1799.573
 200  -752.0079
 201  -905.9843
 202  -903.288
 203  -947.6679
 204  -1298.696
 205  -1319.377
 206  -1308.654
 207  -253.0971
 208  -559.855
 209  -839.1573
 210  -611.4803
 211  -1247.125
 212  -1665.494
 213  -2046.538
 214  -1625.411
 215  -1232.884
 216  -1564.719
 217  -2510.121
 218  -2842.789
 219  -2320.683
 220  -2070.548
 221  -1895.282
 222  -1200.676
 223  -1106.403
 224  -1417.243
 225  -1171.891
 226  -977.8803
 227  -1344.541
 228  -1553.846
 229  -1215.505
 230  -1170.983
 231  -1698.903
 232  -1638.311
 233  -1240.581
 234  -759.4185
 235  -979.5424
 236  -1464.013
 237  -968.0931
 238  -1437.952
 239  -429.7825
 240  -841.3751
 241  -1096.89
 242  -1636.273
 243  -1498.867
 244  -1347.003
 245  -1229.482
 246  -904.8463
 247  -929.8661
 248  -883.0972
 249  -2011.539
 250  -1283.319
 251  -3.262558
 252  765.4959
 253  1050.073
 254  1242.081
 255  -591.9521
 256  -2146.283
 257  -1050.372
 258  -61.24169
 259  352.1992
 260  -796.2753
 261  -888.735
 262  -1046.387
 263  -1359.658
 264  -1063.489
 265  -592.7803
 266  -929.4117
 267  -749.4476
 268  -727.9749
 269  -1093.22
 270  -1177.614
 271  -1508.536
 272  -1182.801
 273  -1350.03
 274  -1293.292
 275  -1224.803
 276  -1184.948
 277  -1965.723
 278  -2071.08
 279  -1425.803
 280  -885.9401
 281  -804.6767
 282  -1153.462
 283  -1390.234
 284  -2069.829
 285  -1960.634
 286  -555.9799
 287  255.06
 288  742.76
 289  856.9609
 290  621.3594
 291  -670.9966
 292  -1308.475
 293  -146.4552
 294  1893.763
 295  3367.949
 296  3011.568
 297  1834.827
 298  -448.6869
 299  -1461.734
 300  -1391.404
 301  -359.3797
 302  -738.6672
 303  -418.5074
 304  -792.0969
 305  -1886.803
 306  -2388.03
 307  -2692.043
 308  -1922.664
 309  -2084.615
 310  -1629.753
 311  -1265.308
 312  -2138.287
 313  -2622.525
 314  -2863.38
 315  -2274.506
 316  -1697.213
 317  -1581.703
 318  -1399.282
 319  -1529.832
 320  -1898.407
 321  -2215.733
 322  -532.8258
 323  268.1413
 324  -28.15106
 325  -69.35515
 326  -695.7184
 327  -1415.553
 328  -2113.113
 329  -905.1537
 330  -910.4323
 331  -1266.555
 332  -1365.343
 333  -1707.645
 334  -2417.537
 335  -2497.769
 336  -2286.001
 337  -1888.263
 338  -1620.167
 339  -1103.143
 340  -624.5353
 341  -828.1938
 342  -1343.105
 343  -1226.157
 344  -486.7117
 345  919.4014
 346  1089.722
 347  1611.974
 348  818.4532
 349  -644.536
 350  -873.1714
 351  -248.8198
 352  936.1742
 353  823.1885
 354  1051.606
 355  269.8226
 356  -1253.797
 357  -1489.264
 358  -790.9015
 359  -92.32121
 360  -337.0245
 361  -625.9238
 362  -864.4526
 363  -1979.074
 364  -1698.293
 365  -519.9411
 366  155.272
 367  -19.70421
 368  -267.2239
 369  -245.4848
 370  -567.5345
 371  -528.8259
 372  -629.4659
 373  -411.7708
 374  -271.712
 375  -773.7273
 376  -1081.041
 377  -1185.497
 378  -1099.869
 379  -567.09
 380  -861.1033
 381  -1589.151
 382  -1098.572
 383  -488.6225
 384  -304.1766
 385  1621.8
 386  3877.581
 387  5701.24
 388  5563.299
 389  4756.176
 390  3327.715
 391  958.6343
 392  3181.686
 393  4528.85
 394  5520.645
 395  3088.813
 396  2840.592
 397  4022.28
 398  3867.815
 399  3321.973
 400  2687.753
 401  885.2941
 402  1036.365
 403  1731.753
 404  2938.651
 405  1571.484
 406  505.9772
 407  494.4549
 408  1203.653
 409  1492.815
 410  2288.449
 411  2341.84
 412  1672.71
 413  910.672
 414  -664.0165
 415  -989.5302
 416  -794.4504
 417  94.51698
 418  403.4212
 419  2033.4
 420  1338.037
 421  728.6201
 422  161.3961
 423  -1052.508
 424  -18.38742
 425  2059.87
 426  3493.306
 427  3077.406
 428  277.3639
 429  -503.9795
 430  -928.6556
 431  510.5178
 432  566.8883
 433  205.0295
 434  -452.8246
 435  -194.2364
 436  -678.0673
 437  -708.8726
 438  445.1626
 439  1380.953
 440  1774.353
 441  1321.296
 442  -894.7114
 443  -1092.96
 444  -1915.074
 445  -949.1087
 446  -213.7149
 447  -302.6707
 448  -1312.514
 449  -2286.003
 450  -1855.981
 451  -2227.916
 452  -2056.345
 453  -1932.714
 454  -2005.75
 455  -2127.307
 456  -2117.621
 457  -1606.317
 458  -1855.691
 459  -1519.912
 460  -1116.588
 461  -1103.068
 462  -1173.046
 463  -1221.747
 464  -1570.733
 465  -1410.705
 466  -1254.685
 467  -567.9014
 468  -63.6218
 469  -247.1679
 470  -725.8629
 471  -1569.709
 472  -2066.051
 473  -2532.696
 474  -1719.451
 475  -1736.47
 476  -1455.542
 477  -1373.705
 478  -1751.097
 479  -1875.65
 480  -1669.948
 481  -1118.205
 482  -1197.267
 483  -1596.908
 484  -2159.909
 485  -1611.301
 486  -1010.174
 487  -821.302
 488  -194.2145
 489  604.7054
 490  100.1025
 491  -204.6093
 492  -46.44156
 493  -38.62497
 494  -557.0029
 495  335.9292
 496  1291.373
 497  2494.777
 498  2741.788
 499  2192.521
 500  1165.969
 501  -947.7911
 502  -1090.227
 503  -520.0651
 504  -403.1426
 505  -493.6266
 506  -297.8684
 507  -547.7217
 508  -983.4801
 509  -1335.692
 510  -1367.631
 511  -728.8972
