# Input file       =  1201691254.111097_cleaned.dat
# Candidate        =  PSR_0332+5434
# Telescope        =  AR
# Epoch_topo       =  58152.463809156216
# Epoch_bary       =  N/A
# T_sample         =  0.002
# Data Folded      =  7143424
# Data Avg         =  0.00989029643166743
# Data StdDev      =  1.00005112384954 
# Profile Bins     =  512
# Profile Avg      =  137.99601695555  
# Profile StdDev   =  118.124623158609 
# Reduced chi-sqr  =  1.864
# Prob(Noise)      <  5e-29   (~11.1 sigma)
# P_topo (ms)      =  714.576846885474  +/- 5.11e-05
# P'_topo (s/s)    =  -0                +/- 2.77e-11
# P''_topo (s/s^2) =  0                 +/- 1.26e-14
# P_bary (ms)      =  N/A
# P'_bary (s/s)    =  N/A
# P''_bary (s/s^2) =  N/A
# P_orb (s)        =  N/A
# asin(i)/c (s)    =  N/A
# eccentricity     =  N/A
# w (rad)          =  N/A
# T_peri           =  N/A
######################################################
   0  864.5098
   1  859.7075
   2  650.2853
   3  381.8524
   4  153.2553
   5  107.2128
   6  227.4125
   7  178.4325
   8  55.62287
   9  159.8745
  10  327.1299
  11  262.4215
  12  183.5988
  13  104.4029
  14  85.33267
  15  226.8155
  16  201.9865
  17  144.4604
  18  210.7305
  19  255.854
  20  96.20012
  21  103.6031
  22  25.88754
  23  -32.13034
  24  -23.31504
  25  -60.51116
  26  123.5934
  27  136.2764
  28  253.1269
  29  160.5491
  30  104.0299
  31  151.5356
  32  55.10878
  33  124.1994
  34  218.1853
  35  233.3973
  36  177.4487
  37  123.7121
  38  44.55665
  39  191.0184
  40  295.2218
  41  257.3914
  42  256.1912
  43  207.2027
  44  191.7696
  45  266.1594
  46  159.3248
  47  141.9157
  48  99.49599
  49  80.70535
  50  121.5294
  51  102.3235
  52  92.40093
  53  156.2906
  54  158.1872
  55  203.8311
  56  181.6006
  57  146.1108
  58  286.329
  59  127.1732
  60  167.0229
  61  212.3627
  62  203.9867
  63  180.2552
  64  36.45837
  65  -97.29107
  66  22.60889
  67  98.06673
  68  229.6999
  69  267.9199
  70  180.84
  71  125.1166
  72  88.46603
  73  109.6549
  74  126.2939
  75  182.7975
  76  196.4913
  77  169.2327
  78  108.8846
  79  67.27149
  80  68.36885
  81  209.2513
  82  251.1778
  83  360.8549
  84  340.7111
  85  130.9761
  86  42.3256
  87  192.3593
  88  230.4085
  89  11.65605
  90  -5.861646
  91  20.79182
  92  103.9325
  93  175.509
  94  217.0939
  95  191.1568
  96  7.59791
  97  -69.4177
  98  57.79595
  99  126.4019
 100  236.1223
 101  301.4908
 102  233.0067
 103  102.8175
 104  45.94259
 105  -72.069
 106  -63.46446
 107  -27.93341
 108  299.2613
 109  244.1897
 110  165.9592
 111  157.402
 112  -71.1529
 113  36.05145
 114  -34.54113
 115  -36.98471
 116  -43.16096
 117  63.58115
 118  224.9873
 119  43.50347
 120  44.31206
 121  107.8007
 122  156.3609
 123  172.849
 124  91.81138
 125  174.0903
 126  158.2511
 127  -10.53386
 128  67.64024
 129  152.7359
 130  36.48247
 131  2.609441
 132  54.19593
 133  67.19855
 134  196.7918
 135  174.9641
 136  16.45982
 137  74.17526
 138  35.5126
 139  52.61375
 140  -9.10453
 141  123.2289
 142  190.7869
 143  124.588
 144  84.91502
 145  108.6043
 146  193.661
 147  231.2261
 148  67.71735
 149  70.10957
 150  102.7337
 151  186.7267
 152  139.7539
 153  190.0889
 154  51.31063
 155  107.3011
 156  122.1647
 157  131.1913
 158  235.0261
 159  224.2939
 160  138.0875
 161  100.6717
 162  -6.943476
 163  11.02248
 164  102.0996
 165  88.07098
 166  128.259
 167  180.8079
 168  299.2238
 169  189.0936
 170  17.02487
 171  30.82241
 172  17.41443
 173  11.44208
 174  283.5627
 175  384.8588
 176  270.8936
 177  138.5506
 178  15.04942
 179  44.00356
 180  160.6655
 181  210.1012
 182  121.6001
 183  152.2262
 184  231.0804
 185  205.0515
 186  249.2216
 187  282.7415
 188  138.2381
 189  128.1069
 190  14.08567
 191  94.79597
 192  212.0926
 193  199.6952
 194  123.5929
 195  103.9115
 196  238.6653
 197  142.7557
 198  147.3289
 199  121.8827
 200  174.5957
 201  191.1314
 202  -28.27948
 203  -66.73371
 204  78.44123
 205  106.8412
 206  7.489092
 207  6.569812
 208  -11.2674
 209  146.34
 210  171.4746
 211  89.08744
 212  8.816079
 213  91.3365
 214  209.8381
 215  210.8482
 216  258.0432
 217  296.2921
 218  305.5136
 219  116.2411
 220  12.69487
 221  175.9422
 222  155.6749
 223  168.5217
 224  107.6598
 225  158.804
 226  114.6859
 227  144.633
 228  180.8875
 229  160.2577
 230  6.036656
 231  61.61871
 232  172.0834
 233  127.3211
 234  103.5079
 235  177.4619
 236  81.62771
 237  5.985177
 238  21.24644
 239  59.12711
 240  225.2663
 241  151.8211
 242  228.753
 243  109.9052
 244  103.844
 245  162.8412
 246  177.0589
 247  135.5552
 248  -64.75421
 249  57.54521
 250  235.6692
 251  139.4997
 252  40.23394
 253  101.377
 254  135.1732
 255  132.0375
 256  154.1718
 257  208.0674
 258  178.7742
 259  195.7783
 260  125.9337
 261  111.3536
 262  144.4076
 263  3.356624
 264  -76.17315
 265  11.32648
 266  143.4772
 267  107.7152
 268  -27.62671
 269  -32.03981
 270  41.96201
 271  86.3226
 272  -20.72042
 273  -57.35783
 274  125.4382
 275  168.9877
 276  97.53401
 277  -23.10054
 278  15.8145
 279  -10.09211
 280  33.91389
 281  -16.71917
 282  36.93795
 283  204.8752
 284  258.3744
 285  124.7036
 286  23.991
 287  19.3326
 288  91.00127
 289  195.7004
 290  259.5125
 291  104.0339
 292  84.71701
 293  21.97211
 294  -2.340272
 295  40.74726
 296  -13.02494
 297  9.443991
 298  206.8348
 299  266.7879
 300  217.388
 301  160.0727
 302  97.9739
 303  61.52957
 304  122.7695
 305  195.2107
 306  142.0851
 307  153.7937
 308  137.6
 309  123.2938
 310  15.20962
 311  -84.24376
 312  -46.96235
 313  59.77481
 314  187.4599
 315  209.9194
 316  188.2602
 317  188.2562
 318  221.9158
 319  168.033
 320  106.806
 321  78.59042
 322  107.969
 323  166.398
 324  115.3099
 325  121.6035
 326  179.4429
 327  119.7759
 328  12.42963
 329  60.25964
 330  81.36966
 331  128.1679
 332  255.6781
 333  379.5902
 334  228.9507
 335  180.1475
 336  165.391
 337  71.55397
 338  52.69022
 339  97.12152
 340  183.1275
 341  108.1521
 342  231.2414
 343  182.6939
 344  110.9888
 345  101.5373
 346  61.40795
 347  -84.51186
 348  5.309851
 349  176.312
 350  213.7316
 351  -8.923966
 352  26.90976
 353  131.4782
 354  175.5556
 355  173.2862
 356  289.2252
 357  341.6608
 358  327.362
 359  122.1392
 360  98.26079
 361  247.1806
 362  162.374
 363  183.0783
 364  125.0165
 365  230.8613
 366  166.5559
 367  125.0219
 368  84.68825
 369  124.3278
 370  122.9583
 371  202.2016
 372  184.2903
 373  252.9625
 374  391.7681
 375  254.9878
 376  245.2091
 377  147.3618
 378  50.89702
 379  119.2889
 380  165.2118
 381  166.0286
 382  241.9023
 383  303.1176
 384  140.3307
 385  49.93459
 386  23.46875
 387  39.92583
 388  148.6973
 389  277.2298
 390  282.4294
 391  204.869
 392  299.5171
 393  218.4941
 394  50.70347
 395  29.90486
 396  4.463645
 397  103.4132
 398  173.5015
 399  109.704
 400  22.24714
 401  -5.158687
 402  114.361
 403  129.114
 404  163.3461
 405  120.8652
 406  136.8149
 407  103.3087
 408  41.41344
 409  3.806973
 410  33.31432
 411  11.49291
 412  195.8225
 413  129.7635
 414  176.2385
 415  276.6501
 416  141.8825
 417  47.24615
 418  75.61289
 419  79.0844
 420  -30.24835
 421  -72.7173
 422  99.63115
 423  259.0542
 424  212.0912
 425  140.5833
 426  76.3289
 427  84.72746
 428  43.97497
 429  25.77746
 430  11.46155
 431  171.7666
 432  197.2536
 433  163.3346
 434  89.50252
 435  26.03587
 436  49.8079
 437  84.54937
 438  99.88962
 439  163.3967
 440  145.6057
 441  168.987
 442  119.968
 443  131.3028
 444  -1.171216
 445  101.1231
 446  110.0863
 447  117.4165
 448  166.9255
 449  327.9444
 450  134.7647
 451  8.562409
 452  10.84108
 453  30.90708
 454  102.913
 455  228.3259
 456  183.3147
 457  187.232
 458  166.2224
 459  140.0406
 460  84.11861
 461  43.06727
 462  161.7761
 463  218.0918
 464  259.3507
 465  380.5818
 466  222.2492
 467  231.6046
 468  170.5207
 469  194.1033
 470  212.8723
 471  147.7285
 472  152.0286
 473  53.75657
 474  126.6775
 475  286.4316
 476  245.5152
 477  115.683
 478  92.82285
 479  213.7936
 480  284.3399
 481  230.4261
 482  174.7069
 483  173.7014
 484  58.02652
 485  42.30054
 486  16.87638
 487  43.41376
 488  103.2526
 489  -21.77844
 490  154.8451
 491  137.5333
 492  95.73123
 493  26.75106
 494  14.99114
 495  45.48408
 496  14.68208
 497  254.8452
 498  307.0546
 499  213.673
 500  60.96163
 501  96.5577
 502  46.11958
 503  178.2908
 504  239.3728
 505  356.8609
 506  422.8649
 507  515.1552
 508  484.3542
 509  652.0284
 510  718.1118
 511  773.9142
