# Input file       =  1201949674.108761_cleaned.dat
# Candidate        =  PSR_0332+5434
# Telescope        =  AR
# Epoch_topo       =  58155.454781351400
# Epoch_bary       =  N/A
# T_sample         =  0.002
# Data Folded      =  7143424
# Data Avg         =  0.0163751586136162
# Data StdDev      =  1.00003515433135 
# Profile Bins     =  512
# Profile Avg      =  228.468369518698 
# Profile StdDev   =  118.122736861725 
# Reduced chi-sqr  =  1.689
# Prob(Noise)      <  1.9e-20   (~9.2 sigma)
# P_topo (ms)      =  714.5778882894    +/- 4.03e-05
# P'_topo (s/s)    =  -0                +/- 2.18e-11
# P''_topo (s/s^2) =  0                 +/- 9.9e-15
# P_bary (ms)      =  N/A
# P'_bary (s/s)    =  N/A
# P''_bary (s/s^2) =  N/A
# P_orb (s)        =  N/A
# asin(i)/c (s)    =  N/A
# eccentricity     =  N/A
# w (rad)          =  N/A
# T_peri           =  N/A
######################################################
   0  212.5143
   1  223.7629
   2  115.1774
   3  166.1543
   4  169.1318
   5  199.4884
   6  144.6488
   7  68.86726
   8  42.79721
   9  64.09486
  10  177.7032
  11  388.7589
  12  363.4183
  13  308.6743
  14  207.4988
  15  276.5031
  16  247.652
  17  217.8166
  18  136.9422
  19  197.5269
  20  250.9581
  21  242.5479
  22  333.792
  23  306.3803
  24  262.0205
  25  151.7301
  26  75.09114
  27  231.3979
  28  332.5791
  29  359.4395
  30  266.8451
  31  276.231
  32  303.7584
  33  190.0057
  34  135.8596
  35  128.4046
  36  213.1521
  37  332.551
  38  224.9218
  39  120.5265
  40  132.6924
  41  223.7417
  42  145.131
  43  272.1585
  44  311.0505
  45  331.0794
  46  339.7351
  47  322.585
  48  275.948
  49  220.0892
  50  161.9075
  51  133.2728
  52  180.4221
  53  390.9959
  54  379.3955
  55  279.1909
  56  291.6842
  57  277.2035
  58  264.7639
  59  553.9169
  60  808.6747
  61  835.5775
  62  779.4149
  63  717.7845
  64  526.4928
  65  323.0312
  66  118.7613
  67  140.4496
  68  241.5016
  69  216.828
  70  185.275
  71  156.7288
  72  167.4458
  73  237.5187
  74  194.3606
  75  130.5994
  76  222.2295
  77  361.6033
  78  319.2695
  79  347.0273
  80  361.8963
  81  276.5549
  82  193.7576
  83  181.0675
  84  129.1833
  85  159.7899
  86  134.7307
  87  175.8746
  88  193.0459
  89  134.0567
  90  107.5198
  91  -24.29984
  92  82.48506
  93  203.3186
  94  298.0476
  95  348.4706
  96  363.1499
  97  372.9485
  98  283.9011
  99  201.5929
 100  122.4758
 101  55.69094
 102  127.4542
 103  267.0054
 104  264.3354
 105  173.0777
 106  211.9471
 107  132.1279
 108  149.2977
 109  119.3074
 110  362.6056
 111  486.016
 112  359.4127
 113  174.5818
 114  203.7047
 115  128.366
 116  95.63354
 117  88.2328
 118  116.5725
 119  177.2175
 120  205.7482
 121  228.1198
 122  197.0774
 123  121.7808
 124  144.6013
 125  182.2162
 126  169.8039
 127  203.726
 128  204.6479
 129  144.2974
 130  194.458
 131  189.5846
 132  201.1909
 133  88.99553
 134  92.74152
 135  171.3591
 136  293.822
 137  286.1669
 138  274.7174
 139  191.56
 140  127.6055
 141  182.9411
 142  57.88614
 143  228.9591
 144  385.0854
 145  280.9921
 146  56.00708
 147  2.435236
 148  97.73418
 149  41.16994
 150  135.4122
 151  164.7644
 152  295.2261
 153  163.3279
 154  86.69285
 155  107.2785
 156  174.3914
 157  266.2188
 158  197.1676
 159  125.7134
 160  216.5184
 161  188.7942
 162  163.495
 163  207.4021
 164  200.2425
 165  130.8342
 166  56.7191
 167  6.922627
 168  75.66942
 169  268.2736
 170  275.6294
 171  180.6803
 172  251.7817
 173  124.6384
 174  171.2348
 175  145.2348
 176  209.6154
 177  276.5225
 178  307.3114
 179  314.5751
 180  138.3876
 181  154.7387
 182  29.91163
 183  69.64791
 184  157.7786
 185  183.0582
 186  221.6679
 187  213.8787
 188  99.33158
 189  151.444
 190  176.4704
 191  126.8646
 192  176.4787
 193  183.064
 194  209.0879
 195  164.2674
 196  207.4422
 197  276.283
 198  154.9145
 199  76.22807
 200  34.7906
 201  133.5458
 202  219.0803
 203  277.5787
 204  200.722
 205  44.91028
 206  11.06142
 207  87.98595
 208  149.416
 209  185.8869
 210  189.8135
 211  110.2868
 212  146.6611
 213  217.3254
 214  231.4611
 215  102.2536
 216  143.8412
 217  166.4498
 218  164.0166
 219  137.1141
 220  137.3334
 221  88.21427
 222  108.8106
 223  149.7481
 224  57.07141
 225  130.0649
 226  283.1333
 227  219.5833
 228  179.071
 229  118.6514
 230  233.0596
 231  106.996
 232  58.3849
 233  128.3889
 234  81.3147
 235  233.2011
 236  198.0686
 237  179.5818
 238  265.7784
 239  201.3211
 240  191.8508
 241  199.0343
 242  274.2014
 243  354.2188
 244  280.9265
 245  146.7607
 246  147.8065
 247  198.4075
 248  156.7693
 249  89.05418
 250  125.1399
 251  252.4707
 252  218.6868
 253  159.7362
 254  141.8839
 255  109.8847
 256  188.9317
 257  230.27
 258  213.2657
 259  332.8464
 260  378.1873
 261  441.634
 262  318.8955
 263  131.4473
 264  185.273
 265  284.2531
 266  190.6857
 267  289.796
 268  250.2563
 269  215.7935
 270  295.5706
 271  268.037
 272  211.6073
 273  165.6312
 274  213.9046
 275  180.2376
 276  300.0283
 277  313.6129
 278  255.3543
 279  201.6379
 280  154.0479
 281  208.0783
 282  248.1189
 283  238.8808
 284  204.1123
 285  248.591
 286  267.3971
 287  226.415
 288  111.192
 289  191.4305
 290  132.0595
 291  218.8526
 292  322.9128
 293  299.3594
 294  317.5528
 295  370.1752
 296  361.1181
 297  180.7554
 298  66.03078
 299  72.07259
 300  116.1724
 301  237.4693
 302  87.44877
 303  123.5786
 304  291.1999
 305  228.6976
 306  174.6962
 307  125.1311
 308  268.2458
 309  352.3773
 310  343.7314
 311  223.6594
 312  199.3605
 313  219.3193
 314  171.3951
 315  138.7513
 316  301.4283
 317  280.4869
 318  278.5402
 319  156.7848
 320  261.9445
 321  285.7601
 322  190.4702
 323  259.6062
 324  301.9924
 325  328.4803
 326  517.4474
 327  422.0207
 328  301.4374
 329  239.2568
 330  164.7049
 331  60.54222
 332  51.02823
 333  174.8305
 334  231.0357
 335  293.8074
 336  229.0493
 337  178.8482
 338  241.7348
 339  44.39499
 340  67.61343
 341  199.1622
 342  463.4633
 343  441.4418
 344  430.8831
 345  326.4
 346  254.8091
 347  196.386
 348  187.8988
 349  193.5862
 350  76.52895
 351  146.4175
 352  149.4715
 353  56.09528
 354  217.9787
 355  243.8662
 356  153.3401
 357  85.96898
 358  228.1381
 359  415.0154
 360  347.8661
 361  251.4003
 362  283.084
 363  85.19547
 364  76.26971
 365  127.8977
 366  253.6985
 367  363.4398
 368  290.3082
 369  153.9834
 370  128.8617
 371  142.587
 372  103.8927
 373  271.7138
 374  227.1783
 375  288.689
 376  335.5697
 377  238.4044
 378  340.1031
 379  273.0755
 380  321.4194
 381  187.1199
 382  145.3897
 383  246.438
 384  267.9942
 385  275.6537
 386  231.2069
 387  237.544
 388  177.1619
 389  137.5024
 390  400.9019
 391  502.3404
 392  428.1675
 393  356.9089
 394  284.6583
 395  349.5197
 396  315.3055
 397  313.029
 398  301.7447
 399  318.489
 400  404.6388
 401  394.9073
 402  383.3268
 403  207.8165
 404  219.5202
 405  205.6097
 406  359.2284
 407  416.0421
 408  405.3638
 409  512.7002
 410  500.3838
 411  304.5755
 412  165.0637
 413  200.3607
 414  100.9276
 415  144.3106
 416  170.087
 417  255.7256
 418  259.6208
 419  146.002
 420  151.96
 421  218.5425
 422  157.0599
 423  144.1435
 424  359.1571
 425  471.7383
 426  453.3726
 427  325.4292
 428  196.7155
 429  207.6785
 430  191.9595
 431  164.2581
 432  178.4376
 433  250.5671
 434  233.5126
 435  161.4384
 436  281.1592
 437  167.3163
 438  63.53959
 439  93.12377
 440  259.7386
 441  318.6613
 442  249.5064
 443  215.4792
 444  291.221
 445  314.4085
 446  259.9969
 447  441.1214
 448  348.9154
 449  239.7238
 450  331.0585
 451  352.116
 452  363.8206
 453  218.409
 454  177.1093
 455  185.1467
 456  232.3233
 457  237.0383
 458  299.1267
 459  294.2249
 460  253.9236
 461  261.6133
 462  248.9185
 463  284.7852
 464  219.622
 465  160.0341
 466  318.1533
 467  347.7694
 468  183.7742
 469  201.5398
 470  207.483
 471  254.6692
 472  288.2931
 473  338.0845
 474  515.8836
 475  489.5151
 476  462.2186
 477  452.9333
 478  372.0455
 479  275.2872
 480  188.0075
 481  170.9518
 482  215.5439
 483  391.3087
 484  306.2997
 485  200.1073
 486  189.3397
 487  60.71637
 488  162.1036
 489  205.1661
 490  340.5889
 491  294.4066
 492  373.3394
 493  362.2505
 494  254.5457
 495  311.3828
 496  215.5377
 497  100.4698
 498  139.7211
 499  315.3121
 500  296.5659
 501  368.0917
 502  407.5651
 503  228.0402
 504  172.6503
 505  179.1088
 506  240.1471
 507  328.9042
 508  488.4072
 509  316.603
 510  187.654
 511  220.1105
