# Input file       =  1201432719.115438_cleaned.dat
# Candidate        =  PSR_0332+5434
# Telescope        =  AR
# Epoch_topo       =  58149.471505965717
# Epoch_bary       =  N/A
# T_sample         =  0.002
# Data Folded      =  7143424
# Data Avg         =  0.0127067799744697
# Data StdDev      =  1.00000831895085 
# Profile Bins     =  512
# Profile Avg      =  177.235541505005 
# Profile StdDev   =  118.119567104567 
# Reduced chi-sqr  =  1.984
# Prob(Noise)      <  1.79e-35   (~12.4 sigma)
# P_topo (ms)      =  714.575663551914  +/- 0.000114
# P'_topo (s/s)    =  -0                +/- 6.21e-11
# P''_topo (s/s^2) =  0                 +/- 2.82e-14
# P_bary (ms)      =  N/A
# P'_bary (s/s)    =  N/A
# P''_bary (s/s^2) =  N/A
# P_orb (s)        =  N/A
# asin(i)/c (s)    =  N/A
# eccentricity     =  N/A
# w (rad)          =  N/A
# T_peri           =  N/A
######################################################
   0  1007.014
   1  989.8416
   2  615.4681
   3  348.7041
   4  172.3228
   5  255.085
   6  200.0065
   7  42.94003
   8  276.2447
   9  313.3068
  10  329.9742
  11  269.9041
  12  305.4707
  13  357.705
  14  199.3147
  15  185.9776
  16  125
  17  101.613
  18  58.04167
  19  157.0958
  20  245.3445
  21  257.1787
  22  286.0603
  23  221.5194
  24  145.1249
  25  222.5029
  26  193.8786
  27  357.5434
  28  338.84
  29  337.0345
  30  330.9135
  31  114.1789
  32  151.9779
  33  99.49658
  34  175.3321
  35  268.8969
  36  258.2792
  37  93.86523
  38  123.5719
  39  192.2695
  40  57.07731
  41  104.922
  42  238.5447
  43  261.4006
  44  355.3961
  45  233.43
  46  200.8809
  47  222.6298
  48  197.3171
  49  200.0453
  50  117.8628
  51  139.5963
  52  102.6022
  53  240.5907
  54  223.4184
  55  163.1367
  56  154.7675
  57  134.0088
  58  36.19772
  59  -38.38169
  60  16.847
  61  212.6147
  62  182.3374
  63  238.3418
  64  134.1986
  65  8.384878
  66  123.3426
  67  195.2876
  68  143.7107
  69  197.2631
  70  92.98416
  71  -51.80919
  72  -6.822559
  73  219.3796
  74  107.5073
  75  56.63493
  76  231.8284
  77  248.4636
  78  200.1145
  79  165.9034
  80  252.9037
  81  166.0972
  82  55.49797
  83  271.6671
  84  184.6832
  85  217.9038
  86  243.1613
  87  88.41338
  88  140.7
  89  178.8837
  90  96.71278
  91  29.05896
  92  208.6198
  93  342.8824
  94  356.4657
  95  299.857
  96  158.1503
  97  102.087
  98  71.73803
  99  182.5232
 100  200.7505
 101  66.80011
 102  179.0169
 103  186.0089
 104  119.712
 105  3.385179
 106  -20.59007
 107  183.5829
 108  267.7043
 109  274.1497
 110  352.1681
 111  306.5249
 112  132.2951
 113  188.5189
 114  177.2929
 115  -64.68539
 116  -23.90662
 117  43.83717
 118  109.1869
 119  177.2014
 120  179.2175
 121  221.4239
 122  229.6492
 123  296.2401
 124  211.6877
 125  208.5156
 126  250.2996
 127  269.192
 128  304.283
 129  271.3601
 130  212.5903
 131  126.0189
 132  42.53174
 133  113.9153
 134  161.6676
 135  182.7068
 136  153.5685
 137  181.356
 138  214.4898
 139  135.3387
 140  123.9819
 141  374.5804
 142  328.0972
 143  321.6434
 144  301.9503
 145  217.7102
 146  215.4692
 147  120.1929
 148  187.3169
 149  129.11
 150  67.04618
 151  -23.86285
 152  86.59799
 153  139.8489
 154  217.0213
 155  20.74993
 156  40.67307
 157  11.86646
 158  114.0548
 159  164.6282
 160  132.5907
 161  296.7185
 162  275.7693
 163  91.47595
 164  -50.1353
 165  -0.4831279
 166  130.8358
 167  148.9142
 168  63.54678
 169  145.6167
 170  137.7903
 171  293.42
 172  295.196
 173  148.9578
 174  109.6464
 175  88.53135
 176  180.3354
 177  123.7827
 178  167.4631
 179  79.02002
 180  78.96904
 181  213.277
 182  171.4062
 183  173.9997
 184  315.4828
 185  332.9691
 186  241.7385
 187  106.9619
 188  16.42732
 189  73.62565
 190  117.482
 191  134.3957
 192  247.7475
 193  239.9451
 194  82.34612
 195  182.501
 196  217.6209
 197  130.3079
 198  102.2068
 199  156.5895
 200  312.7442
 201  231.6204
 202  194.3794
 203  74.37698
 204  160.5095
 205  247.6282
 206  124.4209
 207  28.04623
 208  101.2232
 209  200.0975
 210  259.2151
 211  192.0208
 212  262.2319
 213  219.3687
 214  208.8619
 215  60.6281
 216  162.4462
 217  268.8739
 218  221.8085
 219  178.2572
 220  258.8859
 221  229.6873
 222  115.7283
 223  130.2826
 224  203.224
 225  316.0794
 226  321.7024
 227  201.1421
 228  179.8443
 229  208.5164
 230  268.0938
 231  108.8132
 232  178.6353
 233  147.3799
 234  275.3118
 235  68.40665
 236  73.63599
 237  53.89779
 238  76.87814
 239  80.85234
 240  35.65095
 241  80.87813
 242  84.44762
 243  59.3209
 244  107.0778
 245  226.024
 246  246.1548
 247  128.2564
 248  -102.3454
 249  -78.59515
 250  284.7275
 251  247.8588
 252  128.7745
 253  245.5914
 254  204.076
 255  89.56788
 256  152.0686
 257  159.3531
 258  227.1382
 259  341.6628
 260  165.5178
 261  253.1392
 262  139.2532
 263  209.8006
 264  146.558
 265  151.9066
 266  103.4421
 267  93.58817
 268  223.1925
 269  111.9251
 270  130.6464
 271  70.34389
 272  120.0941
 273  114.4375
 274  232.578
 275  313.2129
 276  170.8818
 277  43.14335
 278  214.3121
 279  172.123
 280  215.6068
 281  135.9217
 282  163.3754
 283  214.6691
 284  269.0121
 285  277.9494
 286  55.83472
 287  34.39729
 288  92.96763
 289  103.017
 290  256.3859
 291  297.6351
 292  208.3743
 293  289.2989
 294  278.7758
 295  108.8155
 296  -25.03619
 297  192.4599
 298  36.03046
 299  115.181
 300  131.6343
 301  176.7499
 302  181.4988
 303  150.187
 304  111.2707
 305  101.6007
 306  151.3806
 307  202.7628
 308  295.8226
 309  179.9885
 310  156.6226
 311  150.3767
 312  135.3935
 313  186.0222
 314  181.36
 315  269.949
 316  276.2414
 317  219.2228
 318  351.4904
 319  160.1612
 320  142.6969
 321  70.65071
 322  71.35675
 323  102.3918
 324  171.2415
 325  228.4119
 326  238.0605
 327  325.8139
 328  193.2345
 329  112.1979
 330  229.8185
 331  260.6253
 332  244.0999
 333  188.4924
 334  110.3368
 335  60.96051
 336  98.79452
 337  243.0291
 338  213.1315
 339  132.5952
 340  197.617
 341  238.0931
 342  292.51
 343  327.9744
 344  132.5072
 345  81.12623
 346  80.14963
 347  115.9462
 348  196.4853
 349  251.8187
 350  263.0028
 351  122.1628
 352  174.0197
 353  110.0852
 354  89.77655
 355  124.8867
 356  104.5736
 357  160.4914
 358  199.878
 359  372.3951
 360  238.1965
 361  87.55884
 362  102.7482
 363  117.688
 364  58.99889
 365  228.9142
 366  271.2228
 367  109.6369
 368  195.7814
 369  83.2482
 370  93.7759
 371  100.6945
 372  172.9876
 373  165.9037
 374  129.0165
 375  140.0824
 376  121.9421
 377  80.03947
 378  190.1297
 379  211.8133
 380  127.2215
 381  151.2927
 382  77.05978
 383  -33.32259
 384  112.7482
 385  72.6974
 386  86.36959
 387  229.2304
 388  170.2066
 389  132.2039
 390  85.41624
 391  112.452
 392  131.9829
 393  71.51726
 394  117.1517
 395  72.94727
 396  65.86908
 397  110.8825
 398  222.7925
 399  185.4812
 400  34.1193
 401  81.05627
 402  85.40144
 403  170.2671
 404  100.9452
 405  93.48056
 406  236.6632
 407  367.6295
 408  403.3363
 409  106.3156
 410  168.756
 411  292.4993
 412  132.4997
 413  37.46758
 414  283.4553
 415  172.3896
 416  143.114
 417  155.0218
 418  84.57017
 419  118.0693
 420  172.9483
 421  163.6587
 422  293.9424
 423  373.0009
 424  430.2544
 425  465.4698
 426  376.6274
 427  281.6887
 428  167.2047
 429  45.9248
 430  116.4778
 431  221.8842
 432  268.8753
 433  227.6833
 434  112.7265
 435  114.5629
 436  102.7308
 437  135.5185
 438  155.1496
 439  175.838
 440  194.533
 441  270.4937
 442  272.8971
 443  205.228
 444  182.8606
 445  106.5231
 446  75.42934
 447  115.8385
 448  206.9015
 449  166.5414
 450  165.9948
 451  98.65385
 452  108.372
 453  0.6351285
 454  171.9317
 455  101.3543
 456  90.0228
 457  145.6577
 458  102.8548
 459  8.193963
 460  26.24443
 461  240.1433
 462  170.284
 463  73.06045
 464  62.70615
 465  106.1118
 466  136.6978
 467  100.5787
 468  126.44
 469  105.3194
 470  -44.68722
 471  67.85499
 472  204.0681
 473  189.9779
 474  142.1183
 475  204.9435
 476  145.2313
 477  67.73125
 478  -69.32369
 479  -71.75475
 480  99.66212
 481  98.87625
 482  66.56369
 483  119.8951
 484  95.4266
 485  161.0517
 486  223.3671
 487  88.01232
 488  138.7312
 489  353.4247
 490  290.2457
 491  307.5562
 492  361.6695
 493  415.3824
 494  390.7622
 495  274.5259
 496  138.5045
 497  157.1353
 498  111.4936
 499  110.4404
 500  205.1411
 501  316.5557
 502  332.4324
 503  171.4353
 504  188.3224
 505  194.1817
 506  307.0954
 507  372.155
 508  529.3604
 509  483.1951
 510  886.9725
 511  1077.691
