# Input file       =  1201949674.108761_cleaned.dat
# Candidate        =  PSR_0332+5434
# Telescope        =  AR
# Epoch_topo       =  58155.454781351400
# Epoch_bary       =  N/A
# T_sample         =  0.002
# Data Folded      =  7143424
# Data Avg         =  0.130234106492952
# Data StdDev      =  5.25400293670018 
# Profile Bins     =  512
# Profile Avg      =  1817.03240023925 
# Profile StdDev   =  620.595389746598 
# Reduced chi-sqr  =  5.526
# Prob(Noise)      <  0   (~0.0 sigma)
# P_topo (ms)      =  714.577888335917  +/- 1.11e-05
# P'_topo (s/s)    =  -0                +/- 6.01e-12
# P''_topo (s/s^2) =  0                 +/- 2.72e-15
# P_bary (ms)      =  N/A
# P'_bary (s/s)    =  N/A
# P''_bary (s/s^2) =  N/A
# P_orb (s)        =  N/A
# asin(i)/c (s)    =  N/A
# eccentricity     =  N/A
# w (rad)          =  N/A
# T_peri           =  N/A
######################################################
   0  1137.782
   1  2296.746
   2  2461.982
   3  2052.122
   4  1496.374
   5  801.9529
   6  610.9351
   7  875.9724
   8  1713.153
   9  3036.249
  10  3930.79
  11  3539.393
  12  2267.309
  13  1661.153
  14  1167.747
  15  698.3388
  16  1036.142
  17  1771.669
  18  2383.129
  19  2267.828
  20  1727.482
  21  888.0848
  22  583.6102
  23  541.4012
  24  1406.257
  25  2625.211
  26  3424.505
  27  3888.309
  28  3384.785
  29  2336.529
  30  1204.78
  31  520.6133
  32  372.9712
  33  947.0668
  34  2297.819
  35  2340.387
  36  1583.818
  37  1398.746
  38  1201.962
  39  650.0695
  40  471.1757
  41  1660.338
  42  3295.697
  43  4234.05
  44  3693.028
  45  2591.854
  46  1901.827
  47  1055.815
  48  484.657
  49  974.6533
  50  1560.838
  51  2368.564
  52  2331.611
  53  1639.734
  54  1495.735
  55  912.4767
  56  543.9568
  57  1314.762
  58  2724.225
  59  4014.22
  60  4058.369
  61  3065.264
  62  2053.459
  63  1623.235
  64  1050.342
  65  199.7831
  66  915.6591
  67  1835.205
  68  2395.187
  69  1930.508
  70  1038.948
  71  1106.969
  72  518.6964
  73  509.2982
  74  1375.737
  75  3264.726
  76  4135.966
  77  3685.305
  78  2858.844
  79  1716.456
  80  1063.05
  81  923.4974
  82  956.9678
  83  1359.747
  84  2007.284
  85  2155.168
  86  1138.306
  87  960.028
  88  891.0877
  89  488.1244
  90  826.7991
  91  2095.748
  92  3609.522
  93  3939.462
  94  2989.184
  95  2196.262
  96  1421.897
  97  733.2618
  98  758.5385
  99  1165.329
 100  2400.156
 101  2617.12
 102  1911.239
 103  1114.373
 104  756.4719
 105  401.8517
 106  698.3906
 107  1676.756
 108  2829.229
 109  3824.195
 110  3482.957
 111  2620.768
 112  2166.087
 113  1525.499
 114  869.9764
 115  562.0748
 116  1407.413
 117  2478.38
 118  2253.969
 119  1553.872
 120  1180.086
 121  744.2001
 122  140.5094
 123  1232.95
 124  3066.962
 125  3906.538
 126  4074.067
 127  3252.105
 128  2479.948
 129  1887.454
 130  1229.602
 131  1172.412
 132  1572.464
 133  2517.428
 134  2585.572
 135  2221.664
 136  1526.687
 137  805.5819
 138  699.4125
 139  987.4789
 140  2423.687
 141  3334.191
 142  4413.43
 143  4389.293
 144  3129.991
 145  1745.832
 146  1362.988
 147  675.957
 148  403.0294
 149  1310.766
 150  2213.961
 151  2300.524
 152  1675.272
 153  860.7696
 154  864.7095
 155  541.7651
 156  723.5988
 157  2437.341
 158  3991.723
 159  4279.499
 160  3421.705
 161  2191.804
 162  1439.676
 163  1203.287
 164  960.147
 165  1165.949
 166  1902.444
 167  2499.58
 168  1875.481
 169  1272.095
 170  885.6665
 171  507.834
 172  735.071
 173  1660.519
 174  3126.09
 175  3960.106
 176  3467.341
 177  2665.855
 178  2249.141
 179  1463.616
 180  1199.507
 181  1211.736
 182  1754.701
 183  2513.125
 184  2544.563
 185  2028.804
 186  1403.539
 187  709.5516
 188  623.114
 189  1215.094
 190  2170.805
 191  3224.89
 192  3786.238
 193  3339.581
 194  2338.717
 195  1579.392
 196  1201.956
 197  1014.762
 198  1083.529
 199  1994.597
 200  2708.711
 201  2090.467
 202  1461.036
 203  1138.405
 204  797.2496
 205  970.8705
 206  1998.146
 207  3622.525
 208  4135.002
 209  4066.526
 210  3191.638
 211  2065.57
 212  1584.275
 213  983.8651
 214  873.3853
 215  1575.448
 216  2619.273
 217  2477.167
 218  1487.303
 219  1191.892
 220  577.3855
 221  359.4467
 222  1076.072
 223  2300.896
 224  3409.793
 225  3650.013
 226  3530.932
 227  2397.344
 228  1890.434
 229  1300.38
 230  702.7227
 231  827.476
 232  1760.162
 233  2471.082
 234  2455.609
 235  1654.185
 236  1004.774
 237  680.5867
 238  493.3476
 239  1551.879
 240  2844.489
 241  4179.913
 242  3880.144
 243  2508.808
 244  1852.167
 245  1349.4
 246  857.0173
 247  622.3389
 248  1125.947
 249  1935.97
 250  2055.677
 251  1596.112
 252  761.9909
 253  318.2391
 254  164.8572
 255  457.8046
 256  2303.497
 257  3500.254
 258  3871.316
 259  3157.567
 260  2246.013
 261  1515.937
 262  958.2766
 263  810.5498
 264  807.9277
 265  1730.64
 266  2574.45
 267  2283.99
 268  1745.223
 269  1083.616
 270  532.4218
 271  446.9203
 272  1334.354
 273  2925.115
 274  3948.845
 275  3653.883
 276  2870.793
 277  1899.126
 278  1469.45
 279  609.8973
 280  729.9398
 281  1689.266
 282  2377.838
 283  2024.118
 284  1145.496
 285  694.3511
 286  859.3286
 287  180.4373
 288  1044.463
 289  2368.57
 290  3465.891
 291  3795.205
 292  3081.599
 293  2255.811
 294  1486.833
 295  918.8411
 296  854.4568
 297  1103.956
 298  2158.421
 299  2887.14
 300  2110.881
 301  1523.319
 302  1240.488
 303  822.6668
 304  1464.037
 305  3057.222
 306  4425.861
 307  4820.178
 308  4860.669
 309  3345.943
 310  2111.035
 311  1515.151
 312  794.5089
 313  802.5969
 314  1400.25
 315  2110.689
 316  2130.306
 317  1665.117
 318  1314.027
 319  790.826
 320  441.7614
 321  691.7795
 322  2451.161
 323  3607.084
 324  3814.53
 325  3804.77
 326  2582.033
 327  1587.006
 328  1103.31
 329  516.2566
 330  706.6432
 331  1580.58
 332  2206.848
 333  2183.673
 334  1368.093
 335  981.9487
 336  348.4414
 337  103.6421
 338  1084.954
 339  2487.58
 340  3653.11
 341  3786.348
 342  3178.84
 343  2055.81
 344  1298.771
 345  824.9001
 346  465.4033
 347  894.2656
 348  2024.532
 349  2296.734
 350  1659.934
 351  1035.472
 352  986.3121
 353  607.8708
 354  822.1028
 355  2137.121
 356  3711.775
 357  4166.786
 358  3053.264
 359  2189.26
 360  1509.88
 361  1004.648
 362  687.4008
 363  1049.163
 364  1784.208
 365  2447.761
 366  2038.071
 367  1404.745
 368  787.0591
 369  326.5237
 370  486.6603
 371  1506.728
 372  2661.875
 373  3732.925
 374  3411.655
 375  2597.208
 376  1633.015
 377  1405.991
 378  1018.172
 379  667.6377
 380  1441.562
 381  2451.732
 382  2497.665
 383  1771.12
 384  1206.127
 385  590.0565
 386  461.5573
 387  699.7814
 388  1971.48
 389  3646.591
 390  4129.617
 391  3087.888
 392  1632.14
 393  1172.253
 394  910.8328
 395  769.032
 396  972.0427
 397  1996.19
 398  2446.782
 399  1684.006
 400  1215.777
 401  783.1308
 402  956.5614
 403  747.4946
 404  1022.905
 405  2700.177
 406  3484.386
 407  3472.789
 408  2738.998
 409  1797.216
 410  1331.467
 411  899.2171
 412  590.511
 413  734.3832
 414  2040.885
 415  2656.377
 416  1843.045
 417  1220.148
 418  658.3057
 419  676.9705
 420  790.0981
 421  1862.674
 422  3172.396
 423  3613.875
 424  3232.345
 425  2118.997
 426  1542.01
 427  1194.39
 428  570.7652
 429  874.1132
 430  1819.171
 431  2023.475
 432  2215.188
 433  1137.129
 434  768.2141
 435  577.8812
 436  419.3535
 437  1252.44
 438  2294.789
 439  3273.755
 440  3472.176
 441  2673.839
 442  1939.545
 443  1095.214
 444  731.9933
 445  360.4277
 446  1028.577
 447  2067.702
 448  2546.99
 449  1843.752
 450  817.9488
 451  149.7772
 452  190.5968
 453  991.6023
 454  1878.569
 455  2955.132
 456  3395.862
 457  2808.575
 458  2143.26
 459  1681.085
 460  1130.821
 461  724.1497
 462  1065.962
 463  1694.709
 464  1952.781
 465  1702.675
 466  1292.733
 467  492.2754
 468  405.8931
 469  81.98203
 470  855.1416
 471  2470.224
 472  3345.925
 473  3395.863
 474  2398.142
 475  1627.746
 476  1147.432
 477  637.5866
 478  473.535
 479  1025.83
 480  1969.761
 481  2476.576
 482  1592.519
 483  1240.254
 484  923.2289
 485  407.1203
 486  937.8613
 487  1957.857
 488  3505.075
 489  3876.251
 490  3135.584
 491  2062.081
 492  1527.944
 493  1299.779
 494  685.7412
 495  720.6188
 496  1539.812
 497  2147.929
 498  2090.423
 499  1609.779
 500  787.6843
 501  689.8282
 502  687.4388
 503  1065.421
 504  2590.236
 505  3702.187
 506  4047.72
 507  3216.792
 508  1942.936
 509  1274.497
 510  1175.267
 511  942.669
