# Input file       =  1201949674.108761-PSRB0329-2ms-sampling-dd.dat
# Candidate        =  PSR_0332+5434
# Telescope        =  AR
# Epoch_topo       =  58155.454781351400
# Epoch_bary       =  N/A
# T_sample         =  0.002
# Data Folded      =  7208960
# Data Avg         =  7.12111606507573e-10
# Data StdDev      =  11.5099324228295 
# Profile Bins     =  512
# Profile Avg      =  1.22112796215061 
# Profile StdDev   =  1365.75909473218 
# Reduced chi-sqr  =  1.892
# Prob(Noise)      <  1.63e-30   (~11.4 sigma)
# P_topo (ms)      =  714.577888158258  +/- 2.53e-05
# P'_topo (s/s)    =  -0                +/- 1.36e-11
# P''_topo (s/s^2) =  0                 +/- 6.11e-15
# P_bary (ms)      =  N/A
# P'_bary (s/s)    =  N/A
# P''_bary (s/s^2) =  N/A
# P_orb (s)        =  N/A
# asin(i)/c (s)    =  N/A
# eccentricity     =  N/A
# w (rad)          =  N/A
# T_peri           =  N/A
######################################################
   0  -989.702
   1  -1376.547
   2  -1852.127
   3  -866.1805
   4  -309.726
   5  -397.8043
   6  -1176.225
   7  -2212.575
   8  -2366.332
   9  -2150.499
  10  -1363.434
  11  394.0813
  12  1113.717
  13  1134.616
  14  301.0508
  15  -476.7466
  16  -1328.434
  17  -1455.053
  18  -1469.463
  19  -1043.172
  20  -16.78251
  21  507.0569
  22  134.3509
  23  -688.2923
  24  -1263.299
  25  -1425.636
  26  -1175.975
  27  18.40869
  28  1742.414
  29  2038.778
  30  1397.876
  31  53.46059
  32  -859.571
  33  -1398.253
  34  -1901.991
  35  -1004.23
  36  -130.8964
  37  316.8749
  38  -206.0108
  39  -1170.213
  40  -1369.454
  41  -1738.651
  42  -1706.143
  43  -535.3954
  44  739.3987
  45  1679.723
  46  1443.661
  47  867.7599
  48  -321.9824
  49  -1033.89
  50  -1319.696
  51  -1530.859
  52  -963.8116
  53  698.7205
  54  1075.896
  55  26.77005
  56  -322.9193
  57  -730.8634
  58  -804.7538
  59  115.0511
  60  1965.313
  61  2791.229
  62  3265.438
  63  2451.726
  64  762.8821
  65  -185.9744
  66  -1136.417
  67  -1352.113
  68  -1256.104
  69  -696.4249
  70  -306.9555
  71  -423.862
  72  -586.9046
  73  -1162.245
  74  -1490.202
  75  -1680.339
  76  -1203.714
  77  291.1309
  78  916.1901
  79  1467.667
  80  817.4368
  81  -362.061
  82  -1141.407
  83  -1354.317
  84  -1773.469
  85  -1403.656
  86  -548.7122
  87  99.64306
  88  -21.15167
  89  -901.9249
  90  -1497.193
  91  -2128.232
  92  -1691.11
  93  -405.2201
  94  870.2758
  95  1675.424
  96  1292.347
  97  318.2601
  98  -688.3966
  99  -1470.113
 100  -1644.157
 101  -1664.868
 102  -801.9286
 103  78.5488
 104  -59.24575
 105  -1028.02
 106  -1587.722
 107  -1468.47
 108  -1113.564
 109  -261.0409
 110  1053.31
 111  2100.114
 112  1842.87
 113  206.9065
 114  -336.4538
 115  -720.126
 116  -319.2781
 117  -549.9767
 118  -426.7094
 119  191.5679
 120  282.869
 121  -404.2834
 122  -1099.178
 123  -1407.736
 124  -1572.606
 125  -1010.512
 126  -11.19134
 127  1367.86
 128  1802.108
 129  1132.774
 130  289.0515
 131  -981.5679
 132  -1357.854
 133  -1746.968
 134  -1393.59
 135  -407.2835
 136  388.8795
 137  -59.85017
 138  -801.9262
 139  -1424.484
 140  -2055.826
 141  -1698.876
 142  -1264.035
 143  86.95113
 144  1109.02
 145  783.1844
 146  -391.3431
 147  -1209.27
 148  -1269.479
 149  -1083.216
 150  -1021.45
 151  -743.7433
 152  -82.5957
 153  31.70821
 154  -512.489
 155  -1150.518
 156  -1044.007
 157  -524.4705
 158  -954.8253
 159  18.63249
 160  1384.237
 161  1715.679
 162  2201.975
 163  1655.298
 164  760.0557
 165  358.5784
 166  -1277.744
 167  -1253.819
 168  182.9235
 169  3126.164
 170  3744.488
 171  2815.74
 172  852.8885
 173  -1203.02
 174  -1496.64
 175  -1054.85
 176  359.0487
 177  1380.767
 178  1256.519
 179  1661.744
 180  1122.473
 181  1371.881
 182  1533.041
 183  705.4595
 184  309.0663
 185  -603.8954
 186  2503.352
 187  2556.824
 188  1862.952
 189  1954.971
 190  600.4601
 191  -408.2561
 192  -266.0386
 193  917.1375
 194  1656.517
 195  1110.839
 196  671.5948
 197  -116.1522
 198  -1014.605
 199  -1407.76
 200  -1505.921
 201  -534.2931
 202  241.8148
 203  444.3604
 204  -455.2639
 205  -1510.336
 206  -2046.042
 207  -1703.861
 208  -767.7486
 209  290.225
 210  1694.756
 211  1810.005
 212  1405.466
 213  589.0929
 214  -975.0787
 215  -1553.73
 216  -736.4185
 217  619.5945
 218  1395.062
 219  1337.7
 220  106.8606
 221  -1227.404
 222  -1805.986
 223  -1385.391
 224  -1679.888
 225  -717.8737
 226  894.6878
 227  1147.618
 228  950.4037
 229  113.2441
 230  -687.3957
 231  -1306.289
 232  -1803.617
 233  -1682.015
 234  -1242.492
 235  -144.1784
 236  46.21804
 237  -445.9263
 238  -659.6553
 239  -1527.846
 240  -1657.201
 241  -944.6589
 242  413.6258
 243  1681.647
 244  1838.363
 245  753.9812
 246  -432.9655
 247  -1137.826
 248  -1198.889
 249  -1607.873
 250  -1195.172
 251  -71.88543
 252  227.6118
 253  139.0524
 254  -1041.286
 255  -1628.106
 256  -1372.178
 257  -1021.838
 258  -104.484
 259  1411.846
 260  2015.648
 261  1674.23
 262  936.3857
 263  -300.0371
 264  -899.4567
 265  -877.2475
 266  -1285.636
 267  -539.41
 268  314.2466
 269  254.1236
 270  157.5712
 271  -796.1507
 272  -1177.724
 273  -1165.946
 274  -925.6919
 275  194.09
 276  1454.784
 277  1952.776
 278  1072.763
 279  50.25858
 280  -594.0902
 281  -1123.579
 282  -1170.94
 283  -564.1469
 284  369.0545
 285  1302.2
 286  1713.226
 287  1832.219
 288  2227.4
 289  2320.332
 290  2576.025
 291  3463.2
 292  3724.854
 293  3942.569
 294  5514.672
 295  5108.397
 296  3798.123
 297  2325.418
 298  -245.1013
 299  -1100.394
 300  -1047.043
 301  -55.11028
 302  -419.6154
 303  -777.2135
 304  -714.1891
 305  -1412.62
 306  -1765.857
 307  -1602.63
 308  -164.4637
 309  960.1716
 310  1635.999
 311  963.6581
 312  433.7879
 313  -505.2266
 314  -1432.566
 315  -1848.513
 316  -1368.709
 317  -948.287
 318  518.2419
 319  384.7459
 320  182.0459
 321  -96.63163
 322  -824.2269
 323  -1210.534
 324  -471.7849
 325  865.2192
 326  2167.372
 327  1822.35
 328  821.142
 329  32.25559
 330  -758.9111
 331  -1564.896
 332  -1888.212
 333  -1047.191
 334  -216.9464
 335  -13.77513
 336  -401.5523
 337  -416.2589
 338  146.3703
 339  -229.8228
 340  636.1691
 341  1868.071
 342  2558.216
 343  3234.718
 344  4058.402
 345  3933.04
 346  2296.144
 347  2859.729
 348  1128.797
 349  875.9733
 350  967.6357
 351  2091.538
 352  1065.311
 353  -614.8801
 354  -924.0402
 355  -1591.177
 356  -1517.884
 357  -631.2231
 358  1239.289
 359  2730.791
 360  2493.4
 361  1249.547
 362  229.425
 363  -873.7315
 364  -1003.866
 365  -104.9388
 366  1307.293
 367  2384.524
 368  2465.404
 369  -546.7579
 370  -550.6326
 371  215.5882
 372  2425.763
 373  3487.42
 374  4123.93
 375  3592.436
 376  2370.651
 377  1230.175
 378  1096.436
 379  -258.8654
 380  -849.3049
 381  -1552.64
 382  -1795.343
 383  -674.6093
 384  69.01685
 385  5.37906
 386  -243.749
 387  -633.2626
 388  -1142.604
 389  -1382.8
 390  -527.7833
 391  937.046
 392  2141.857
 393  2518.995
 394  1575.387
 395  1071.486
 396  131.8032
 397  -783.7327
 398  -1234.306
 399  -517.4782
 400  658.1232
 401  579.0583
 402  165.0299
 403  -647.4166
 404  -1122.889
 405  -1069.293
 406  -408.8687
 407  1105.565
 408  1786.421
 409  2477.009
 410  2132.285
 411  728.3173
 412  -456.5386
 413  -1004.178
 414  -1828.402
 415  -1551.193
 416  -510.0695
 417  264.8392
 418  90.1757
 419  -669.7981
 420  -1158.746
 421  -1332.534
 422  -1518.173
 423  -1022.91
 424  741.9728
 425  2143.271
 426  1756.616
 427  1018.083
 428  -338.7405
 429  -762.8325
 430  -1026.566
 431  -1443.756
 432  -697.0699
 433  31.15395
 434  450.1622
 435  -324.6401
 436  -1046.906
 437  -1560.65
 438  -1794.513
 439  -1138.072
 440  193.2049
 441  1678.208
 442  1697.395
 443  800.0719
 444  296.7413
 445  -314.7668
 446  -744.229
 447  -674.0134
 448  -850.9387
 449  -237.8173
 450  282.0775
 451  192.9828
 452  -524.7322
 453  -1363.168
 454  -1777.256
 455  -1517.487
 456  -960.1816
 457  32.537
 458  1083.187
 459  1632.422
 460  1037.555
 461  56.78558
 462  -747.7828
 463  -1397.938
 464  -1793.211
 465  -1193.842
 466  422.5324
 467  497.7589
 468  -509.2881
 469  -983.4836
 470  -1351.824
 471  -1152.925
 472  -791.1209
 473  504.9655
 474  1866.202
 475  2059.66
 476  1942.61
 477  651.0409
 478  -411.8903
 479  -1164.925
 480  -1633.049
 481  -1328.656
 482  -375.1357
 483  486.4676
 484  -315.4353
 485  -894.9978
 486  -1264.152
 487  -1792.799
 488  -1574.62
 489  -1049.36
 490  418.586
 491  1175.585
 492  1540.717
 493  947.9673
 494  -119.9004
 495  -570.4789
 496  -1017.145
 497  -1585.693
 498  -1314.545
 499  -160.0467
 500  596.5093
 501  295.5797
 502  -601.9483
 503  -828.3099
 504  -1157.755
 505  -941.2922
 506  184.4437
 507  1277.314
 508  2594.046
 509  1407.687
 510  397.2208
 511  -127.3487
