# Input file       =  1201432719.115438_cleaned.dat
# Candidate        =  PSR_0332+5434
# Telescope        =  AR
# Epoch_topo       =  58149.471505965717
# Epoch_bary       =  N/A
# T_sample         =  0.002
# Data Folded      =  7143424
# Data Avg         =  0.0127067799744697
# Data StdDev      =  1.00000831895085 
# Profile Bins     =  512
# Profile Avg      =  177.23554387465  
# Profile StdDev   =  118.119567104567 
# Reduced chi-sqr  =  1.986
# Prob(Noise)      <  1.38e-35   (~12.4 sigma)
# P_topo (ms)      =  714.575664831511  +/- 0.000114
# P'_topo (s/s)    =  -0                +/- 6.19e-11
# P''_topo (s/s^2) =  0                 +/- 2.81e-14
# P_bary (ms)      =  N/A
# P'_bary (s/s)    =  N/A
# P''_bary (s/s^2) =  N/A
# P_orb (s)        =  N/A
# asin(i)/c (s)    =  N/A
# eccentricity     =  N/A
# w (rad)          =  N/A
# T_peri           =  N/A
######################################################
   0  359.813
   1  336.127
   2  339.8517
   3  325.595
   4  114.4457
   5  150.9661
   6  98.49526
   7  178.9505
   8  269.8647
   9  257.069
  10  88.60687
  11  128.5863
  12  191.5773
  13  51.99207
  14  111.195
  15  237.5007
  16  264.7848
  17  354.2318
  18  231.9769
  19  200.8889
  20  224.1312
  21  195.7233
  22  200.2138
  23  115.5832
  24  140.5924
  25  102.8021
  26  243.5469
  27  220.2966
  28  161.2415
  29  157.8174
  30  129.4939
  31  35.77295
  32  -41.80743
  33  23.07282
  34  213.382
  35  183.3777
  36  238.8799
  37  130.0429
  38  7.330092
  39  129.1103
  40  192.3311
  41  144.1508
  42  197.8064
  43  90.50166
  44  -56.98996
  45  0.282296
  46  221.099
  47  102.0312
  48  60.00308
  49  234.8215
  50  248.6605
  51  199.4392
  52  166.4444
  53  252.8425
  54  161.4734
  55  59.66083
  56  271.8812
  57  181.7828
  58  221.2191
  59  240.4758
  60  86.43909
  61  143.6235
  62  179.5802
  63  92.29243
  64  30.27391
  65  211.7315
  66  345.2503
  67  356.9776
  68  297.5748
  69  154.6133
  70  101.5882
  71  71.92068
  72  186.3315
  73  196.4949
  74  66.99792
  75  184.6893
  76  181.3579
  77  120.7194
  78  -0.730465
  79  -16.79089
  80  188.1985
  81  267.6031
  82  273.5967
  83  352.6825
  84  302.7916
  85  130.4013
  86  192.6118
  87  170.4257
  88  -65.14992
  89  -21.25222
  90  43.21434
  91  112.414
  92  178.4106
  93  178.4418
  94  223.8436
  95  229.7114
  96  294.9041
  97  210.737
  98  209.2298
  99  250.8533
 100  269.8586
 101  305.4052
 102  269.9676
 103  209.2495
 104  124.5626
 105  41.08739
 106  117.0477
 107  163.3098
 108  181.2495
 109  153.8289
 110  182.699
 111  215.4496
 112  131.3456
 113  128.4738
 114  379.1237
 115  322.2177
 116  324.5622
 117  299.9999
 118  216.7252
 119  216.0881
 120  118.7447
 121  186.865
 122  128.6187
 123  63.72221
 124  -22.90923
 125  88.11758
 126  140.7612
 127  216.4425
 128  16.32505
 129  43.43524
 130  11.45924
 131  116.9591
 132  161.3565
 133  135.6435
 134  300.4851
 135  274.0869
 136  86.45387
 137  -53.07923
 138  2.494687
 139  134.6855
 140  146.6156
 141  63.86021
 142  146.7788
 143  140.5438
 144  296.6445
 145  291.7518
 146  147.1998
 147  106.5904
 148  90.73779
 149  180.4272
 150  122.0004
 151  169.193
 152  75.27267
 153  82.41827
 154  215.7416
 155  169.1339
 156  176.9354
 157  316.1754
 158  333.3612
 159  239.1811
 160  103.205
 161  16.922
 162  74.24403
 163  118.1788
 164  133.8644
 165  250.6824
 166  235.5483
 167  82.29589
 168  187.0332
 169  215.7268
 170  128.5609
 171  103.8402
 172  160.1926
 173  314.6595
 174  229.1631
 175  193.1968
 176  70.16692
 177  165.3379
 178  247.4321
 179  117.8019
 180  30.9845
 181  100.0219
 182  206.9466
 183  255.2031
 184  194.2293
 185  261.1652
 186  218.9
 187  207.4361
 188  59.34667
 189  167.2211
 190  270.6578
 191  218.271
 192  179.307
 193  258.0563
 194  229.4022
 195  112.8292
 196  132.6281
 197  204.6398
 198  319.9164
 199  315.6389
 200  201.4451
 201  179.6753
 202  210.8626
 203  266.9934
 204  106.1949
 205  180.5174
 206  147.6437
 207  277.5563
 208  61.20618
 209  77.96098
 210  51.85666
 211  76.43681
 212  81.31525
 213  34.55487
 214  81.44168
 215  84.24443
 216  58.18843
 217  111.4251
 218  228.0518
 219  245.0199
 220  121.8762
 221  -104.5633
 222  -72.29758
 223  292.3126
 224  240.9206
 225  130.3427
 226  248.2148
 227  198.8436
 228  90.07193
 229  152.0553
 230  160.6364
 231  230.5034
 232  340.0326
 233  164.0876
 234  253.1825
 235  139.4388
 236  210.657
 237  143.5198
 238  154.3635
 239  101.556
 240  95.45713
 241  224.4617
 242  107.0067
 243  132.3515
 244  70.05184
 245  121.5385
 246  114.1673
 247  237.0604
 248  311.8645
 249  164.6315
 250  46.44426
 251  216.0088
 252  171.0979
 253  215.4847
 254  133.5949
 255  167.5686
 256  213.8424
 257  272.4865
 258  274.9766
 259  48.34608
 260  37.47284
 261  93.09868
 262  105.2782
 263  261.2905
 264  292.5515
 265  211.0595
 266  289.709
 267  277.0327
 268  102.8276
 269  -21.6343
 270  193.2297
 271  33.56084
 272  116.6447
 273  131.4631
 274  179.6639
 275  178.9485
 276  151.7629
 277  107.8612
 278  104.4603
 279  151.1705
 280  205.4183
 281  293.494
 282  179.8653
 283  157.6863
 284  149.1833
 285  134.3906
 286  187.9538
 287  181.7529
 288  273.0492
 289  274.5074
 290  219.7049
 291  352.4124
 292  155.5441
 293  143.7175
 294  66.77161
 295  71.59737
 296  104.3497
 297  171.8727
 298  230.1718
 299  240.4522
 300  326.5856
 301  187.845
 302  116.4098
 303  231.0514
 304  257.8448
 305  243.2394
 306  187.8147
 307  107.8183
 308  59.73441
 309  103.2038
 310  244.6191
 311  211.762
 312  131.5312
 313  199.5378
 314  238.3238
 315  294.3578
 316  325.8881
 317  128.5647
 318  81.11504
 319  80.64311
 320  117.3068
 321  197.6104
 322  254.6482
 323  261.2132
 324  119.5649
 325  176.0536
 326  107.787
 327  90.20666
 328  123.9079
 329  104.0295
 330  162.8839
 331  201.6143
 332  374.5928
 333  235.6524
 334  82.38445
 335  106.745
 336  113.6977
 337  61.77448
 338  232.6943
 339  268.4261
 340  109.302
 341  195.8439
 342  79.6431
 343  97.22002
 344  100.6176
 345  174.4674
 346  162.5385
 347  131.491
 348  139.6098
 349  119.4059
 350  83.37287
 351  190.5114
 352  211.2944
 353  126.068
 354  151.0282
 355  73.21326
 356  -32.08981
 357  115.7381
 358  68.29446
 359  93.66862
 360  228.3481
 361  169.4484
 362  129.9081
 363  84.12515
 364  114.8023
 365  130.7355
 366  72.7392
 367  117.9532
 368  71.3606
 369  66.50101
 370  110.9494
 371  226.6541
 372  180.3168
 373  33.7612
 374  80.55027
 375  86.88441
 376  171.0527
 377  98.11857
 378  96.99049
 379  239.9822
 380  370.6205
 381  400.7726
 382  99.82016
 383  173.5552
 384  292.5709
 385  125.6927
 386  40.03359
 387  289.4909
 388  165.3253
 389  146.4093
 390  152.9696
 391  84.78236
 392  121.0239
 393  173.3934
 394  164.5061
 395  296.8366
 396  373.56
 397  431.0154
 398  464.6031
 399  374.8276
 400  279.1693
 401  164.5221
 402  44.59383
 403  119.511
 404  223.0473
 405  271.1208
 406  222.8165
 407  113.7045
 408  113.1724
 409  102.5917
 410  138.4054
 411  152.9122
 412  176.4288
 413  194.0889
 414  273.1034
 415  271.188
 416  205.7668
 417  183.6905
 418  103.4481
 419  76.42531
 420  116.4615
 421  206.8234
 422  165.639
 423  165.1443
 424  98.54113
 425  107.907
 426  -0.4612274
 427  175.0571
 428  98.6274
 429  93.39706
 430  144.5292
 431  99.79645
 432  6.10627
 433  31.89245
 434  244.0284
 435  165.8689
 436  71.77799
 437  62.55718
 438  107.0388
 439  137.3202
 440  99.99235
 441  126.5822
 442  103.1754
 443  -45.98144
 444  73.38593
 445  204.4358
 446  187.4847
 447  142.5603
 448  205.2945
 449  145.0745
 450  64.02885
 451  -71.70985
 452  -68.30962
 453  102.4974
 454  95.55709
 455  68.62486
 456  120.365
 457  94.68539
 458  166.0397
 459  219.5092
 460  87.78425
 461  141.9473
 462  356.8076
 463  287.6395
 464  306.9133
 465  366.4043
 466  414.4353
 467  390.6034
 468  268.4167
 469  140.2003
 470  156.3525
 471  110.2654
 472  108.9963
 473  208.1036
 474  322.0423
 475  329.2047
 476  166.5797
 477  189.2697
 478  195.7343
 479  308.6777
 480  377.7785
 481  529.3584
 482  487.8669
 483  898.201
 484  1077.101
 485  1005.513
 486  983.1241
 487  607.4863
 488  341.694
 489  174.001
 490  255.7999
 491  194.846
 492  44.44671
 493  280.2397
 494  313.5922
 495  330.3107
 496  266.9579
 497  310.6029
 498  354.7567
 499  197.5099
 500  184.5668
 501  125.656
 502  98.64928
 503  59.56172
 504  157.7823
 505  249.2517
 506  256.9174
 507  286.831
 508  217.9622
 509  144.8848
 510  222.8415
 511  196.0507
