# Input file       =  1201605060.106532_cleaned.dat
# Candidate        =  PSR_0332+5434
# Telescope        =  AR
# Epoch_topo       =  58151.466193362641
# Epoch_bary       =  N/A
# T_sample         =  0.002
# Data Folded      =  7208960
# Data Avg         =  0.0134828004867908
# Data StdDev      =  1.00000859055817 
# Profile Bins     =  512
# Profile Avg      =  189.91501102121  
# Profile StdDev   =  118.660195142083 
# Reduced chi-sqr  =  1.452
# Prob(Noise)      <  9.16e-11   (~6.4 sigma)
# P_topo (ms)      =  714.576468234888  +/- 0.000129
# P'_topo (s/s)    =  -0                +/- 6.95e-11
# P''_topo (s/s^2) =  0                 +/- 3.12e-14
# P_bary (ms)      =  N/A
# P'_bary (s/s)    =  N/A
# P''_bary (s/s^2) =  N/A
# P_orb (s)        =  N/A
# asin(i)/c (s)    =  N/A
# eccentricity     =  N/A
# w (rad)          =  N/A
# T_peri           =  N/A
######################################################
   0  758.7572
   1  835.0127
   2  622.9505
   3  362.9308
   4  268.8527
   5  360.583
   6  231.0361
   7  132.3896
   8  110.6538
   9  196.8233
  10  216.866
  11  379.6541
  12  337.0424
  13  285.1934
  14  225.4958
  15  135.3588
  16  115.3458
  17  194.2602
  18  177.5223
  19  275.4052
  20  332.0342
  21  231.819
  22  114.5549
  23  66.48417
  24  125.4933
  25  102.734
  26  118.8215
  27  291.7288
  28  261.1714
  29  188.9141
  30  152.2076
  31  66.19205
  32  86.31745
  33  49.07955
  34  29.38846
  35  152.435
  36  154.9596
  37  269.0999
  38  81.90523
  39  35.51715
  40  180.4745
  41  168.921
  42  110.9298
  43  57.50424
  44  212.7221
  45  135.4279
  46  128.2846
  47  162.6083
  48  184.1713
  49  162.1554
  50  200.9409
  51  261.1505
  52  335.1072
  53  303.4168
  54  245.365
  55  174.4424
  56  174.0468
  57  108.9264
  58  152.6761
  59  198.4118
  60  240.6532
  61  221.2677
  62  279.5373
  63  209.0208
  64  130.1242
  65  182.207
  66  -11.53779
  67  3.706267
  68  186.0672
  69  170.7043
  70  69.62944
  71  168.8681
  72  272.8126
  73  103.748
  74  -6.557966
  75  232.0018
  76  174.6215
  77  187.2723
  78  262.4747
  79  159.1499
  80  119.4583
  81  58.877
  82  148.6353
  83  227.1335
  84  199.7171
  85  240.5015
  86  190.146
  87  234.2536
  88  202.2498
  89  199.4489
  90  242.9515
  91  231.1187
  92  173.9758
  93  231.1989
  94  158.7034
  95  140.9664
  96  98.80203
  97  19.85916
  98  2.154917
  99  140.2573
 100  278.133
 101  334.2018
 102  178.5763
 103  215.0317
 104  308.9317
 105  201.7146
 106  157.5622
 107  190.09
 108  258.5244
 109  341.4692
 110  192.1529
 111  206.275
 112  192.5507
 113  110.7136
 114  66.19506
 115  156.8653
 116  240.0876
 117  172.6598
 118  250.9166
 119  344.7252
 120  191.059
 121  148.0357
 122  119.612
 123  29.24985
 124  60.79571
 125  227.2587
 126  270.7553
 127  173.3099
 128  158.8922
 129  235.8271
 130  425.9442
 131  285.9077
 132  165.2552
 133  265.7238
 134  239.7869
 135  227.9288
 136  156.6183
 137  320.5103
 138  205.0214
 139  108.5471
 140  150.4633
 141  33.13316
 142  -66.29404
 143  94.2484
 144  177.4095
 145  116.112
 146  138.7947
 147  207.1191
 148  215.6232
 149  118.8866
 150  164.8889
 151  97.01877
 152  140.7739
 153  179.1299
 154  342.139
 155  227.4401
 156  165.4768
 157  200.9162
 158  104.6528
 159  133.398
 160  188.6225
 161  179.8041
 162  221.7419
 163  303.9958
 164  291.655
 165  252.9594
 166  146.8858
 167  242.5219
 168  264.8756
 169  121.1144
 170  169.6608
 171  167.7721
 172  179.8266
 173  134.3454
 174  220.3011
 175  265.5716
 176  250.9127
 177  361.4622
 178  226.981
 179  214.2857
 180  229.3987
 181  306.2159
 182  313.4232
 183  268.4924
 184  210.1691
 185  231.4983
 186  271.7651
 187  187.7101
 188  207.9681
 189  224.8596
 190  236.1576
 191  213.3597
 192  299.6936
 193  221.5613
 194  157.4091
 195  110.1831
 196  4.275147
 197  125.2021
 198  229.2535
 199  276.7971
 200  222.5276
 201  326.7313
 202  375.7437
 203  356.5996
 204  309.8275
 205  278.2084
 206  215.6119
 207  117.2962
 208  131.4074
 209  131.2769
 210  170.0332
 211  271.7019
 212  249.825
 213  275.9903
 214  219.6772
 215  74.4052
 216  82.99532
 217  130.9701
 218  274.3704
 219  290.5273
 220  256.9354
 221  312.0793
 222  322.6851
 223  311.4849
 224  194.1963
 225  260.3748
 226  201.3149
 227  243.3948
 228  335.476
 229  202.4566
 230  72.65285
 231  114.458
 232  177.3134
 233  83.9623
 234  171.6706
 235  283.7079
 236  136.3536
 237  199.594
 238  249.8083
 239  222.7281
 240  148.532
 241  159.433
 242  197.1404
 243  196.5284
 244  219.0611
 245  81.02015
 246  118.0331
 247  248.7267
 248  216.7337
 249  278.7788
 250  426.2248
 251  356.8312
 252  322.927
 253  298.4846
 254  327.579
 255  311.6764
 256  250.7708
 257  258.1728
 258  216.949
 259  217.7726
 260  139.8545
 261  117.4688
 262  191.2149
 263  226.8227
 264  251.5353
 265  297.9492
 266  257.4483
 267  307.8722
 268  210.3859
 269  258.4023
 270  305.3665
 271  210.1991
 272  138.156
 273  106.1112
 274  203.9282
 275  218.3598
 276  206.4023
 277  166.9591
 278  222.3031
 279  219.3796
 280  189.7173
 281  79.70869
 282  63.15552
 283  254.975
 284  239.0769
 285  285.7933
 286  241.6502
 287  139.8513
 288  62.68993
 289  135.4105
 290  43.97147
 291  24.89933
 292  105.3422
 293  164.1711
 294  70.0451
 295  157.8481
 296  173.6657
 297  138.9864
 298  141.7944
 299  220.4209
 300  316.1173
 301  378.1185
 302  363.106
 303  290.1117
 304  215.208
 305  142.7576
 306  33.38025
 307  24.87785
 308  302.2597
 309  252.6581
 310  133.387
 311  191.1565
 312  294.9763
 313  132.9762
 314  155.5478
 315  9.095895
 316  126.8913
 317  263.9204
 318  195.9899
 319  131.308
 320  93.41031
 321  109.0614
 322  46.22377
 323  101.7653
 324  232.0836
 325  201.7251
 326  179.2686
 327  225.5374
 328  242.8508
 329  313.1097
 330  193.8038
 331  169.3487
 332  155.8331
 333  294.8678
 334  235.7004
 335  94.31525
 336  21.29081
 337  134.4714
 338  165.4523
 339  260.6078
 340  217.1339
 341  108.9814
 342  154.1106
 343  219.9109
 344  182.1773
 345  117.8495
 346  172.8272
 347  289.8175
 348  242.5054
 349  202.8344
 350  230.5852
 351  20.28857
 352  113.6124
 353  247.9924
 354  74.3644
 355  159.1851
 356  113.8606
 357  178.9237
 358  257.1678
 359  343.022
 360  223.8989
 361  110.8651
 362  83.77486
 363  89.63305
 364  51.60843
 365  190.995
 366  219.603
 367  182.1259
 368  289.9448
 369  232.8603
 370  150.6321
 371  139.2989
 372  163.0363
 373  53.05262
 374  142.2293
 375  263.7748
 376  203.8834
 377  187.7282
 378  152.3379
 379  206.3187
 380  195.4417
 381  179.0199
 382  334.0163
 383  288.5896
 384  68.68828
 385  125.6128
 386  42.79021
 387  -132.9089
 388  88.71309
 389  225.1997
 390  202.456
 391  242.9671
 392  272.2621
 393  332.591
 394  167.4645
 395  80.48362
 396  33.50719
 397  84.86824
 398  72.95373
 399  129.5517
 400  87.39169
 401  43.30525
 402  94.16934
 403  156.7217
 404  182.7857
 405  49.10572
 406  -20.03267
 407  27.07251
 408  181.3174
 409  144.8344
 410  158.1059
 411  69.83506
 412  11.85574
 413  108.953
 414  117.3994
 415  198.3113
 416  135.8549
 417  131.7985
 418  72.76155
 419  105.0514
 420  257.5035
 421  254.1039
 422  222.651
 423  175.3112
 424  125.4475
 425  209.0774
 426  183.1082
 427  110.5792
 428  36.30417
 429  -9.275255
 430  69.50024
 431  106.6238
 432  103.1384
 433  301.3208
 434  269.7357
 435  244.2342
 436  214.3913
 437  75.95837
 438  39.12416
 439  241.4377
 440  238.7778
 441  298.82
 442  335.7723
 443  105.6906
 444  5.711904
 445  57.21046
 446  119.3336
 447  99.31943
 448  155.3385
 449  141.8347
 450  159.9764
 451  212.8453
 452  284.4021
 453  235.3572
 454  215.3629
 455  152.0862
 456  -1.671134
 457  27.18882
 458  124.4541
 459  151.9193
 460  142.4706
 461  184.2029
 462  131.0416
 463  59.02821
 464  171.5902
 465  132.617
 466  209.1313
 467  141.4252
 468  178.6589
 469  221.7919
 470  235.6996
 471  117.9445
 472  71.97404
 473  125.4765
 474  122.4747
 475  164.3224
 476  93.37029
 477  160.6631
 478  118.5816
 479  143.9022
 480  72.02787
 481  78.56905
 482  130.3073
 483  215.8996
 484  172.9222
 485  32.1075
 486  139.8451
 487  107.2811
 488  156.4659
 489  122.1997
 490  216.0538
 491  406.2227
 492  527.538
 493  381.3186
 494  225.5666
 495  168.5545
 496  149.7011
 497  249.7863
 498  183.0455
 499  254.6459
 500  253.0263
 501  257.9283
 502  266.0997
 503  239.4139
 504  304.9991
 505  276.4169
 506  225.2091
 507  231.8871
 508  206.395
 509  439.2794
 510  758.1801
 511  739.7015
