# Input file       =  1201462217.127175_cleaned.dat
# Candidate        =  PSR_0332+5434
# Telescope        =  AR
# Epoch_topo       =  58149.812918138603
# Epoch_bary       =  N/A
# T_sample         =  0.002
# Data Folded      =  7340032
# Data Avg         =  0.0187442254221502
# Data StdDev      =  1.00003465722123 
# Profile Bins     =  512
# Profile Avg      =  268.747216206427 
# Profile StdDev   =  119.737185991097 
# Reduced chi-sqr  =  1.194
# Prob(Noise)      <  0.00161   (~2.9 sigma)
# P_topo (ms)      =  714.576162479984  +/- 0.000233
# P'_topo (s/s)    =  -0                +/- 1.23e-10
# P''_topo (s/s^2) =  0                 +/- 5.42e-14
# P_bary (ms)      =  N/A
# P'_bary (s/s)    =  N/A
# P''_bary (s/s^2) =  N/A
# P_orb (s)        =  N/A
# asin(i)/c (s)    =  N/A
# eccentricity     =  N/A
# w (rad)          =  N/A
# T_peri           =  N/A
######################################################
   0  243.4905
   1  278.8603
   2  188.3427
   3  288.6931
   4  225.0578
   5  216.1631
   6  321.0307
   7  205.1266
   8  228.5221
   9  232.1029
  10  355.0404
  11  307.3951
  12  170.9715
  13  325.5251
  14  202.0603
  15  174.6108
  16  249.7552
  17  253.0633
  18  198.5743
  19  182.7923
  20  294.4968
  21  254.3703
  22  294.5128
  23  324.4854
  24  256.202
  25  180.7265
  26  204.7818
  27  187.1058
  28  120.3259
  29  130.0883
  30  244.5466
  31  301.582
  32  198.7509
  33  265.5965
  34  253.2935
  35  291.9554
  36  351.3095
  37  352.4839
  38  250.9276
  39  245.8592
  40  313.8983
  41  322.9311
  42  348.6303
  43  208.3723
  44  92.264
  45  117.404
  46  199.3914
  47  256.3552
  48  170.4708
  49  258.5028
  50  251.7561
  51  273.7098
  52  261.3109
  53  157.6593
  54  309.833
  55  247.9379
  56  204.6333
  57  282.6035
  58  348.0736
  59  363.8286
  60  294.8556
  61  360.935
  62  333.5023
  63  424.5585
  64  360.0138
  65  253.6665
  66  207.5152
  67  323.8467
  68  380.2946
  69  229.8271
  70  230.9271
  71  404.4627
  72  384.8978
  73  174.4119
  74  186.8605
  75  278.805
  76  284.6318
  77  184.4996
  78  141.4803
  79  214.4405
  80  314.1621
  81  301.3376
  82  288.4314
  83  226.5721
  84  124.1086
  85  110.4133
  86  237.9568
  87  247.3626
  88  210.5795
  89  218.2944
  90  149.6408
  91  233.4687
  92  182.6123
  93  203.7682
  94  257.6109
  95  286.2699
  96  249.9709
  97  192.782
  98  117.2531
  99  189.1496
 100  285.6555
 101  291.7258
 102  130.1565
 103  138.078
 104  292.9629
 105  350.524
 106  443.8944
 107  208.8901
 108  196.9411
 109  291.832
 110  259.4202
 111  309.0424
 112  333.5231
 113  195.0611
 114  260.6557
 115  292.6015
 116  347.7948
 117  291.9524
 118  199.9521
 119  236.2532
 120  183.4167
 121  243.072
 122  346.3669
 123  324.7196
 124  182.445
 125  176.0982
 126  314.9958
 127  254.1425
 128  219.3204
 129  318.759
 130  276.1116
 131  255.1397
 132  274.6941
 133  222.0587
 134  227.5381
 135  326.8118
 136  317.2127
 137  305.3869
 138  204.4544
 139  176.6493
 140  243.608
 141  240.2938
 142  169.4292
 143  201.735
 144  239.6442
 145  272.6049
 146  284.5523
 147  257.4047
 148  351.3801
 149  243.2487
 150  266.7888
 151  246.9509
 152  240.4039
 153  321.3178
 154  271.616
 155  223.6037
 156  234.5749
 157  199.9661
 158  249.6744
 159  261.8171
 160  175.2833
 161  126.5573
 162  216.2461
 163  137.0358
 164  236.9531
 165  148.9324
 166  158.9558
 167  241.4445
 168  238.4995
 169  271.6082
 170  256.1401
 171  277.2227
 172  243.4711
 173  230.8678
 174  237.1915
 175  290.0155
 176  216.8055
 177  282.8815
 178  342.5364
 179  300.7278
 180  247.044
 181  99.72291
 182  110.6672
 183  142.6666
 184  140.4177
 185  216.7778
 186  154.5791
 187  299.7386
 188  286.5368
 189  169.9064
 190  214.0317
 191  313.2536
 192  221.8054
 193  201.8278
 194  224.1176
 195  344.9753
 196  396.2917
 197  348.8802
 198  329.7238
 199  246.9894
 200  282.2755
 201  168.9517
 202  302.705
 203  301.6894
 204  266.5357
 205  308.3569
 206  370.878
 207  294.1728
 208  285.4008
 209  208.7761
 210  322.3588
 211  272.3958
 212  151.8665
 213  174.8487
 214  280.2688
 215  292.8778
 216  310.3433
 217  304.929
 218  297.2814
 219  340.025
 220  106.3574
 221  131.4718
 222  232.2859
 223  299.0065
 224  388.8413
 225  326.385
 226  366.9959
 227  315.3087
 228  348.9447
 229  244.2405
 230  181.7818
 231  231.3778
 232  312.8424
 233  312.909
 234  316.8451
 235  322.709
 236  415.4785
 237  383.8776
 238  245.4448
 239  179.8976
 240  236.0991
 241  235.4867
 242  260.4272
 243  215.6836
 244  221.1694
 245  319.9587
 246  305.2023
 247  230.8076
 248  347.1545
 249  346.8806
 250  488.4888
 251  640.1292
 252  852.8813
 253  883.7363
 254  776.2567
 255  841.273
 256  768.2815
 257  486.9411
 258  272.6594
 259  160.7634
 260  191.9937
 261  375.5469
 262  186.194
 263  135.2867
 264  99.78467
 265  194.6116
 266  198.053
 267  402.0785
 268  368.5568
 269  325.9835
 270  247.5527
 271  254.7707
 272  192.0282
 273  233.4003
 274  145.9217
 275  45.18491
 276  195.8011
 277  323.0695
 278  224.134
 279  181.3577
 280  339.3483
 281  266.0891
 282  145.1062
 283  312.5748
 284  343.3422
 285  181.5507
 286  141.709
 287  206.4738
 288  280.0347
 289  349.6338
 290  297.852
 291  195.5788
 292  126.108
 293  187.6288
 294  212.4642
 295  232.4147
 296  222.3312
 297  183.9372
 298  225.6508
 299  270.1407
 300  168.8918
 301  265.7355
 302  389.6721
 303  269.6541
 304  138.9893
 305  256.3613
 306  286.5097
 307  329.5793
 308  236.6104
 309  157.2913
 310  213.2552
 311  252.6816
 312  344.4643
 313  328.2263
 314  402.4067
 315  270.8952
 316  327.8674
 317  280.231
 318  296.4946
 319  269.2191
 320  172.4993
 321  135.3527
 322  266.0205
 323  243.4674
 324  256.8259
 325  227.2221
 326  353.5388
 327  314.7834
 328  283.2609
 329  237.6942
 330  221.6005
 331  160.7869
 332  322.9225
 333  365.3401
 334  139.6808
 335  186.9084
 336  365.3567
 337  347.2804
 338  353.2276
 339  297.3156
 340  266.3776
 341  242.8633
 342  171.35
 343  388.9521
 344  419.4117
 345  366.3568
 346  161.7426
 347  73.51465
 348  152.9586
 349  282.0565
 350  253.751
 351  286.9613
 352  221.833
 353  359.0308
 354  288.5296
 355  266.6093
 356  309.2138
 357  175.9525
 358  134.6419
 359  282.6087
 360  235.3388
 361  187.9665
 362  318.8792
 363  369.585
 364  226.9257
 365  283.0194
 366  395.2393
 367  187.1754
 368  145.9606
 369  197.0724
 370  171.4241
 371  72.56654
 372  126.0204
 373  304.4709
 374  262.675
 375  259.9005
 376  234.8636
 377  273.3311
 378  322.006
 379  375.7475
 380  342.0797
 381  293.2221
 382  228.5082
 383  252.1536
 384  323.0161
 385  241.6417
 386  357.7875
 387  336.2024
 388  154.0737
 389  75.54351
 390  250.5759
 391  286.5357
 392  341.5742
 393  499.8852
 394  397.6986
 395  254.2478
 396  290.8723
 397  302.6748
 398  438.9112
 399  400.7275
 400  324.549
 401  260.2833
 402  296.0733
 403  290.5438
 404  131.9585
 405  253.4594
 406  318.8772
 407  166.8629
 408  261.4604
 409  303.1421
 410  184.6022
 411  224.1649
 412  301.1509
 413  321.6574
 414  219.331
 415  230.1834
 416  330.3288
 417  310.6331
 418  224.476
 419  204.4291
 420  327.278
 421  239.563
 422  328.87
 423  295.1663
 424  319.4009
 425  374.0262
 426  396.0333
 427  373.6982
 428  278.4225
 429  354.9362
 430  221.3741
 431  271.7665
 432  354.012
 433  451.9542
 434  409.967
 435  359.9497
 436  282.6118
 437  321.6085
 438  259.8862
 439  221.5772
 440  303.1479
 441  281.1664
 442  239.5759
 443  290.296
 444  363.1801
 445  353.6051
 446  254.2348
 447  360.7226
 448  396.6747
 449  199.3113
 450  228.7097
 451  328.5535
 452  386.5082
 453  307.9949
 454  280.2616
 455  324.5081
 456  280.2965
 457  382.895
 458  414.9982
 459  242.0947
 460  353.264
 461  418.2713
 462  353.7118
 463  230.0139
 464  259.4523
 465  333.2035
 466  306.7375
 467  223.4241
 468  316.0239
 469  207.9261
 470  246.2035
 471  342.3558
 472  403.6659
 473  321.6657
 474  226.3456
 475  273.9263
 476  366.8909
 477  360.8008
 478  226.641
 479  263.3325
 480  216.8473
 481  274.0755
 482  270.0595
 483  240.5212
 484  433.7856
 485  283.0419
 486  176.2639
 487  136.3192
 488  162.3808
 489  331.8457
 490  296.97
 491  273.4155
 492  147.5686
 493  278.0696
 494  130.9979
 495  178.4402
 496  264.486
 497  280.3185
 498  238.6038
 499  221.7327
 500  210.6527
 501  220.4026
 502  259.1352
 503  129.0963
 504  132.243
 505  247.0223
 506  315.968
 507  309.2775
 508  347.5703
 509  287.678
 510  256.5044
 511  301.4087
