# Input file       =  1201979202.113353_cleaned.dat
# Candidate        =  PSR_0332+5434
# Telescope        =  AR
# Epoch_topo       =  58155.796540663810
# Epoch_bary       =  N/A
# T_sample         =  0.002
# Data Folded      =  7340032
# Data Avg         =  0.0292899888931653
# Data StdDev      =  1.00008083412082 
# Profile Bins     =  512
# Profile Avg      =  419.995046700293 
# Profile StdDev   =  119.742714891495 
# Reduced chi-sqr  =  1.285
# Prob(Noise)      <  1.34e-05   (~4.2 sigma)
# P_topo (ms)      =  714.578352797686  +/- 0.000306
# P'_topo (s/s)    =  -0                +/- 1.61e-10
# P''_topo (s/s^2) =  0                 +/- 7.12e-14
# P_bary (ms)      =  N/A
# P'_bary (s/s)    =  N/A
# P''_bary (s/s^2) =  N/A
# P_orb (s)        =  N/A
# asin(i)/c (s)    =  N/A
# eccentricity     =  N/A
# w (rad)          =  N/A
# T_peri           =  N/A
######################################################
   0  307.8436
   1  342.8375
   2  429.9053
   3  459.6398
   4  444.6801
   5  421.7064
   6  393.7007
   7  424.2519
   8  390.9087
   9  370.2076
  10  475.6065
  11  421.4083
  12  401.5465
  13  374.2897
  14  453.9794
  15  390.0443
  16  493.9763
  17  430.0527
  18  408.9001
  19  420.2563
  20  390.6447
  21  400.3898
  22  548.6829
  23  483.847
  24  361.5948
  25  404.6956
  26  469.1104
  27  443.8
  28  292.0125
  29  356.2
  30  355.4775
  31  349.5674
  32  355.1716
  33  410.2169
  34  500.535
  35  282.1866
  36  329.1743
  37  383.9512
  38  474.3765
  39  411.5087
  40  327.7688
  41  367.6918
  42  451.3972
  43  511.1389
  44  468.7689
  45  357.197
  46  319.6217
  47  374.6267
  48  556.2153
  49  433.811
  50  277.9661
  51  370.8349
  52  443.1685
  53  496.7193
  54  449.5902
  55  419.3442
  56  383.2902
  57  304.3558
  58  518.5132
  59  492.6472
  60  504.9195
  61  662.1033
  62  558.2923
  63  542.6581
  64  507.8155
  65  476.1289
  66  541.0543
  67  618.6549
  68  682.8753
  69  611.6183
  70  478.1711
  71  453.7712
  72  412.9481
  73  374.922
  74  372.4999
  75  593.2056
  76  562.5666
  77  479.0584
  78  551.3734
  79  480.937
  80  439.6565
  81  426.2145
  82  447.3919
  83  423.147
  84  333.1973
  85  383.3905
  86  440.3789
  87  405.8128
  88  425.9238
  89  389.5553
  90  432.4652
  91  458.1865
  92  382.7854
  93  409.1978
  94  515.2004
  95  456.705
  96  377.9874
  97  289.9973
  98  318.884
  99  424.5715
 100  383.0432
 101  445.0768
 102  414.8625
 103  318.5703
 104  287.8898
 105  420.2574
 106  412.6735
 107  373.3479
 108  295.2192
 109  349.3585
 110  480.9523
 111  475.5241
 112  383.8443
 113  335.4597
 114  378.5161
 115  448.8725
 116  511.4756
 117  413.5576
 118  396.6869
 119  457.6228
 120  444.3058
 121  348.3501
 122  291.0922
 123  464.3201
 124  504.0186
 125  404.523
 126  427.9234
 127  254.9296
 128  381.8527
 129  428.5567
 130  359.8572
 131  342.9857
 132  403.8936
 133  446.2289
 134  458.2079
 135  430.5073
 136  353.7891
 137  321.015
 138  350.9304
 139  329.5057
 140  365.6657
 141  354.907
 142  316.7907
 143  423.4949
 144  399.9913
 145  348.0522
 146  234.3869
 147  287.303
 148  470.2355
 149  469.9626
 150  276.9395
 151  293.6427
 152  442.9423
 153  382.1359
 154  393.4719
 155  459.6453
 156  420.6593
 157  411.2669
 158  365.9306
 159  354.4713
 160  324.8692
 161  365.1708
 162  410.3337
 163  462.1628
 164  413.6789
 165  362.2012
 166  386.1392
 167  507.0867
 168  394.8004
 169  277.5056
 170  298.5229
 171  400.1202
 172  421.023
 173  362.8775
 174  433.9579
 175  412.5285
 176  413.5619
 177  400.7025
 178  487.1975
 179  555.5865
 180  362.6661
 181  312.8077
 182  331.6006
 183  377.4664
 184  410.6891
 185  474.9395
 186  460.7237
 187  398.9916
 188  521.421
 189  387.0657
 190  488.7459
 191  424.0834
 192  424.9964
 193  395.012
 194  357.5479
 195  388.2158
 196  369.0264
 197  296.305
 198  440.0163
 199  421.3185
 200  375.5743
 201  386.5245
 202  383.0889
 203  357.843
 204  311.0598
 205  417.2647
 206  371.5461
 207  332.685
 208  334.0621
 209  301.3093
 210  405.2486
 211  371.7341
 212  408.5172
 213  346.3105
 214  372.6037
 215  366.3845
 216  383.2688
 217  250.0059
 218  326.5748
 219  375.964
 220  246.3816
 221  379.6355
 222  402.8867
 223  417.7931
 224  499.0798
 225  398.1204
 226  425.4792
 227  373.3596
 228  452.3258
 229  469.4283
 230  428.2137
 231  419.8011
 232  453.951
 233  381.5703
 234  421.965
 235  358.6945
 236  359.1109
 237  429.2561
 238  373.4246
 239  310.3118
 240  314.5032
 241  279.8129
 242  305.5381
 243  377.1341
 244  395.7903
 245  346.9525
 246  337.6243
 247  176.236
 248  181.1901
 249  258.3134
 250  244.6719
 251  265.504
 252  430.3192
 253  437.2724
 254  336.8958
 255  298.386
 256  374.1227
 257  479.4409
 258  468.2304
 259  456.2067
 260  302.8317
 261  269.9866
 262  410.8224
 263  337.0664
 264  322.0494
 265  489.9786
 266  490.4455
 267  411.7788
 268  347.5009
 269  266.3816
 270  390.0421
 271  400.7062
 272  356.6085
 273  252.7179
 274  208.7862
 275  167.333
 276  154.3677
 277  329.5592
 278  327.2874
 279  325.6662
 280  343.1549
 281  341.3338
 282  398.5047
 283  359.5268
 284  382.4857
 285  299.1137
 286  351.6354
 287  432.655
 288  370.1121
 289  302.4562
 290  269.4776
 291  274.6026
 292  305.1653
 293  326.9179
 294  317.6384
 295  417.7764
 296  431.3223
 297  436.5601
 298  331.8351
 299  340.1639
 300  433.9062
 301  394.0645
 302  462.8002
 303  440.0359
 304  492.9716
 305  448.8489
 306  472.4644
 307  411.8608
 308  350.7509
 309  502.6833
 310  449.1834
 311  465.4278
 312  329.1065
 313  374.6683
 314  356.4394
 315  468.0109
 316  470.3304
 317  435.8617
 318  354.4336
 319  350.7915
 320  362.6719
 321  348.3721
 322  381.0031
 323  455.11
 324  385.5691
 325  380.9481
 326  318.6762
 327  488.8763
 328  463.4409
 329  380.0664
 330  358.6284
 331  363.6476
 332  481.4213
 333  573.0278
 334  470.2582
 335  363.1305
 336  320.6158
 337  311.1065
 338  368.0565
 339  327.8173
 340  344.1715
 341  448.8421
 342  302.1751
 343  265.5185
 344  402.0244
 345  446.2465
 346  483.2226
 347  416.8638
 348  473.4161
 349  560.7899
 350  464.8574
 351  410.9608
 352  402.4868
 353  464.3211
 354  475.1619
 355  414.4351
 356  477.8283
 357  408.9324
 358  447.5296
 359  407.8819
 360  454.194
 361  443.4563
 362  369.5345
 363  405.3083
 364  415.8595
 365  476.7912
 366  377.3301
 367  357.3324
 368  349.1484
 369  418.5522
 370  372.2974
 371  471.0587
 372  495.0276
 373  426.3271
 374  515.8289
 375  369.0963
 376  210.4951
 377  306.5931
 378  347.1795
 379  384.7424
 380  407.5036
 381  356.6953
 382  389.0045
 383  360.3457
 384  361.0563
 385  354.2274
 386  371.0983
 387  360.7288
 388  443.3648
 389  448.0275
 390  307.9033
 391  333.1583
 392  340.5483
 393  388.0544
 394  346.0907
 395  402.6395
 396  344.2446
 397  367.6843
 398  448.1264
 399  488.5645
 400  474.3509
 401  527.3318
 402  558.0923
 403  528.1684
 404  531.4966
 405  402.0464
 406  462.0595
 407  501.8503
 408  616.9863
 409  597.7076
 410  511.0873
 411  399.8765
 412  425.4796
 413  546.1472
 414  705.591
 415  693.4863
 416  554.2903
 417  531.7286
 418  504.111
 419  679.3943
 420  904.4293
 421  1003.713
 422  1074.685
 423  887.745
 424  809.5196
 425  581.4129
 426  395.585
 427  462.0105
 428  491.5118
 429  496.8193
 430  447.9136
 431  478.7541
 432  523.0927
 433  456.485
 434  468.4579
 435  537.7011
 436  628.8523
 437  460.1594
 438  437.8365
 439  486.3865
 440  520.0273
 441  540.8386
 442  450.5204
 443  585.6829
 444  590.6636
 445  552.954
 446  528.7936
 447  569.0414
 448  520.6949
 449  644.6302
 450  549.1111
 451  410.8342
 452  426.4417
 453  452.9388
 454  477.7782
 455  358.35
 456  424.4534
 457  385.8719
 458  331.6638
 459  400.3282
 460  466.6417
 461  576.0624
 462  385.0897
 463  434.6073
 464  470.1239
 465  470.516
 466  392.8095
 467  337.2141
 468  404.7592
 469  501.1791
 470  536.5793
 471  505.1446
 472  450.0418
 473  396.57
 474  429.6426
 475  496.4922
 476  521.5299
 477  458.5276
 478  477.1095
 479  392.1416
 480  475.7937
 481  565.4556
 482  576.4962
 483  584.4521
 484  535.1646
 485  533.3677
 486  496.959
 487  533.6122
 488  511.2665
 489  460.7697
 490  506.7536
 491  504.7988
 492  483.774
 493  539.1635
 494  541.3491
 495  497.1499
 496  487.4727
 497  386.9704
 498  375.2253
 499  453.186
 500  491.1073
 501  465.5195
 502  491.7157
 503  510.4823
 504  387.7068
 505  250.1708
 506  335.1164
 507  328.5944
 508  332.178
 509  409.8608
 510  445.2705
 511  360.041
