# Input file       =  1201777429.120752-PSRB0329-2ms-sampling-dd.dat
# Candidate        =  PSR_0332+5434
# Telescope        =  AR
# Epoch_topo       =  58153.461205101295
# Epoch_bary       =  N/A
# T_sample         =  0.002
# Data Folded      =  7143424
# Data Avg         =  6.88270556942568e-10
# Data StdDev      =  6.338941224716   
# Profile Bins     =  512
# Profile Avg      =  0.0454008382446018
# Profile StdDev   =  748.746764577207 
# Reduced chi-sqr  =  1.592
# Prob(Noise)      <  3.32e-16   (~8.1 sigma)
# P_topo (ms)      =  714.577210822826  +/- 2.08e-05
# P'_topo (s/s)    =  -0                +/- 1.13e-11
# P''_topo (s/s^2) =  0                 +/- 5.12e-15
# P_bary (ms)      =  N/A
# P'_bary (s/s)    =  N/A
# P''_bary (s/s^2) =  N/A
# P_orb (s)        =  N/A
# asin(i)/c (s)    =  N/A
# eccentricity     =  N/A
# w (rad)          =  N/A
# T_peri           =  N/A
######################################################
   0  -930.1965
   1  -1198.015
   2  -1069.622
   3  -937.2818
   4  -152.4727
   5  147.494
   6  212.7746
   7  -459.7445
   8  -790.426
   9  -609.9674
  10  -11.25556
  11  328.64
  12  412.1854
  13  526.7079
  14  368.5316
  15  -253.0993
  16  -691.616
  17  -406.861
  18  -543.6447
  19  -721.4176
  20  -373.6416
  21  -136.744
  22  98.65036
  23  -472.2027
  24  -660.4627
  25  -922.2468
  26  -568.1028
  27  83.77985
  28  485.4324
  29  980.1392
  30  861.0248
  31  393.0733
  32  -277.8065
  33  -887.3852
  34  -832.7875
  35  -724.6991
  36  -379.9519
  37  -4.49984
  38  138.8924
  39  -215.2221
  40  -598.0234
  41  -1019.422
  42  -863.5994
  43  -432.5122
  44  342.6967
  45  847.718
  46  1531.302
  47  1028.605
  48  549.2507
  49  81.73253
  50  -549.7614
  51  -642.2753
  52  -382.0137
  53  -45.2238
  54  504.212
  55  333.7075
  56  -94.16222
  57  -304.7989
  58  -764.9673
  59  -545.9363
  60  -10.08765
  61  783.7505
  62  876.7697
  63  1095.023
  64  1171.685
  65  79.84937
  66  -861.0374
  67  -1331.065
  68  -997.5464
  69  -489.3564
  70  -103.7606
  71  454.5373
  72  347.9541
  73  112.8715
  74  -554.4208
  75  -867.8332
  76  -346.4427
  77  165.7502
  78  619.5811
  79  1015.486
  80  1027.162
  81  515.9655
  82  -542.6205
  83  -1085.708
  84  -982.5023
  85  -597.1216
  86  33.46898
  87  380.7661
  88  286.2243
  89  -57.03477
  90  -245.4162
  91  -410.1215
  92  -123.5943
  93  246.3508
  94  540.092
  95  110.2246
  96  180.7294
  97  388.7048
  98  73.72294
  99  -554.6391
 100  -273.3607
 101  -470.4869
 102  -574.6049
 103  -218.1021
 104  -54.57587
 105  -293.301
 106  -345.0467
 107  -392.9836
 108  -342.6827
 109  37.52338
 110  393.3744
 111  592.6208
 112  1081.233
 113  1251.149
 114  508.3518
 115  -558.2188
 116  -985.3798
 117  -293.2344
 118  321.87
 119  396.7332
 120  917.962
 121  844.8413
 122  637.9626
 123  -271.7604
 124  -587.0436
 125  -587.1277
 126  520.0444
 127  825.8282
 128  962.3554
 129  937.9417
 130  378.5718
 131  -141.3951
 132  -482.3561
 133  -690.2239
 134  -750.343
 135  -531.528
 136  -192.7023
 137  471.5429
 138  403.7107
 139  -211.9246
 140  -561.4373
 141  -669.3121
 142  -480.3155
 143  -120.1194
 144  327.7601
 145  1121.675
 146  1216.697
 147  733.5851
 148  -254.3071
 149  -884.2022
 150  -945.7839
 151  -682.1039
 152  -522.1936
 153  426.6905
 154  379.4224
 155  90.74433
 156  -200.3154
 157  -780.8441
 158  -723.4158
 159  -270.8251
 160  219.6766
 161  1020.207
 162  1433.933
 163  769.9242
 164  -23.72745
 165  -588.7039
 166  -943.5088
 167  -820.4791
 168  -414.0338
 169  -12.87518
 170  348.5333
 171  63.85561
 172  -314.154
 173  -370.7429
 174  -121.5045
 175  121.598
 176  427.6473
 177  789.1882
 178  1083.803
 179  764.6143
 180  312.8178
 181  -352.1946
 182  -493.7664
 183  102.5861
 184  200.3798
 185  307.17
 186  429.5051
 187  164.5725
 188  -251.9187
 189  -766.6104
 190  -578.7651
 191  -29.84034
 192  549.3074
 193  1005.53
 194  1181.14
 195  1177.174
 196  695.575
 197  -387.3253
 198  -615.6268
 199  -460.6853
 200  -311.6651
 201  190.9837
 202  576.1661
 203  687.8558
 204  422.4179
 205  -662.0493
 206  -652.3985
 207  -436.3202
 208  -174.4108
 209  578.389
 210  675.4221
 211  1043.543
 212  1332.822
 213  829.7606
 214  54.39036
 215  -378.4895
 216  -317.7188
 217  -135.6836
 218  161.3361
 219  317.5511
 220  570.2428
 221  205.6406
 222  -443.8231
 223  -913.2732
 224  -1012.082
 225  -340.0795
 226  21.33221
 227  854.6617
 228  1132.718
 229  531.2956
 230  -497.2255
 231  -1142.546
 232  -1180.361
 233  -1183.846
 234  -523.1175
 235  -249.9273
 236  566.934
 237  559.3363
 238  -496.6849
 239  -1082.43
 240  -807.7954
 241  -320.4138
 242  115.8134
 243  566.5909
 244  902.7671
 245  861.6248
 246  659.8878
 247  -182.3488
 248  -555.8808
 249  -308.4642
 250  -108.9568
 251  -80.90079
 252  173.458
 253  336.4902
 254  -66.14726
 255  -635.3009
 256  -692.6688
 257  -161.975
 258  531.1326
 259  1476.289
 260  2030.312
 261  2169.481
 262  1448.923
 263  546.5083
 264  -251.6772
 265  -474.1948
 266  -213.8688
 267  49.95763
 268  208.6955
 269  324.6637
 270  -388.4525
 271  -551.433
 272  -1380.184
 273  -927.2129
 274  169.8308
 275  1083.534
 276  1222.41
 277  917.3334
 278  1205.714
 279  278.9735
 280  -433.628
 281  -659.3284
 282  -660.053
 283  -355.2088
 284  74.72744
 285  626.079
 286  557.9623
 287  -297.8093
 288  -795.5813
 289  -1284.487
 290  -422.3948
 291  -131.5059
 292  838.6998
 293  1379.431
 294  994.8519
 295  314.436
 296  -453.0236
 297  -1153.212
 298  -1408.284
 299  -983.622
 300  -149.7041
 301  484.2194
 302  822.3342
 303  703.842
 304  -316.7506
 305  -1205.657
 306  -1328.222
 307  -648.8707
 308  665.3536
 309  1082.717
 310  1701.461
 311  1369.449
 312  212.5994
 313  -375.6193
 314  -716.4658
 315  -399.9692
 316  -57.82582
 317  509.4094
 318  988.4204
 319  885.998
 320  -112.247
 321  -1113.543
 322  -767.9462
 323  -434.9577
 324  -87.21161
 325  271.3249
 326  948.5627
 327  843.0021
 328  488.7548
 329  -427.6345
 330  -753.2227
 331  -943.2715
 332  -711.3484
 333  -232.2298
 334  241.7547
 335  623.7285
 336  636.4147
 337  -45.39154
 338  -314.5316
 339  -609.6913
 340  -35.88754
 341  604.8426
 342  1102.442
 343  1359.562
 344  1256.149
 345  989.4471
 346  -398.3896
 347  -584.23
 348  -546.8474
 349  -66.04694
 350  426.0386
 351  429.5796
 352  619.8859
 353  219.9344
 354  -755.1041
 355  -1006.197
 356  -474.7616
 357  444.0969
 358  974.7361
 359  1187.781
 360  1102.793
 361  521.873
 362  -357.6943
 363  -1024.469
 364  -909.1506
 365  -428.2441
 366  -65.32861
 367  343.2362
 368  618.6239
 369  242.6085
 370  -205.1538
 371  -1069.724
 372  -1239.827
 373  -276.4024
 374  450.106
 375  801.6376
 376  1328.53
 377  1156.573
 378  279.6275
 379  -535.1236
 380  -1028.671
 381  -786.3423
 382  -260.5615
 383  386.6128
 384  517.7676
 385  1062.041
 386  543.5591
 387  -652.9137
 388  -1290.523
 389  -1019.628
 390  19.9009
 391  559.184
 392  1307.672
 393  1393.777
 394  1071.898
 395  -99.45554
 396  -1087.216
 397  -844.2121
 398  -897.6624
 399  -720.7225
 400  116.5814
 401  351.2215
 402  192.0936
 403  -200.6491
 404  -625.2041
 405  -884.976
 406  -587.4126
 407  630.9346
 408  1067.093
 409  1461.329
 410  1277.204
 411  1091.731
 412  -71.5788
 413  -455.019
 414  -579.0646
 415  -561.389
 416  -586.7928
 417  187.9427
 418  644.4179
 419  377.9523
 420  -127.15
 421  -445.078
 422  -266.2844
 423  555.2033
 424  548.7659
 425  442.3526
 426  625.3943
 427  1029.771
 428  408.2641
 429  -591.2897
 430  -584.0067
 431  -527.0886
 432  22.31331
 433  169.4536
 434  597.1693
 435  20.13148
 436  -154.1926
 437  -368.9777
 438  -630.0026
 439  -182.8108
 440  155.1839
 441  745.4125
 442  1005.282
 443  742.6376
 444  429.6279
 445  -429.5699
 446  -1050.932
 447  -1103.417
 448  -833.1385
 449  -770.9424
 450  167.3848
 451  490.8686
 452  92.25239
 453  -636.6456
 454  -1374.755
 455  -745.3152
 456  21.0718
 457  704.9411
 458  744.9154
 459  995.1782
 460  674.0552
 461  -236.1012
 462  -580.7513
 463  -693.6555
 464  -347.7073
 465  -208.1358
 466  55.75894
 467  597.9224
 468  302.066
 469  -112.6549
 470  -1013.604
 471  -867.959
 472  -938.1803
 473  -491.6523
 474  396.169
 475  402.7305
 476  820.0658
 477  584.5457
 478  -115.9241
 479  -1027.058
 480  -1005.647
 481  -1125.667
 482  -822.2554
 483  -119.1246
 484  490.1777
 485  546.1772
 486  -20.04715
 487  -797.0632
 488  -1154.862
 489  -504.1598
 490  69.30457
 491  202.1137
 492  923.0486
 493  743.6343
 494  180.9819
 495  -376.388
 496  -1051.431
 497  -921.0753
 498  -894.8253
 499  -347.1771
 500  -53.04793
 501  -53.781
 502  137.5087
 503  22.20488
 504  -60.28622
 505  -564.9952
 506  -457.7208
 507  36.04023
 508  499.5335
 509  835.8074
 510  929.3885
 511  128.5129
