# Input file       =  1201017031.099187_cleaned.dat
# Candidate        =  PSR_0332+5434
# Telescope        =  AR
# Epoch_topo       =  58144.660302073920
# Epoch_bary       =  N/A
# T_sample         =  0.002
# Data Folded      =  7340032
# Data Avg         =  0.0185087814115635
# Data StdDev      =  1.00003881345013 
# Profile Bins     =  512
# Profile Avg      =  265.370290840325 
# Profile StdDev   =  119.737683629002 
# Reduced chi-sqr  =  1.204
# Prob(Noise)      <  0.00103   (~3.1 sigma)
# P_topo (ms)      =  714.573492123784  +/- 0.000305
# P'_topo (s/s)    =  -0                +/- 1.61e-10
# P''_topo (s/s^2) =  0                 +/- 7.1e-14
# P_bary (ms)      =  N/A
# P'_bary (s/s)    =  N/A
# P''_bary (s/s^2) =  N/A
# P_orb (s)        =  N/A
# asin(i)/c (s)    =  N/A
# eccentricity     =  N/A
# w (rad)          =  N/A
# T_peri           =  N/A
######################################################
   0  863.6188
   1  769.2274
   2  561.8149
   3  343.7634
   4  265.6161
   5  302.3843
   6  236.4974
   7  272.8116
   8  250.0815
   9  226.9197
  10  343.4325
  11  399.54
  12  412.9708
  13  353.5797
  14  357.3944
  15  314.519
  16  316.8634
  17  339.1527
  18  337.4099
  19  263.7498
  20  121.5392
  21  234.7155
  22  213.6035
  23  115.4724
  24  143.3065
  25  182.1006
  26  248.4012
  27  292.0323
  28  372.2391
  29  317.0425
  30  332.0617
  31  220.506
  32  253.3266
  33  121.1265
  34  167.152
  35  171.5477
  36  244.0135
  37  290.2401
  38  271.1603
  39  129.6403
  40  94.60195
  41  300.756
  42  273.9592
  43  274.5028
  44  241.6847
  45  334.7049
  46  406.3413
  47  236.8495
  48  127.93
  49  168.2196
  50  186.8947
  51  237.7634
  52  202.7765
  53  216.0793
  54  208.3749
  55  105.3036
  56  263.5492
  57  288.725
  58  200.1523
  59  187.5228
  60  314.1617
  61  261.166
  62  245.4087
  63  263.6033
  64  326.4074
  65  265.9311
  66  231.5772
  67  281.8419
  68  348.3485
  69  394.0886
  70  435.4106
  71  414.6471
  72  394.3973
  73  332.7321
  74  174.203
  75  136.1382
  76  259.6403
  77  293.6361
  78  351.2852
  79  292.5339
  80  335.2351
  81  208.7547
  82  232.5454
  83  296.3815
  84  309.177
  85  277.2651
  86  142.9165
  87  156.8183
  88  217.831
  89  266.1534
  90  163.1304
  91  202.6117
  92  252.8862
  93  249.2489
  94  283.8085
  95  360.7572
  96  229.1337
  97  181.1824
  98  308.8986
  99  381.7964
 100  478.1634
 101  427.7667
 102  252.873
 103  203.2572
 104  344.5337
 105  237.3393
 106  137.0807
 107  274.64
 108  372.6505
 109  402.011
 110  379.8938
 111  408.63
 112  233.1016
 113  116.2184
 114  216.8975
 115  321.792
 116  281.5104
 117  223.6456
 118  238.9655
 119  215.433
 120  278.5474
 121  189.083
 122  183.5784
 123  150.4774
 124  242.8887
 125  320.3106
 126  383.9524
 127  336.7815
 128  250.3076
 129  249.6483
 130  369.5069
 131  242.7001
 132  289.1289
 133  401.7765
 134  242.0423
 135  170.7221
 136  167.051
 137  290.8237
 138  331.7726
 139  379.3292
 140  379.7988
 141  447.7363
 142  331.0127
 143  292.5857
 144  352.3108
 145  336.628
 146  321.6106
 147  366.103
 148  360.1245
 149  386.6512
 150  490.0157
 151  495.401
 152  293.2951
 153  386.1749
 154  344.3492
 155  241.8434
 156  328.7171
 157  353.6408
 158  302.8371
 159  255.2627
 160  358.8061
 161  294.8106
 162  154.0937
 163  102.7839
 164  160.3432
 165  182.9707
 166  272.5477
 167  284.7153
 168  320.1731
 169  212.9544
 170  212.5702
 171  279.7428
 172  182.5772
 173  126.5463
 174  195.6051
 175  315.8672
 176  174.0073
 177  223.3953
 178  318.8364
 179  229.4235
 180  199.2357
 181  235.0188
 182  163.6858
 183  179.8549
 184  215.2502
 185  255.2516
 186  246.303
 187  234.7688
 188  196.4543
 189  220.8358
 190  176.7003
 191  182.3244
 192  255.9262
 193  310.2766
 194  287.8185
 195  178.1919
 196  266.6594
 197  211.6164
 198  308.6516
 199  246.7416
 200  290.7364
 201  275.5615
 202  190.2007
 203  206.9845
 204  245.5693
 205  200.7611
 206  151.4967
 207  215.6007
 208  270.7036
 209  210.6348
 210  236.5247
 211  316.2509
 212  275.7091
 213  233.0971
 214  201.3758
 215  237.5686
 216  237.8408
 217  254.539
 218  276.6721
 219  296.5475
 220  259.0008
 221  245.7249
 222  257.6508
 223  348.6809
 224  317.4751
 225  243.5078
 226  207.8761
 227  252.5794
 228  273.6132
 229  234.7313
 230  328.8427
 231  358.636
 232  366.4549
 233  340.1341
 234  331.2551
 235  235.5091
 236  132.97
 237  219.2473
 238  318.8181
 239  328.6074
 240  279.5439
 241  122.5302
 242  187.4842
 243  352.1674
 244  319.6672
 245  274.9483
 246  266.29
 247  162.3019
 248  119.7712
 249  163.9458
 250  140.2381
 251  319.9539
 252  297.9062
 253  355.2196
 254  421.2875
 255  288.7264
 256  379.1208
 257  321.3015
 258  157.7202
 259  79.80727
 260  232.2686
 261  257.5375
 262  196.376
 263  187.148
 264  235.2285
 265  283.0156
 266  337.3921
 267  343.865
 268  281.8715
 269  302.3251
 270  216.1051
 271  257.7043
 272  284.3791
 273  398.8191
 274  371.6513
 275  315.4819
 276  324.6069
 277  337.6413
 278  188.0074
 279  243.0282
 280  245.6465
 281  321.4207
 282  402.6897
 283  379.7285
 284  301.2762
 285  261.9749
 286  240.959
 287  416.4619
 288  270.904
 289  195.6333
 290  207.9038
 291  257.0302
 292  134.9217
 293  307.8616
 294  398.7758
 295  349.3961
 296  301.1554
 297  220.152
 298  202.377
 299  241.9252
 300  289.0568
 301  340.627
 302  354.7349
 303  303.0537
 304  288.9294
 305  344.9732
 306  307.3012
 307  246.9556
 308  242.3325
 309  312.3564
 310  255.773
 311  288.446
 312  286.3017
 313  329.5063
 314  279.1031
 315  340.8261
 316  438.3352
 317  375.0985
 318  284.659
 319  307.6365
 320  207.8246
 321  233.4948
 322  360.3975
 323  254.66
 324  147.1367
 325  85.12601
 326  216.3344
 327  193.2729
 328  140.0982
 329  156.7101
 330  133.4697
 331  52.63262
 332  118.1929
 333  115.7756
 334  271.6181
 335  288.3572
 336  85.66082
 337  122.6243
 338  219.867
 339  265.3395
 340  286.1825
 341  328.141
 342  258.5027
 343  228.7323
 344  249.2178
 345  290.5949
 346  163.9635
 347  289.134
 348  332.4278
 349  222.9193
 350  220.9475
 351  172.3162
 352  148.1955
 353  122.7284
 354  111.0056
 355  226.6002
 356  329.2271
 357  342.7908
 358  186.6682
 359  230.9387
 360  177.7457
 361  213.9661
 362  217.0622
 363  229.8751
 364  198.3125
 365  315.8206
 366  373.265
 367  230.1107
 368  176.1633
 369  147.5044
 370  251.0947
 371  206.9627
 372  161.9025
 373  164.5532
 374  165.4209
 375  148.3554
 376  195.3825
 377  188.7102
 378  122.9913
 379  164.9649
 380  243.1884
 381  175.2551
 382  146.859
 383  182.3746
 384  154.7419
 385  48.00883
 386  60.97398
 387  160.442
 388  169.364
 389  231.9647
 390  280.4312
 391  340.7511
 392  323.336
 393  274.2924
 394  310.2334
 395  311.351
 396  293.6569
 397  264.5123
 398  288.0313
 399  232.4444
 400  222.659
 401  269.057
 402  253.9624
 403  187.1621
 404  100.1144
 405  228.9846
 406  149.8531
 407  146.1993
 408  211.6184
 409  275.7493
 410  341.0561
 411  284.405
 412  196.4755
 413  179.0636
 414  167.823
 415  171.3903
 416  290.0097
 417  247.3219
 418  209.9879
 419  121.5649
 420  206.1079
 421  262.4838
 422  306.8139
 423  268.484
 424  307.3395
 425  297.2623
 426  265.4905
 427  159.3418
 428  82.19625
 429  248.1359
 430  259.1372
 431  274.9828
 432  378.9837
 433  290.0157
 434  210.4202
 435  297.6341
 436  345.0845
 437  336.0027
 438  274.6284
 439  303.0944
 440  378.1874
 441  356.2756
 442  253.7204
 443  278.191
 444  239.8808
 445  257.4095
 446  328.3369
 447  364.2961
 448  206.9945
 449  228.9004
 450  285.754
 451  205.0693
 452  149.6598
 453  310.0305
 454  369.8177
 455  177.0761
 456  209.2697
 457  331.357
 458  332.4254
 459  308.8056
 460  311.8431
 461  477.4071
 462  371.394
 463  210.927
 464  244.2025
 465  277.5643
 466  309.007
 467  208.383
 468  180.9941
 469  204.8714
 470  318.5113
 471  194.8571
 472  174.603
 473  208.262
 474  210.4094
 475  246.6657
 476  168.6431
 477  186.5163
 478  223.4515
 479  268.6013
 480  127.7748
 481  190.4169
 482  188.4787
 483  291.7655
 484  228.8611
 485  180.2918
 486  295.3572
 487  421.4159
 488  287.9565
 489  341.3466
 490  441.1743
 491  463.7197
 492  206.9097
 493  70.59119
 494  216.9424
 495  277.3871
 496  253.1887
 497  189.7445
 498  280.4399
 499  307.3471
 500  323.4419
 501  374.6349
 502  395.8368
 503  384.5762
 504  383.2606
 505  305.2565
 506  274.88
 507  378.5627
 508  555.4139
 509  577.1798
 510  720.2001
 511  801.8658
