# Input file       =  1201117473.116012-PSRB0329-2ms-sampling-dd.dat
# Candidate        =  PSR_0332+5434
# Telescope        =  AR
# Epoch_topo       =  58145.822825416806
# Epoch_bary       =  N/A
# T_sample         =  0.002
# Data Folded      =  7340032
# Data Avg         =  6.15264046552191e-10
# Data StdDev      =  5.45034203192013 
# Profile Bins     =  512
# Profile Avg      =  -0.155444483650535
# Profile StdDev   =  652.586000773711 
# Reduced chi-sqr  =  0.609
# Prob(Noise)      <  1   (~0.0 sigma)
# P_topo (ms)      =  714.574384778773  +/- 0.000132
# P'_topo (s/s)    =  -0                +/- 6.99e-11
# P''_topo (s/s^2) =  0                 +/- 3.09e-14
# P_bary (ms)      =  N/A
# P'_bary (s/s)    =  N/A
# P''_bary (s/s^2) =  N/A
# P_orb (s)        =  N/A
# asin(i)/c (s)    =  N/A
# eccentricity     =  N/A
# w (rad)          =  N/A
# T_peri           =  N/A
######################################################
   0  -407.5693
   1  -513.3984
   2  -3.797193
   3  -112.4713
   4  104.4114
   5  140.9967
   6  -74.77135
   7  -206.7975
   8  -523.9862
   9  -458.9214
  10  104.7387
  11  -127.437
  12  -374.6759
  13  -518.7298
  14  -481.4354
  15  -374.2401
  16  -132.9872
  17  -568.1181
  18  -677.7055
  19  -416.8362
  20  -239.0185
  21  -780.36
  22  -856.2014
  23  -723.4915
  24  -464.7047
  25  -423.2814
  26  -351.0594
  27  -213.6059
  28  -252.2672
  29  296.7008
  30  294.4358
  31  -105.1973
  32  -414.2659
  33  -710.0367
  34  -547.3085
  35  -551.6185
  36  -526.1459
  37  28.88171
  38  -406.9587
  39  -306.8003
  40  -415.3498
  41  -115.482
  42  -174.6377
  43  -590.2236
  44  -257.8728
  45  201.7178
  46  297.9731
  47  -197.4222
  48  -43.50889
  49  10.73011
  50  -269.0516
  51  -56.46118
  52  -84.88201
  53  438.5941
  54  131.8493
  55  92.6406
  56  173.8028
  57  30.46279
  58  49.97066
  59  246.8095
  60  560.1699
  61  508.1478
  62  227.2272
  63  -125.6878
  64  -230.5013
  65  22.9206
  66  297.6335
  67  242.5924
  68  512.8484
  69  731.3985
  70  158.3757
  71  449.3031
  72  139.4461
  73  -92.86444
  74  -76.5274
  75  -60.27203
  76  -137.0239
  77  -289.4682
  78  289.393
  79  330.3609
  80  227.9426
  81  -5.587247
  82  -418.8217
  83  -278.5706
  84  133.2272
  85  -18.62278
  86  134.6273
  87  -44.16343
  88  -214.2919
  89  -175.136
  90  -189.7116
  91  -465.5771
  92  -348.901
  93  -121.9434
  94  -46.52981
  95  -137.1869
  96  198.9273
  97  98.65515
  98  -2.190786
  99  181.9581
 100  254.9783
 101  -12.66595
 102  -333.0692
 103  138.9898
 104  -135.9347
 105  81.4788
 106  424.248
 107  54.23117
 108  -172.0943
 109  -285.1043
 110  -92.97874
 111  303.9001
 112  101.0064
 113  407.5828
 114  -165.1973
 115  -168.2618
 116  -53.1638
 117  -15.31875
 118  225.5781
 119  54.19639
 120  477.5204
 121  127.3073
 122  -50.41574
 123  -131.0702
 124  -153.3473
 125  52.67608
 126  -309.4409
 127  -128.285
 128  115.526
 129  -115.9953
 130  -205.1378
 131  -460.9731
 132  -631.1498
 133  -370.9778
 134  -181.8678
 135  167.8242
 136  243.9956
 137  -98.78979
 138  -231.7263
 139  -109.0446
 140  71.53954
 141  -85.5822
 142  -498.3691
 143  -284.7486
 144  0.5476622
 145  230.7039
 146  393.7579
 147  -309.234
 148  -298.6092
 149  -325.4023
 150  59.29982
 151  -89.75066
 152  -171.2264
 153  -100.1648
 154  -323.8259
 155  -186.0891
 156  -186.2677
 157  -119.8737
 158  -750.5098
 159  -520.1446
 160  -281.4635
 161  -391.488
 162  -14.00429
 163  -7.753086
 164  -60.51019
 165  -658.7181
 166  -390.8659
 167  -179.8877
 168  -330.067
 169  -67.87804
 170  34.49525
 171  -135.3356
 172  -85.08879
 173  -293.2284
 174  2.003468
 175  -12.87808
 176  237.0345
 177  90.87585
 178  -63.26251
 179  -84.95276
 180  -108.1481
 181  -407.3808
 182  -356.3975
 183  -483.6772
 184  -406.2926
 185  -530.3972
 186  -365.2907
 187  -585.1428
 188  -604.2249
 189  -307.0961
 190  -348.0738
 191  -220.6051
 192  -248.6307
 193  -330.3717
 194  -140.7611
 195  -11.92459
 196  33.71502
 197  23.64599
 198  94.15849
 199  264.1538
 200  39.89156
 201  -101.0681
 202  -162.1451
 203  66.65581
 204  241.661
 205  350.6259
 206  217.9231
 207  23.84495
 208  -239.2473
 209  -345.197
 210  -409.8439
 211  -187.7257
 212  0.8965165
 213  140.5826
 214  149.2322
 215  -184.6702
 216  -339.7642
 217  -297.0669
 218  -154.9983
 219  -216.4732
 220  115.1242
 221  821.6913
 222  542.2681
 223  280.7348
 224  -141.4354
 225  -158.3018
 226  -89.40395
 227  -531.3945
 228  -224.9896
 229  218.9696
 230  788.9894
 231  741.2589
 232  684.5497
 233  511.9039
 234  281.8598
 235  -163.8502
 236  83.50737
 237  186.7652
 238  525.215
 239  733.0636
 240  511.7572
 241  -120.2435
 242  -327.8427
 243  -474.1547
 244  -121.8528
 245  178.7637
 246  306.036
 247  323.7902
 248  191.9421
 249  -252.1862
 250  137.6361
 251  136.5471
 252  316.2381
 253  97.55171
 254  284.0493
 255  358.7952
 256  86.96079
 257  191.1113
 258  187.9847
 259  -199.7857
 260  -213.8271
 261  30.24387
 262  311.1386
 263  203.1758
 264  68.3251
 265  411.7219
 266  268.6094
 267  248.8485
 268  114.281
 269  513.955
 270  467.1021
 271  622.0385
 272  879.1182
 273  703.441
 274  491.7475
 275  616.9748
 276  639.7394
 277  1274.533
 278  1534.887
 279  1801.832
 280  1803.62
 281  1402.336
 282  1301.532
 283  381.6063
 284  188.0067
 285  -119.48
 286  -40.93084
 287  351.508
 288  409.34
 289  481.0171
 290  202.7502
 291  -60.37024
 292  282.9906
 293  26.78808
 294  61.335
 295  114.7585
 296  460.9133
 297  467.7499
 298  365.6732
 299  377.1462
 300  -173.9492
 301  -438.8591
 302  -10.43845
 303  200.5152
 304  441.1235
 305  193.6471
 306  46.93975
 307  -41.24273
 308  -46.44102
 309  35.45403
 310  83.7654
 311  564.976
 312  275.2956
 313  3.904143
 314  375.0893
 315  167.9032
 316  103.3365
 317  -254.0786
 318  -321.9878
 319  -558.4614
 320  -519.387
 321  -281.3782
 322  -571.9609
 323  -435.9607
 324  -570.1426
 325  -752.6453
 326  -761.8375
 327  -511.9967
 328  -538.5651
 329  -376.3818
 330  -113.5759
 331  -309.4806
 332  -645.532
 333  -822.3369
 334  -736.1862
 335  -517.8059
 336  -362.9743
 337  -220.1928
 338  -108.3944
 339  106.9473
 340  -197.2352
 341  -179.7985
 342  -720.1285
 343  -533.305
 344  -220.4084
 345  -175.839
 346  -23.4637
 347  -451.6599
 348  -544.8439
 349  -346.7227
 350  157.2464
 351  -38.78197
 352  -447.8605
 353  -415.2538
 354  106.2806
 355  470.7818
 356  540.5847
 357  -27.47906
 358  74.98111
 359  60.20222
 360  -441.5435
 361  -204.8032
 362  -174.2692
 363  -174.0665
 364  -208.6832
 365  -11.69828
 366  -178.0084
 367  -512.9139
 368  -236.8403
 369  -262.6366
 370  50.27121
 371  63.46932
 372  82.61383
 373  336.5137
 374  167.1018
 375  578.0229
 376  493.0953
 377  357.3077
 378  93.26426
 379  224.4143
 380  111.9716
 381  -207.6494
 382  -131.1419
 383  523.3604
 384  395.0357
 385  -261.1599
 386  -313.0175
 387  -316.8177
 388  -429.8187
 389  -363.5645
 390  -238.0538
 391  -58.06403
 392  95.59195
 393  211.2797
 394  51.63046
 395  -0.3171187
 396  181.842
 397  319.2219
 398  259.6437
 399  -158.4751
 400  -228.5814
 401  -227.3865
 402  164.5218
 403  337.2452
 404  593.8375
 405  211.9695
 406  -186.9959
 407  -526.9711
 408  -84.38287
 409  527.7694
 410  153.5457
 411  168.6837
 412  425.4538
 413  273.6236
 414  -207.8692
 415  -160.503
 416  124.5735
 417  429.1134
 418  202.2761
 419  32.61158
 420  -132.0295
 421  -284.1325
 422  -241.6205
 423  -344.8608
 424  -363.9179
 425  -137.5769
 426  -215.2852
 427  12.83944
 428  112.0653
 429  -217.8625
 430  -616.978
 431  -229.4162
 432  -171.1076
 433  161.7972
 434  239.8355
 435  74.9126
 436  94.36164
 437  46.03046
 438  363.8477
 439  291.7704
 440  174.1109
 441  1.801685
 442  183.0732
 443  145.2875
 444  -28.30346
 445  88.33647
 446  101.6246
 447  84.05857
 448  49.88499
 449  159.3401
 450  140.5063
 451  -295.0592
 452  -31.30676
 453  213.1133
 454  179.275
 455  16.31463
 456  -49.4609
 457  214.4136
 458  589.1069
 459  749.5797
 460  282.9501
 461  31.23284
 462  -22.5168
 463  -143.9358
 464  14.13163
 465  457.1022
 466  211.3201
 467  230.6616
 468  418.7001
 469  597.2426
 470  350.9498
 471  -64.40807
 472  -51.01392
 473  279.641
 474  225.9453
 475  962.7454
 476  707.2054
 477  -72.93044
 478  -284.0486
 479  -185.479
 480  -179.1985
 481  -648.7834
 482  -292.4832
 483  182.6996
 484  161.8835
 485  -251.4268
 486  -193.2648
 487  49.54523
 488  -113.1931
 489  348.0776
 490  501.373
 491  872.0983
 492  772.6371
 493  595.2599
 494  152.5115
 495  -183.0978
 496  -253.1871
 497  73.45522
 498  759.9197
 499  468.5121
 500  791.5267
 501  385.0358
 502  173.5073
 503  -259.1073
 504  -182.2378
 505  -286.2408
 506  -136.2847
 507  444.4951
 508  187.4365
 509  86.71261
 510  -214.4031
 511  -397.3531
