# Input file       =  1201376082.115093_cleaned.dat
# Candidate        =  PSR_0332+5434
# Telescope        =  AR
# Epoch_topo       =  58148.815985128393
# Epoch_bary       =  N/A
# T_sample         =  0.002
# Data Folded      =  7340032
# Data Avg         =  0.0229321305344219
# Data StdDev      =  1.00007559758771 
# Profile Bins     =  512
# Profile Avg      =  328.777960224936 
# Profile StdDev   =  119.742087905485 
# Reduced chi-sqr  =  1.332
# Prob(Noise)      <  6.8e-07   (~4.8 sigma)
# P_topo (ms)      =  714.575742053382  +/- 0.000219
# P'_topo (s/s)    =  -0                +/- 1.15e-10
# P''_topo (s/s^2) =  0                 +/- 5.09e-14
# P_bary (ms)      =  N/A
# P'_bary (s/s)    =  N/A
# P''_bary (s/s^2) =  N/A
# P_orb (s)        =  N/A
# asin(i)/c (s)    =  N/A
# eccentricity     =  N/A
# w (rad)          =  N/A
# T_peri           =  N/A
######################################################
   0  1060.979
   1  1069.548
   2  859.2147
   3  502.306
   4  260.8022
   5  393.0552
   6  458.6582
   7  441.8402
   8  396.7803
   9  444.9749
  10  394.7667
  11  510.5398
  12  516.739
  13  446.4162
  14  299.0194
  15  327.6277
  16  374.8936
  17  386.4828
  18  399.5474
  19  263.2546
  20  380.3021
  21  397.229
  22  288.1474
  23  211.1588
  24  274.2104
  25  342.2829
  26  425.0638
  27  313.033
  28  336.5588
  29  323.025
  30  381.6372
  31  432.3619
  32  368.1485
  33  352.9425
  34  285.2307
  35  277.7706
  36  322.7531
  37  300.4858
  38  199.6878
  39  204.5421
  40  158.0548
  41  272.966
  42  303.3057
  43  313.1564
  44  368.5268
  45  360.7261
  46  324.8399
  47  349.4439
  48  319.7458
  49  296.3831
  50  181.4886
  51  182.6798
  52  217.5205
  53  330.0779
  54  299.3639
  55  324.7037
  56  335.9899
  57  336.6361
  58  318.4896
  59  252.9843
  60  209.2928
  61  324.8975
  62  299.5671
  63  255.4874
  64  256.9443
  65  310.0068
  66  330.7528
  67  246.6285
  68  459.7742
  69  495.2307
  70  363.8744
  71  382.5634
  72  348.3734
  73  348.2831
  74  265.7054
  75  327.7497
  76  357.8517
  77  291.7999
  78  348.0287
  79  371.986
  80  216.9085
  81  300.4199
  82  395.864
  83  346.7123
  84  238.8737
  85  242.385
  86  415.9224
  87  473.8994
  88  284.6307
  89  341.16
  90  308.1479
  91  293.3395
  92  282.0714
  93  338.9733
  94  279.627
  95  196.3608
  96  264.9372
  97  322.9702
  98  333.121
  99  233.7802
 100  257.6349
 101  313.842
 102  209.1167
 103  152.0737
 104  218.2196
 105  250.405
 106  244.3052
 107  246.0313
 108  258.2281
 109  372.0116
 110  332.6791
 111  207.1205
 112  198.9678
 113  239.5254
 114  244.8843
 115  325.5482
 116  304.5841
 117  264.2341
 118  337.3366
 119  238.0085
 120  270.3958
 121  278.1342
 122  339.0878
 123  334.1454
 124  395.5496
 125  385.9071
 126  395.9995
 127  356.5211
 128  354.0013
 129  309.0413
 130  327.8494
 131  318.8252
 132  396.5634
 133  358.8083
 134  337.6264
 135  419.7268
 136  383.0143
 137  325.2354
 138  217.9295
 139  430.2372
 140  387.4598
 141  290.8204
 142  343.693
 143  398.364
 144  307.2813
 145  306.0208
 146  241.4213
 147  257.4365
 148  258.3376
 149  357.2531
 150  332.8365
 151  361.0738
 152  266.1436
 153  187.0419
 154  239.1404
 155  203.5734
 156  297.4593
 157  411.8216
 158  386.4678
 159  272.112
 160  363.2267
 161  201.1881
 162  138.557
 163  303.553
 164  279.1167
 165  210.7674
 166  213.4292
 167  416.1516
 168  393.726
 169  313.0158
 170  440.506
 171  342.6739
 172  318.4103
 173  349.3324
 174  461.072
 175  370.2871
 176  301.3181
 177  222.1751
 178  234.2412
 179  439.6421
 180  374.6241
 181  317.2066
 182  313.5334
 183  381.8217
 184  383.615
 185  251.2237
 186  302.4359
 187  324.7315
 188  337.093
 189  427.0069
 190  364.8162
 191  362.6269
 192  337.7796
 193  327.4273
 194  226.5735
 195  181.6453
 196  379.3525
 197  392.8813
 198  303.7613
 199  216.0031
 200  245.3447
 201  340.2222
 202  375.3245
 203  363.9223
 204  271.899
 205  323.6091
 206  556.2722
 207  459.0765
 208  373.4739
 209  445.4106
 210  411.3386
 211  326.8654
 212  277.826
 213  161.9675
 214  269.5768
 215  404.7664
 216  418.2071
 217  380.699
 218  378.9746
 219  309.4572
 220  171.9895
 221  249.3095
 222  336.3764
 223  315.5648
 224  218.7261
 225  343.0044
 226  408.2761
 227  310.7395
 228  193.0197
 229  308.323
 230  379.9676
 231  440.3642
 232  394.5002
 233  290.7989
 234  223.4123
 235  289.8631
 236  360.8503
 237  311.7849
 238  434.2387
 239  534.1046
 240  377.9828
 241  168.7996
 242  232.6663
 243  402.2118
 244  370.2188
 245  354.3862
 246  454.1434
 247  440.6703
 248  378.51
 249  311.8739
 250  281.3699
 251  301.0122
 252  249.3853
 253  344.7923
 254  322.201
 255  293.9931
 256  283.637
 257  239.6823
 258  188.2863
 259  188.0793
 260  124.786
 261  153.7065
 262  224.2795
 263  234.0705
 264  365.2174
 265  384.0127
 266  355.5434
 267  285.2606
 268  304.5648
 269  316.8705
 270  336.3819
 271  342.6083
 272  429.635
 273  449.9682
 274  404.4269
 275  367.9067
 276  330.1531
 277  339.6784
 278  321.9374
 279  282.0243
 280  304.3469
 281  318.5013
 282  234.9926
 283  251.5366
 284  156.6653
 285  128.7775
 286  362.6376
 287  372.1461
 288  302.7912
 289  252.9998
 290  387.3852
 291  467.6336
 292  411.1261
 293  386.4625
 294  419.4098
 295  423.3604
 296  326.8775
 297  285.4347
 298  362.2309
 299  399.2248
 300  307.0043
 301  257.8863
 302  255.7414
 303  210.7442
 304  383.5658
 305  382.629
 306  289.0209
 307  217.0402
 308  199.3762
 309  86.96652
 310  222.3032
 311  365.3024
 312  393.1143
 313  303.5697
 314  349.6014
 315  339.1254
 316  426.1247
 317  323.0648
 318  262.9519
 319  289.403
 320  286.9852
 321  146.5499
 322  144.7108
 323  316.1604
 324  375.5951
 325  201.0178
 326  166.3229
 327  295.768
 328  357.6733
 329  307.8751
 330  310.4465
 331  380.8848
 332  320.9387
 333  231.3913
 334  141.1124
 335  277.2983
 336  271.6249
 337  215.7173
 338  265.0178
 339  361.5917
 340  330.2249
 341  324.075
 342  254.7309
 343  360.2373
 344  330.7133
 345  318.0069
 346  425.705
 347  341.588
 348  286.6448
 349  325.4245
 350  275.3515
 351  284.9106
 352  238.4063
 353  239.0765
 354  269.0616
 355  208.8141
 356  255.1051
 357  259.8822
 358  350.6498
 359  350.1566
 360  283.4745
 361  284.9746
 362  351.8221
 363  454.6469
 364  362.1251
 365  321.9242
 366  289.3583
 367  344.3082
 368  368.7982
 369  381.6783
 370  378.6301
 371  423.812
 372  317.0287
 373  374.941
 374  430.008
 375  440.9642
 376  317.6236
 377  294.5252
 378  303.519
 379  336.2131
 380  367.5752
 381  441.1058
 382  527.8014
 383  415.4602
 384  357.8616
 385  308.4148
 386  362.967
 387  380.9758
 388  417.0774
 389  333.2343
 390  370.7821
 391  284.44
 392  280.1122
 393  333.2265
 394  241.9768
 395  189.8358
 396  330.9618
 397  294.0452
 398  350.012
 399  403.347
 400  399.4077
 401  373.421
 402  319.3225
 403  398.0797
 404  476.9817
 405  576.4855
 406  379.2365
 407  499.9489
 408  408.441
 409  395.7097
 410  418.1964
 411  337.8363
 412  394.5169
 413  278.951
 414  400.584
 415  349.2596
 416  285.9534
 417  274.7549
 418  355.0875
 419  340.6832
 420  341.4082
 421  244.3831
 422  277.1712
 423  331.3127
 424  299.013
 425  346.9527
 426  332.7545
 427  250.2638
 428  266.2574
 429  334.2505
 430  333.6258
 431  371.1634
 432  388.4264
 433  167.7124
 434  267.8875
 435  487.9221
 436  312.5522
 437  255.775
 438  406.9721
 439  463.7777
 440  366.0848
 441  277.9701
 442  370.6122
 443  322.9829
 444  348.7254
 445  453.1128
 446  459.9042
 447  291.4752
 448  313.8453
 449  301.0732
 450  273.9904
 451  313.583
 452  345.0042
 453  337.5359
 454  380.2022
 455  306.9363
 456  262.1996
 457  362.0478
 458  229.2581
 459  173.3096
 460  238.0891
 461  328.2683
 462  280.8498
 463  284.6307
 464  237.0807
 465  97.2337
 466  182.5011
 467  198.9041
 468  265.0762
 469  247.1634
 470  241.4744
 471  362.8633
 472  218.0402
 473  278.163
 474  307.9879
 475  298.598
 476  343.0004
 477  360.6487
 478  371.0018
 479  302.7521
 480  196.0522
 481  323.8309
 482  386.9964
 483  329.6533
 484  385.2402
 485  355.8127
 486  372.998
 487  386.3924
 488  317.4892
 489  273.6786
 490  296.2066
 491  329.562
 492  297.3732
 493  381.9473
 494  343.3754
 495  418.2535
 496  467.967
 497  304.6888
 498  258.9584
 499  334.8208
 500  324.3176
 501  331.2904
 502  256.6069
 503  249.478
 504  269.825
 505  383.1945
 506  471.9233
 507  440.6467
 508  491.8992
 509  668.7585
 510  801.5981
 511  936.7038
