# Input file       =  1201705856.10787_cleaned.dat
# Candidate        =  PSR_0332+5434
# Telescope        =  AR
# Epoch_topo       =  58152.632813748496
# Epoch_bary       =  N/A
# T_sample         =  0.002
# Data Folded      =  7340032
# Data Avg         =  0.138904454414192
# Data StdDev      =  3.86594441203699 
# Profile Bins     =  256
# Profile Avg      =  3986.67696298642 
# Profile StdDev   =  654.612959785581 
# Reduced chi-sqr  =  0.772
# Prob(Noise)      <  0.997   (~0.0 sigma)
# P_topo (ms)      =  714.576930739272  +/- 0.000787
# P'_topo (s/s)    =  -0                +/- 4.15e-10
# P''_topo (s/s^2) =  0                 +/- 1.83e-13
# P_bary (ms)      =  N/A
# P'_bary (s/s)    =  N/A
# P''_bary (s/s^2) =  N/A
# P_orb (s)        =  N/A
# asin(i)/c (s)    =  N/A
# eccentricity     =  N/A
# w (rad)          =  N/A
# T_peri           =  N/A
######################################################
   0  4482.202
   1  4894.713
   2  4325.683
   3  3896.841
   4  4381.185
   5  4353.779
   6  4028.863
   7  3780.05
   8  3627.952
   9  3953.688
  10  3207.956
  11  3842.486
  12  3755.394
  13  3884.939
  14  3276.147
  15  3928.151
  16  3470.239
  17  3610.71
  18  3095.786
  19  3909.099
  20  4598.603
  21  3568.65
  22  3676.3
  23  4292.933
  24  3393.87
  25  2900.086
  26  3954.57
  27  3913.792
  28  3781.799
  29  3963.124
  30  4581.697
  31  3730.983
  32  3308.561
  33  3833.086
  34  3656.112
  35  3151.231
  36  3569.69
  37  3610.595
  38  3843.117
  39  3673.925
  40  3878.031
  41  4667.633
  42  4897.057
  43  4508.994
  44  3410.05
  45  4188.6
  46  4021.758
  47  4441.948
  48  4941.236
  49  4598.283
  50  4192.211
  51  4439.016
  52  4369.003
  53  3939.766
  54  4254.834
  55  4325.843
  56  3948.988
  57  3394.666
  58  3644.223
  59  4532.361
  60  4327.872
  61  3589.014
  62  3646.87
  63  4543.953
  64  3533.124
  65  3551.515
  66  3920.758
  67  3936.101
  68  4176.405
  69  3691.417
  70  3474.998
  71  4488.087
  72  3930.48
  73  3798.691
  74  4036.071
  75  4175.358
  76  3472.883
  77  3658.12
  78  4457.523
  79  3994.921
  80  3563.661
  81  4336.991
  82  3721.739
  83  3591.492
  84  3946.473
  85  3694.252
  86  3578.504
  87  4524.192
  88  4252.155
  89  4152.044
  90  3554.074
  91  4176.424
  92  3416.296
  93  3609.479
  94  3773.277
  95  3694.183
  96  3166.968
  97  3074.08
  98  3457.619
  99  3462.359
 100  3638.538
 101  4101.083
 102  4395.417
 103  3732.662
 104  4531.883
 105  4148.258
 106  4304.581
 107  4453.275
 108  4892.142
 109  4207.851
 110  4115.496
 111  3978.642
 112  4432.072
 113  4723.009
 114  3929.733
 115  4005.461
 116  4531.654
 117  4053.011
 118  4566.616
 119  4245.136
 120  4232.212
 121  3948.323
 122  3979.061
 123  3729.859
 124  3682.605
 125  4210.508
 126  4508.447
 127  3989.728
 128  4113.258
 129  4123.372
 130  4086.3
 131  3740.638
 132  3658.809
 133  3607.709
 134  4563.765
 135  4229.173
 136  4072.236
 137  4106.62
 138  4178.771
 139  3903.05
 140  3996.902
 141  4257.593
 142  4211.704
 143  3527.424
 144  4241.37
 145  4754.481
 146  4358.573
 147  4144.462
 148  3750.593
 149  4098.398
 150  4075.69
 151  4783.449
 152  5473.697
 153  6991.178
 154  6362.155
 155  5273.971
 156  4951.095
 157  4877.789
 158  4572.586
 159  4362.92
 160  3852.575
 161  4185.894
 162  4226.954
 163  4044.007
 164  4264.358
 165  4066.796
 166  3883.254
 167  3664.829
 168  3640.388
 169  4258.928
 170  4180.968
 171  4062.869
 172  3805.096
 173  3158.146
 174  4017.865
 175  3839.665
 176  3607.874
 177  3040.714
 178  3759.078
 179  3047.168
 180  3576.319
 181  3194.46
 182  3188.447
 183  4081.148
 184  3562.617
 185  3608.608
 186  4284.236
 187  4494.235
 188  4103.27
 189  3972.902
 190  3706.848
 191  4042.636
 192  3882.108
 193  3896.762
 194  4420.569
 195  3973.498
 196  4128.972
 197  4106.069
 198  4113.646
 199  4998.512
 200  4601.264
 201  3970.255
 202  4168.91
 203  3738.763
 204  3839.515
 205  3592.471
 206  3918.552
 207  3887.784
 208  3647.172
 209  3982.669
 210  5015.213
 211  4222.813
 212  3384.331
 213  3530.072
 214  4108.919
 215  3697.125
 216  3243.259
 217  3286.682
 218  3460.635
 219  4196.714
 220  3501.448
 221  3671.723
 222  3873.004
 223  4217.312
 224  3793.074
 225  3467.656
 226  4058.009
 227  4106.718
 228  3833.644
 229  3958.185
 230  4230.15
 231  3812.94
 232  3942.648
 233  3755.704
 234  3531.968
 235  3790.233
 236  4201.969
 237  3738.141
 238  4202.031
 239  3442.633
 240  4130.188
 241  4274.809
 242  3862.236
 243  4098.48
 244  3528.083
 245  2999.324
 246  3172.275
 247  3920.544
 248  3707.649
 249  3217.735
 250  3384.934
 251  3455.233
 252  4041.88
 253  4761.955
 254  4520.777
 255  3777.109
