# Input file       =  1201979202.113353-PSRB0329-2ms-sampling-dd.dat
# Candidate        =  PSR_0332+5434
# Telescope        =  AR
# Epoch_topo       =  58155.796540663810
# Epoch_bary       =  N/A
# T_sample         =  0.002
# Data Folded      =  7340032
# Data Avg         =  -1.70223199316389e-09
# Data StdDev      =  7.46840570685085 
# Profile Bins     =  512
# Profile Avg      =  0.0484378141516351
# Profile StdDev   =  894.21489217482  
# Reduced chi-sqr  =  0.787
# Prob(Noise)      <  1   (~0.0 sigma)
# P_topo (ms)      =  714.578352797686  +/- 0.000129
# P'_topo (s/s)    =  -0                +/- 6.79e-11
# P''_topo (s/s^2) =  0                 +/- 3e-14
# P_bary (ms)      =  N/A
# P'_bary (s/s)    =  N/A
# P''_bary (s/s^2) =  N/A
# P_orb (s)        =  N/A
# asin(i)/c (s)    =  N/A
# eccentricity     =  N/A
# w (rad)          =  N/A
# T_peri           =  N/A
######################################################
   0  -598.4698
   1  -288.1818
   2  -144.3609
   3  142.8674
   4  -1.221923
   5  -166.8455
   6  -242.0391
   7  -53.8895
   8  -183.8053
   9  -154.0662
  10  247.6607
  11  34.1125
  12  -393.2199
  13  -483.8872
  14  -198.7651
  15  -677.7341
  16  -45.3827
  17  -325.5276
  18  -383.5479
  19  -457.9164
  20  -978.8874
  21  -590.7125
  22  -258.8166
  23  -245.5598
  24  -402.4122
  25  -98.42268
  26  39.48993
  27  -263.6224
  28  -808.5572
  29  -1085.062
  30  -860.2913
  31  -790.074
  32  -602.8184
  33  -529.2458
  34  -316.4839
  35  -1051.371
  36  -709.5252
  37  -677.4669
  38  -333.0146
  39  -549.6184
  40  -803.7697
  41  -502.114
  42  -549.2684
  43  -247.5592
  44  -263.5247
  45  -469.9021
  46  -484.1981
  47  -438.8945
  48  193.8708
  49  181.2217
  50  -96.11869
  51  577.2906
  52  994.9531
  53  885.7479
  54  705.6094
  55  539.1987
  56  502.6779
  57  627.8898
  58  1272.006
  59  1475.912
  60  1041.335
  61  1569.858
  62  1166.513
  63  753.3556
  64  350.5133
  65  105.868
  66  1114.825
  67  884.5493
  68  1067.066
  69  820.5566
  70  250.3533
  71  239.0523
  72  1.543186
  73  471.3421
  74  895.9784
  75  1966.863
  76  1797.479
  77  847.2369
  78  430.865
  79  351.3406
  80  726.3813
  81  1054.137
  82  976.6684
  83  530.1731
  84  7.769531
  85  -296.0732
  86  -69.00822
  87  171.3502
  88  -364.4083
  89  -605.9753
  90  -206.6664
  91  -12.58966
  92  -48.30975
  93  456.5266
  94  903.0034
  95  8.734179
  96  -479.6423
  97  -634.8005
  98  -790.3833
  99  -348.7859
 100  -111.1313
 101  451.4763
 102  614.5422
 103  882.944
 104  106.0282
 105  76.14192
 106  160.5869
 107  1061.438
 108  557.5857
 109  796.6942
 110  1218.618
 111  566.1554
 112  -23.80439
 113  -355.28
 114  -164.2324
 115  252.4995
 116  820.0814
 117  976.3688
 118  553.1324
 119  423.2315
 120  -124.0603
 121  -139.4202
 122  -681.6148
 123  -60.03833
 124  535.7485
 125  223.7131
 126  316.6633
 127  -433.2029
 128  -360.5428
 129  -741.9794
 130  -1106.002
 131  -967.105
 132  -629.6235
 133  -407.5386
 134  19.28884
 135  -274.0012
 136  -653.7253
 137  -1351.766
 138  -1341.089
 139  -1266.218
 140  -690.3815
 141  -784.3381
 142  -399.9292
 143  -341.4337
 144  -559.7028
 145  -895.3334
 146  -886.403
 147  -465.1632
 148  -230.2254
 149  436.5953
 150  85.13924
 151  -251.7105
 152  -74.15376
 153  -321.9211
 154  -406.0161
 155  -456.3686
 156  -187.456
 157  137.0792
 158  -66.11221
 159  -243.6299
 160  -89.3295
 161  65.77132
 162  -359.6304
 163  -152.705
 164  -358.5285
 165  -416.9789
 166  -272.8411
 167  429.7527
 168  -105.4269
 169  -490.4246
 170  -900.6115
 171  -808.3621
 172  -378.0147
 173  -1.313343
 174  440.9007
 175  603.5721
 176  733.5894
 177  244.3148
 178  206.0657
 179  582.8618
 180  -109.9693
 181  -196.1293
 182  262.5988
 183  897.8144
 184  1145.369
 185  1369.618
 186  1048.691
 187  266.5606
 188  46.08974
 189  -21.01325
 190  167.6896
 191  410.4144
 192  447.2019
 193  155.2389
 194  3.774829
 195  128.1458
 196  143.9983
 197  -370.0143
 198  -119.9722
 199  5.553321
 200  -152.9758
 201  21.5306
 202  -41.39423
 203  -256.4999
 204  -576.7941
 205  -403.5556
 206  -802.8859
 207  -881.5876
 208  -453.2231
 209  -368.2672
 210  -97.93836
 211  -356.1375
 212  -232.5649
 213  -796.3571
 214  -672.3987
 215  -523.9627
 216  29.44584
 217  -316.3339
 218  80.92715
 219  -61.64049
 220  -952.3535
 221  -668.8666
 222  -503.4659
 223  -316.7828
 224  327.1701
 225  169.8319
 226  24.52792
 227  -321.6296
 228  -305.0264
 229  -657.9575
 230  -590.6558
 231  -496.3067
 232  -410.4262
 233  -337.5972
 234  -158.703
 235  -348.915
 236  -265.5681
 237  64.59925
 238  -56.98505
 239  -512.5017
 240  -334.6708
 241  -298.1685
 242  -148.7511
 243  294.5036
 244  331.2163
 245  326.5317
 246  -73.65511
 247  -965.4656
 248  -843.0008
 249  -671.3716
 250  -553.8881
 251  -669.7042
 252  34.18826
 253  168.2051
 254  -173.2602
 255  -597.8976
 256  -435.209
 257  -378.0451
 258  -322.8913
 259  -33.8986
 260  -266.3424
 261  -602.7506
 262  -430.1726
 263  -752.4875
 264  -1022.845
 265  -266.423
 266  -305.5095
 267  -375.7024
 268  -739.9059
 269  -650.1014
 270  -295.8659
 271  -524.9113
 272  -595.7017
 273  -1009.349
 274  -991.5263
 275  -559.8343
 276  -627.0695
 277  -40.96758
 278  -212.1266
 279  -62.81685
 280  -508.9178
 281  -743.5275
 282  -271.1607
 283  -366.1935
 284  -29.47231
 285  -264.8389
 286  3.218643
 287  -74.86509
 288  -698.091
 289  -895.0795
 290  -904.9595
 291  -806.5291
 292  -500.431
 293  -300.3427
 294  -505.9294
 295  -336.9289
 296  -253.959
 297  -208.2023
 298  -438.6265
 299  -163.3936
 300  2.245986
 301  -271.6949
 302  -483.1402
 303  -462.8401
 304  73.50239
 305  -189.2779
 306  -253.2098
 307  102.2472
 308  -279.2001
 309  72.51948
 310  -85.43644
 311  250.2641
 312  -333.6516
 313  -327.3409
 314  -63.86817
 315  107.7626
 316  193.0599
 317  55.96848
 318  -167.1613
 319  452.8828
 320  433.3111
 321  254.1937
 322  159.9774
 323  23.51503
 324  -166.9137
 325  -310.2992
 326  44.49119
 327  129.2807
 328  -30.06346
 329  -467.783
 330  -734.3267
 331  -649.3913
 332  -375.2916
 333  84.23106
 334  -394.7726
 335  -521.3707
 336  -324.4207
 337  -368.8646
 338  -422.0344
 339  -422.9495
 340  -320.3781
 341  127.3308
 342  -492.2204
 343  -591.2043
 344  -52.21793
 345  -129.0052
 346  245.7245
 347  -187.196
 348  317.2393
 349  739.0578
 350  -64.11674
 351  56.03289
 352  -74.09007
 353  87.59446
 354  -291.6789
 355  -648.3253
 356  -312.424
 357  -804.1517
 358  -178.8831
 359  -609.2791
 360  212.1265
 361  317.6459
 362  -306.6331
 363  -51.99242
 364  -557.6085
 365  81.81774
 366  -390.4117
 367  -111.1803
 368  210.3485
 369  1019.39
 370  649.8226
 371  199.2806
 372  -178.8575
 373  -303.3827
 374  234.0941
 375  -125.1166
 376  -352.5287
 377  -111.0677
 378  53.35459
 379  33.97132
 380  237.3796
 381  23.89043
 382  -319.2245
 383  -231.1728
 384  -626.7516
 385  5.879113
 386  257.1549
 387  -107.8243
 388  -34.80377
 389  -345.5971
 390  -500.8469
 391  -721.544
 392  -450.4863
 393  32.16734
 394  -372.1934
 395  -11.04371
 396  -216.9575
 397  -182.9457
 398  -306.3756
 399  216.1419
 400  743.2322
 401  598.001
 402  1277.199
 403  742.1505
 404  768.0024
 405  -168.121
 406  149.1303
 407  746.5303
 408  1141.124
 409  913.6448
 410  352.5253
 411  -93.9411
 412  -161.3287
 413  345.7819
 414  726.6082
 415  1392.817
 416  974.3069
 417  1003.102
 418  676.1696
 419  817.6756
 420  1816.984
 421  1877.409
 422  2696.228
 423  2035.983
 424  1519.768
 425  695.697
 426  -534.6232
 427  -165.605
 428  95.93911
 429  368.0057
 430  217.2041
 431  71.86957
 432  601.9404
 433  295.382
 434  506.9434
 435  793.8719
 436  1316.345
 437  1075.739
 438  41.11156
 439  24.78448
 440  581.7529
 441  927.4692
 442  734.363
 443  1335.356
 444  1551.378
 445  1035.615
 446  122.5301
 447  419.6945
 448  617.201
 449  1377.071
 450  1395.31
 451  1122.812
 452  916.7725
 453  -7.970933
 454  135.5571
 455  -55.08435
 456  106.2952
 457  152.0668
 458  -245.2891
 459  -6.602113
 460  -152.8797
 461  558.6569
 462  100.544
 463  -93.67999
 464  120.7655
 465  -375.316
 466  -312.3464
 467  -474.7365
 468  -43.94414
 469  268.6291
 470  238.4284
 471  250.6146
 472  -111.8652
 473  -14.15717
 474  64.67906
 475  -9.80919
 476  147.3974
 477  -223.2097
 478  -191.0039
 479  -96.33244
 480  11.1281
 481  608.3878
 482  637.9159
 483  474.7898
 484  594.0979
 485  562.2695
 486  309.9174
 487  296.9691
 488  422.2599
 489  431.5872
 490  268.032
 491  413.3702
 492  363.7414
 493  416.7976
 494  465.6323
 495  493.7112
 496  871.2472
 497  260.9502
 498  207.7764
 499  -452.4053
 500  -269.4001
 501  87.98773
 502  161.3319
 503  484.4586
 504  -31.19734
 505  -395.0661
 506  -388.1707
 507  -522.3909
 508  -324.6035
 509  -283.5048
 510  -94.78942
 511  -306.4807
