# Input file       =  1201533515.12507_cleaned.dat
# Candidate        =  PSR_0332+5434
# Telescope        =  AR
# Epoch_topo       =  58150.638126447571
# Epoch_bary       =  N/A
# T_sample         =  0.002
# Data Folded      =  7340032
# Data Avg         =  0.028798287839119
# Data StdDev      =  1.00004909190211 
# Profile Bins     =  512
# Profile Avg      =  412.863385156827 
# Profile StdDev   =  119.738914299267 
# Reduced chi-sqr  =  1.261
# Prob(Noise)      <  5.18e-05   (~3.9 sigma)
# P_topo (ms)      =  714.576162353505  +/- 0.000245
# P'_topo (s/s)    =  -0                +/- 1.29e-10
# P''_topo (s/s^2) =  0                 +/- 5.72e-14
# P_bary (ms)      =  N/A
# P'_bary (s/s)    =  N/A
# P''_bary (s/s^2) =  N/A
# P_orb (s)        =  N/A
# asin(i)/c (s)    =  N/A
# eccentricity     =  N/A
# w (rad)          =  N/A
# T_peri           =  N/A
######################################################
   0  424.3253
   1  414.5521
   2  386.5343
   3  361.5521
   4  398.3909
   5  382.3713
   6  382.0135
   7  432.228
   8  338.34
   9  297.1941
  10  293.0038
  11  295.7889
  12  361.2739
  13  328.184
  14  256.4345
  15  292.4473
  16  350.6329
  17  283.7802
  18  276.4322
  19  223.9394
  20  289.0356
  21  358.6904
  22  330.0866
  23  401.5525
  24  423.1568
  25  475.7427
  26  351.8495
  27  416.9164
  28  413.4635
  29  434.515
  30  395.6838
  31  404.0242
  32  425.9268
  33  497.0918
  34  432.3343
  35  429.2908
  36  390.4999
  37  395.3186
  38  429.4026
  39  312.9616
  40  410.4594
  41  436.8948
  42  439.559
  43  492.9741
  44  392.2975
  45  368.1397
  46  419.7084
  47  441.5081
  48  519.9119
  49  478.7297
  50  388.19
  51  440.9385
  52  535.726
  53  567.7206
  54  468.3332
  55  418.239
  56  444.9995
  57  458.6353
  58  358.8017
  59  409.7617
  60  519.2157
  61  507.7628
  62  488.3468
  63  445.2851
  64  361.0694
  65  317.6658
  66  291.7655
  67  316.8838
  68  426.6999
  69  400.9619
  70  411.5562
  71  381.7764
  72  366.3675
  73  360.5043
  74  355.3705
  75  508.8652
  76  419.1808
  77  485.7683
  78  412.3223
  79  359.8904
  80  292.5607
  81  236.3919
  82  338.2391
  83  471.7318
  84  530.6013
  85  391.763
  86  354.8035
  87  387.5067
  88  338.1928
  89  369.6902
  90  508.0798
  91  489.6148
  92  440.7449
  93  285.6579
  94  380.0846
  95  404.0228
  96  441.3042
  97  402.9672
  98  530.1848
  99  499.826
 100  348.0597
 101  302.8746
 102  429.1279
 103  387.0248
 104  407.1241
 105  356.4729
 106  410.0371
 107  364.7637
 108  321.9022
 109  358.117
 110  328.2332
 111  457.2347
 112  464.3912
 113  292.6842
 114  216.0617
 115  268.68
 116  354.1416
 117  451.8598
 118  499.605
 119  532.8253
 120  451.2582
 121  367.598
 122  383.9457
 123  325.4974
 124  328.2353
 125  346.0854
 126  365.9846
 127  441.9227
 128  300.1858
 129  396.1604
 130  294.2687
 131  411.0755
 132  358.2383
 133  373.5629
 134  381.2004
 135  343.7592
 136  369.5355
 137  376.2604
 138  352.8392
 139  372.3904
 140  376.4152
 141  489.2983
 142  368.8426
 143  324.7424
 144  409.6478
 145  407.388
 146  350.3803
 147  355.5533
 148  311.7865
 149  305.8253
 150  359.8304
 151  379.2851
 152  419.5223
 153  377.9215
 154  409.4543
 155  377.4078
 156  393.4961
 157  409.005
 158  336.3258
 159  352.3937
 160  341.8229
 161  312.3719
 162  370.3708
 163  403.5126
 164  316.2268
 165  298.734
 166  350.2914
 167  284.3624
 168  314.9737
 169  362.3056
 170  271.8395
 171  333.1793
 172  423.985
 173  326.3688
 174  311.7103
 175  379.373
 176  455.5165
 177  481.8662
 178  458.0423
 179  451.0803
 180  443.7068
 181  414.912
 182  419.349
 183  385.2992
 184  384.5202
 185  475.6739
 186  478.0648
 187  387.0051
 188  327.6869
 189  290.6739
 190  317.7382
 191  439.5828
 192  336.6625
 193  390.5756
 194  394.4703
 195  367.1602
 196  340.0171
 197  302.7667
 198  293.9131
 199  442.0035
 200  419.2805
 201  338.3379
 202  378.427
 203  364.9986
 204  307.0037
 205  407.752
 206  384.4654
 207  312.4429
 208  321.6461
 209  378.4148
 210  393.3347
 211  303.6169
 212  267.2596
 213  439.6832
 214  566.5439
 215  601.972
 216  520.1409
 217  453.0308
 218  474.7597
 219  330.2503
 220  310.3853
 221  336.8566
 222  429.3049
 223  464.2376
 224  391.7933
 225  400.491
 226  464.6491
 227  352.5919
 228  335.2079
 229  457.162
 230  479.7394
 231  343.9695
 232  342.7191
 233  446.6397
 234  483.744
 235  461.8135
 236  408.541
 237  458.5367
 238  434.1119
 239  369.0422
 240  362.2714
 241  354.2809
 242  442.0704
 243  378.3683
 244  401.8223
 245  298.6029
 246  236.1942
 247  358.8914
 248  380.2353
 249  480.8679
 250  370.5857
 251  442.9555
 252  368.2717
 253  350.7815
 254  370.5723
 255  305.7342
 256  228.3444
 257  331.4631
 258  432.1263
 259  452.2933
 260  566.3427
 261  498.5024
 262  331.5429
 263  318.0521
 264  340.058
 265  409.1114
 266  422.5487
 267  451.7338
 268  381.3916
 269  425.6402
 270  434.191
 271  340.44
 272  374.9348
 273  375.7812
 274  542.2352
 275  564.5382
 276  387.0993
 277  418.407
 278  518.1353
 279  427.3408
 280  409.3782
 281  397.9986
 282  393.8743
 283  440.8767
 284  504.5221
 285  525.3544
 286  330.6135
 287  419.304
 288  330.8626
 289  357.0466
 290  440.3523
 291  545.9033
 292  495.5177
 293  478.4044
 294  363.9762
 295  431.2875
 296  410.8093
 297  430.482
 298  317.9833
 299  270.636
 300  404.4572
 301  372.2877
 302  432.2308
 303  386.4359
 304  274.2895
 305  345.8358
 306  334.8095
 307  343.5867
 308  317.1788
 309  406.9836
 310  395.5228
 311  396.4531
 312  402.1922
 313  381.141
 314  547.5781
 315  549.2881
 316  518.5024
 317  473.8213
 318  458.0586
 319  374.423
 320  463.2859
 321  521.7972
 322  557.7703
 323  588.8248
 324  622.2373
 325  511.1721
 326  493.1154
 327  573.6219
 328  593.1355
 329  587.5864
 330  559.2365
 331  605.0833
 332  545.0986
 333  483.6694
 334  629.6116
 335  588.8176
 336  480.1026
 337  515.4485
 338  529.4775
 339  470.4414
 340  540.1602
 341  610.6725
 342  550.0353
 343  534.3077
 344  633.0933
 345  489.327
 346  469.5711
 347  480.0951
 348  472.42
 349  539.2851
 350  647.6497
 351  588.2909
 352  446.2125
 353  453.4095
 354  463.0368
 355  523.1706
 356  534.2047
 357  467.5364
 358  446.2319
 359  442.8695
 360  473.3974
 361  427.2408
 362  438.4775
 363  345.9971
 364  393.2462
 365  368.2324
 366  332.3348
 367  440.9469
 368  366.3787
 369  426.3516
 370  449.2592
 371  498.5901
 372  338.0195
 373  283.0819
 374  349.5778
 375  448.2073
 376  441.138
 377  404.583
 378  467.8648
 379  464.2587
 380  390.9235
 381  420.7549
 382  533.0425
 383  479.299
 384  425.9687
 385  477.1078
 386  371.7396
 387  440.3405
 388  441.2749
 389  378.7934
 390  440.9796
 391  445.9353
 392  366.8107
 393  395.3323
 394  383.8569
 395  352.4558
 396  418.5324
 397  372.2257
 398  358.8668
 399  366.6829
 400  393.9242
 401  399.8564
 402  424.944
 403  444.7981
 404  400.1526
 405  478.3717
 406  423.7571
 407  349.3443
 408  373.2309
 409  352.6273
 410  346.3456
 411  416.7367
 412  486.1189
 413  435.8786
 414  261.6722
 415  321.6045
 416  463.6183
 417  416.6482
 418  439.412
 419  536.2723
 420  564.1479
 421  408.9454
 422  426.3852
 423  394.6432
 424  381.4862
 425  285.3882
 426  328.144
 427  312.9233
 428  389.4504
 429  350.1672
 430  384.0556
 431  424.1048
 432  385.8755
 433  410.1796
 434  322.596
 435  399.1076
 436  518.7694
 437  446.3698
 438  398.1581
 439  344.0815
 440  281.3204
 441  297.4468
 442  259.7001
 443  261.8323
 444  255.2554
 445  369.6512
 446  444.9554
 447  389.9763
 448  354.965
 449  309.2242
 450  362.2196
 451  519.6625
 452  547.1756
 453  609.3562
 454  643.4982
 455  765.6369
 456  920.4619
 457  1098.393
 458  1151.375
 459  956.2984
 460  696.7921
 461  500.5883
 462  296.7018
 463  302.659
 464  279.5983
 465  299.3953
 466  331.7345
 467  305.911
 468  394.1103
 469  471.2287
 470  450.7905
 471  482.3586
 472  423.4521
 473  462.5547
 474  487.1831
 475  479.1332
 476  422.506
 477  374.336
 478  380.984
 479  441.9137
 480  424.3718
 481  388.5687
 482  355.873
 483  316.5147
 484  305.3069
 485  368.7303
 486  404.6686
 487  467.761
 488  347.3945
 489  381.5647
 490  468.0093
 491  370.7351
 492  495.0901
 493  363.3749
 494  409.9557
 495  460.9204
 496  489.9108
 497  363.0024
 498  381.5082
 499  377.2336
 500  382.2273
 501  317.2506
 502  495.0203
 503  603.5605
 504  420.973
 505  399.217
 506  430.153
 507  399.9969
 508  396.8524
 509  370.7104
 510  371.5587
 511  451.0962
