# Input file       =  1201001850.126311-PSRB0329-2ms-sampling-dd.dat
# Candidate        =  PSR_0332+5434
# Telescope        =  AR
# Epoch_topo       =  58144.484596369344
# Epoch_bary       =  N/A
# T_sample         =  0.002
# Data Folded      =  7471104
# Data Avg         =  -4.9291548577716e-09
# Data StdDev      =  258.407742195006 
# Profile Bins     =  512
# Profile Avg      =  0.0564791793267856
# Profile StdDev   =  31214.9707258307 
# Reduced chi-sqr  =  1.137
# Prob(Noise)      <  0.0174   (~2.1 sigma)
# P_topo (ms)      =  714.573379444516  +/- 0.000477
# P'_topo (s/s)    =  -0                +/- 2.48e-10
# P''_topo (s/s^2) =  0                 +/- 1.07e-13
# P_bary (ms)      =  N/A
# P'_bary (s/s)    =  N/A
# P''_bary (s/s^2) =  N/A
# P_orb (s)        =  N/A
# asin(i)/c (s)    =  N/A
# eccentricity     =  N/A
# w (rad)          =  N/A
# T_peri           =  N/A
######################################################
   0  -11547.67
   1  -6518.342
   2  9856.408
   3  21152.79
   4  27814.37
   5  14340.53
   6  -16357.13
   7  -5202.966
   8  9346.932
   9  33247.71
  10  39199.99
  11  31241.98
  12  14729.18
  13  -16040.08
  14  -18910.76
  15  -18670.83
  16  -19425.26
  17  -10738.79
  18  -8114.431
  19  -11913.17
  20  -10585.02
  21  -10014.97
  22  -5386.601
  23  -1545.158
  24  4548.674
  25  5426.81
  26  2192.29
  27  -566.5294
  28  -4072.697
  29  -5407.467
  30  -4037.093
  31  3020.187
  32  4508.054
  33  -4631.396
  34  -12801.18
  35  -16758.86
  36  -14554.56
  37  -11299.09
  38  -8150.246
  39  -11026.32
  40  -16960.23
  41  -21280.44
  42  -19408.97
  43  -15565.72
  44  -11448.8
  45  -9504.364
  46  -5954.928
  47  -1355.171
  48  6911.931
  49  21805.71
  50  28918.15
  51  39445.59
  52  21030.38
  53  38724.75
  54  46656.18
  55  54013.77
  56  45804.74
  57  49896.08
  58  50386.59
  59  40735.65
  60  47530.4
  61  51670.55
  62  37140.13
  63  20565.79
  64  20934.13
  65  19681.35
  66  18252.47
  67  24483.4
  68  23094.74
  69  12859.54
  70  12300.72
  71  13789.74
  72  27561.32
  73  31091.88
  74  36957.27
  75  34671.24
  76  25757.78
  77  2060.521
  78  497.6019
  79  33593.8
  80  57253.64
  81  63308.16
  82  51360.78
  83  21235.8
  84  -2783.457
  85  -18380.15
  86  -16974.61
  87  -18504.7
  88  -10362.77
  89  -16.93959
  90  3967.982
  91  2995.482
  92  6376.989
  93  -3240.38
  94  -3547.356
  95  8585.788
  96  5691.691
  97  9994.206
  98  6017.941
  99  622.7885
 100  -7564.263
 101  -16557.47
 102  -18420.95
 103  -16913.59
 104  -16586.1
 105  -17530.66
 106  -19787.37
 107  -24401
 108  -17815.16
 109  -18237.58
 110  -17007.52
 111  -15856.57
 112  -22717.27
 113  -25414.45
 114  -25370.95
 115  -16534.04
 116  -10287.28
 117  -3594.566
 118  -5677.551
 119  -7934.403
 120  -10521.79
 121  -573.098
 122  3367.74
 123  5695.188
 124  8436.502
 125  44.74334
 126  -3266.253
 127  -11546.65
 128  -20656.7
 129  -25947.45
 130  -29681.39
 131  -30109.78
 132  -28926.62
 133  -27486.26
 134  -29461.17
 135  -31575.83
 136  -32764.12
 137  -31372.41
 138  -30431.06
 139  -28457.32
 140  -27219.28
 141  -28549.84
 142  -30029.47
 143  -32379.19
 144  -30869.23
 145  -29916.83
 146  -28760.66
 147  -26848.35
 148  -29244.04
 149  -29426.78
 150  -30073.76
 151  -27023.02
 152  -26811.72
 153  -25324.86
 154  -22493.58
 155  -22367.35
 156  -22511.61
 157  -21155.86
 158  -24176.14
 159  -22384.14
 160  -18330.74
 161  -9601.709
 162  188.1866
 163  1181.715
 164  -3549.725
 165  -11292.34
 166  -12299.65
 167  -6504.138
 168  -5666.416
 169  -752.8
 170  -976.3072
 171  -8811.674
 172  -14399.29
 173  -18802.1
 174  -24067.89
 175  -28585.87
 176  -29873.45
 177  -32825.99
 178  -34316.07
 179  -34635.69
 180  -33173.31
 181  -32194.56
 182  -29937.58
 183  -28489.9
 184  -29200.4
 185  -30052.51
 186  -31802.4
 187  -31729.05
 188  -31271.23
 189  -28182.42
 190  -25437.1
 191  -24791.47
 192  -26856.01
 193  -30559.85
 194  -31236.5
 195  -31676.85
 196  -29619.51
 197  -28358.84
 198  -26771.04
 199  -26552.75
 200  -25892.54
 201  -25115.74
 202  -23453.64
 203  -23733.52
 204  -21855.28
 205  -26318.68
 206  -24797.34
 207  -21530.87
 208  -8811.732
 209  -2892.567
 210  -1795.11
 211  18.54652
 212  -13173.95
 213  -20618.48
 214  -24407.93
 215  -3872.355
 216  1883.398
 217  4990.391
 218  382.6575
 219  -9122.726
 220  -13855.65
 221  -16929.46
 222  -14846.31
 223  -10521.11
 224  -5362.687
 225  -643.7317
 226  -1705.404
 227  -1513.22
 228  -2150.585
 229  3979.33
 230  30045.2
 231  43200.32
 232  45631.04
 233  31133.21
 234  16155.5
 235  5754.075
 236  17832.44
 237  25233.63
 238  33530.76
 239  22638.4
 240  2699.495
 241  -4352.487
 242  -12756.7
 243  3481.127
 244  4732.762
 245  6857.395
 246  -3535.287
 247  -11619.18
 248  -13486.08
 249  -18913.9
 250  -12810.03
 251  -11228.09
 252  -3296.836
 253  -8046.874
 254  -10010.75
 255  -13250.64
 256  -17424.27
 257  -16606.45
 258  -18156.06
 259  -21714.25
 260  -28363.98
 261  -28694.25
 262  -27779.09
 263  -24038.4
 264  -23924.79
 265  -25277.18
 266  -28051.94
 267  -29902.79
 268  -29658.46
 269  -27499.71
 270  -26661.1
 271  -27657.68
 272  -28534.96
 273  -22503.82
 274  -18019.56
 275  -13481.85
 276  -13180.41
 277  -7499.703
 278  -14459.58
 279  -15228
 280  -14190.43
 281  -13418.8
 282  -9918.453
 283  -4245.589
 284  3876.787
 285  456.6025
 286  -1677.316
 287  -7728.577
 288  -7794.023
 289  -2871.452
 290  21506.99
 291  31803.65
 292  26580.39
 293  16819.54
 294  4925.403
 295  10953.71
 296  10716.53
 297  28580.43
 298  30689.4
 299  26097.39
 300  17625.97
 301  10007.28
 302  3724.87
 303  -3421.176
 304  7809.021
 305  11617.22
 306  18682.13
 307  15341.34
 308  11607.55
 309  4908.144
 310  219.2156
 311  3921.382
 312  5952.186
 313  9143.56
 314  11299.88
 315  13571.74
 316  9443.499
 317  12770.96
 318  12688.42
 319  8062.456
 320  11472.81
 321  7106.433
 322  10111.62
 323  10170.99
 324  5822.431
 325  1332.943
 326  -6341.857
 327  -14624.39
 328  -20083.24
 329  -22327.26
 330  -27296.65
 331  -25904.05
 332  -24219.74
 333  -19397.72
 334  -17644.79
 335  -17535.45
 336  -14319.14
 337  -13917.12
 338  -8994.128
 339  -4973.994
 340  1725.11
 341  30.06111
 342  2074.316
 343  5561.667
 344  12372.7
 345  18157.54
 346  25794.42
 347  22524.71
 348  20709.99
 349  15880.02
 350  9921.513
 351  18130.24
 352  25750.14
 353  38981.56
 354  43185.19
 355  44092.13
 356  35579.87
 357  14661.74
 358  13960.46
 359  18285.27
 360  29573.21
 361  39075.54
 362  42340.86
 363  26184.96
 364  11663.78
 365  3233.513
 366  -4035.464
 367  -3539.03
 368  2119.948
 369  9091.968
 370  7091.063
 371  4617.102
 372  5522.132
 373  1599.856
 374  3058.405
 375  9255.411
 376  16911.45
 377  15664.39
 378  14258.25
 379  9453.231
 380  1807.587
 381  1183.738
 382  1759.627
 383  12040.54
 384  13728.53
 385  12383.21
 386  7667.868
 387  6149.288
 388  4341.437
 389  6334.207
 390  19718.65
 391  25839.36
 392  29167.83
 393  44901.41
 394  43251.95
 395  32092.71
 396  27134.56
 397  27378.71
 398  25600.72
 399  41894.27
 400  47881.84
 401  38845.77
 402  19160.04
 403  5654.939
 404  -1744.398
 405  -14935.86
 406  -11074.88
 407  -14791.07
 408  -15900.79
 409  -10514.27
 410  -11268.71
 411  -9278.215
 412  -8508.812
 413  -11036.86
 414  935.511
 415  8358.439
 416  17213.89
 417  11383.8
 418  8021.181
 419  7485.304
 420  5459.995
 421  4172.954
 422  398.8113
 423  -11353.75
 424  -15885.32
 425  -12969.3
 426  -6027.988
 427  -2672.749
 428  -1930.791
 429  -6684.69
 430  -10458.67
 431  -15298.96
 432  -14695.83
 433  -11917.39
 434  -6330.287
 435  -627.0908
 436  632.1341
 437  -7284.775
 438  -13372.03
 439  -13834.91
 440  -9005.021
 441  -6702.582
 442  -1336.666
 443  -7028.476
 444  -11804.42
 445  -13527.98
 446  -4562.51
 447  5380.897
 448  11879.62
 449  14553.76
 450  -8339.819
 451  -13589.22
 452  -5981.467
 453  15469.44
 454  24341.99
 455  30747.42
 456  19311.36
 457  -4397.477
 458  -17271.76
 459  -20062.95
 460  -22754.01
 461  -19265.07
 462  -14216.13
 463  -11527.41
 464  -11114.97
 465  -13215.98
 466  -16131.23
 467  -14654.4
 468  -9740.572
 469  2218.659
 470  12746.04
 471  21313.22
 472  26318.88
 473  42197.82
 474  47683.4
 475  53778.81
 476  41931.33
 477  30824.94
 478  47620.88
 479  82485.47
 480  146624.6
 481  156147.4
 482  147741.4
 483  85093.69
 484  42306.84
 485  19823.79
 486  9411.933
 487  5769.062
 488  -3387.617
 489  -4778.929
 490  2950.295
 491  10069.56
 492  11281.78
 493  17196.15
 494  22002.21
 495  13843.66
 496  14073.15
 497  2405.176
 498  -7728.308
 499  -18920.24
 500  -12866.79
 501  -8263.715
 502  -7805.938
 503  -14338.54
 504  -20684.7
 505  -23336.96
 506  -23143.68
 507  -17538.86
 508  -10644.58
 509  -8813.956
 510  -12097.6
 511  -17718.39
