# Input file       =  1201863564.114864_cleaned.dat
# Candidate        =  PSR_0332+5434
# Telescope        =  AR
# Epoch_topo       =  58154.458137903523
# Epoch_bary       =  N/A
# T_sample         =  0.002
# Data Folded      =  7405568
# Data Avg         =  0.109588224714852
# Data StdDev      =  4.24685155050323 
# Profile Bins     =  256
# Profile Avg      =  3170.16959163157 
# Profile StdDev   =  722.314419630201 
# Reduced chi-sqr  =  3.362
# Prob(Noise)      <  3.21e-66   (~17.1 sigma)
# P_topo (ms)      =  714.577557769794  +/- 2.32e-05
# P'_topo (s/s)    =  -0                +/- 1.21e-11
# P''_topo (s/s^2) =  0                 +/- 5.31e-15
# P_bary (ms)      =  N/A
# P'_bary (s/s)    =  N/A
# P''_bary (s/s^2) =  N/A
# P_orb (s)        =  N/A
# asin(i)/c (s)    =  N/A
# eccentricity     =  N/A
# w (rad)          =  N/A
# T_peri           =  N/A
######################################################
   0  2305.628
   1  2943.609
   2  2570.976
   3  2011.018
   4  2489.843
   5  4398.364
   6  4818.761
   7  2958.489
   8  2562.234
   9  2295.489
  10  2514.244
  11  2047.133
  12  2690.643
  13  4977.663
  14  4976.689
  15  2827.787
  16  1862.949
  17  3001.337
  18  2792.793
  19  1812.031
  20  2481.654
  21  4387.808
  22  4897.52
  23  3835.396
  24  2290.524
  25  2372.916
  26  3195.008
  27  2802.282
  28  1605.183
  29  3811.319
  30  5508.379
  31  4132.543
  32  2625.522
  33  2521.562
  34  3294.869
  35  2994.361
  36  1630.594
  37  2755.983
  38  4877.224
  39  5698.063
  40  3200.227
  41  2113.056
  42  2684.033
  43  2642.546
  44  2243.966
  45  2452.65
  46  4181.144
  47  4731.425
  48  3686.568
  49  2868.054
  50  2239.022
  51  2654.769
  52  2878.13
  53  2296.097
  54  4323.082
  55  5335.207
  56  3871.556
  57  2459.451
  58  2727.146
  59  2897.958
  60  2470.226
  61  1853.489
  62  3474.113
  63  4471.576
  64  5016.484
  65  2830.655
  66  2391.529
  67  2916.187
  68  2984.055
  69  1776.476
  70  2169.637
  71  4477.78
  72  5976.198
  73  2978.052
  74  1660.002
  75  3149.201
  76  3949.224
  77  2742.822
  78  1980.609
  79  4684.71
  80  5596.593
  81  3336.809
  82  1931.008
  83  2573.658
  84  3234.554
  85  2841.422
  86  1995.768
  87  3854.365
  88  5654.019
  89  4953.744
  90  2310.479
  91  2371.384
  92  3340.454
  93  2628.536
  94  1986.45
  95  3423.481
  96  4668.482
  97  4130.792
  98  2988.599
  99  2884.238
 100  3432.728
 101  2947.596
 102  1844.405
 103  1949.448
 104  4513.001
 105  4872.342
 106  2598.257
 107  2485.942
 108  3228.124
 109  3138.938
 110  2047.598
 111  1639.759
 112  4392.504
 113  5389.651
 114  4459.939
 115  2151.689
 116  2524.025
 117  3219.264
 118  2205.453
 119  1671.47
 120  3653.118
 121  5204.393
 122  3980.039
 123  2073.677
 124  2334.452
 125  3185.007
 126  2621.118
 127  2340.45
 128  2532.745
 129  4289.007
 130  5361.856
 131  3083.745
 132  2271.788
 133  1969.222
 134  2988.175
 135  2513.209
 136  2668.952
 137  4043.385
 138  4529.66
 139  2665.378
 140  2368.347
 141  2747.702
 142  2465.354
 143  1669.922
 144  2204.981
 145  4318.792
 146  5453.485
 147  4419.184
 148  2039.556
 149  2320.75
 150  3649.632
 151  2909.163
 152  3167.073
 153  6566.593
 154  7891.322
 155  4601.547
 156  2662.01
 157  1820.122
 158  3228.16
 159  3216.49
 160  1991.729
 161  2758.401
 162  4881.043
 163  5400.692
 164  2168.027
 165  1334.545
 166  2745.97
 167  3335.15
 168  2396.379
 169  1884.717
 170  3956.764
 171  5063.842
 172  4187.322
 173  2014.12
 174  2809.024
 175  2410.227
 176  2257.475
 177  2536.661
 178  4686.754
 179  4656.845
 180  3993.89
 181  2422.442
 182  3310.653
 183  3391.301
 184  1863.094
 185  1819.726
 186  3765.361
 187  4741.174
 188  4298.06
 189  2863.793
 190  1640.934
 191  2609.949
 192  2752.039
 193  1391.294
 194  2784.044
 195  4591.728
 196  4686.4
 197  2275.046
 198  2479.978
 199  3691.422
 200  3386.936
 201  1678.031
 202  1863.186
 203  3978.335
 204  4912.594
 205  3237.686
 206  2273.037
 207  2460.13
 208  2705.54
 209  2909.567
 210  1718.17
 211  3480.608
 212  5600.98
 213  4401.125
 214  2814.483
 215  2358.237
 216  2607.588
 217  2503.987
 218  1564.063
 219  3007.604
 220  4811.745
 221  4601.352
 222  2782.013
 223  3023.974
 224  2807.475
 225  2300.526
 226  1841.702
 227  2532.656
 228  4818.273
 229  4415.268
 230  2780.844
 231  2320.47
 232  3020.989
 233  2298.773
 234  1725.975
 235  2527.721
 236  4479.43
 237  5171.343
 238  2628.203
 239  1197.815
 240  2134.15
 241  3258.953
 242  2219.892
 243  1698.092
 244  4017.882
 245  4912.987
 246  3426.458
 247  2302.714
 248  2082.886
 249  2896.552
 250  3307.942
 251  2558.478
 252  3543.691
 253  5431.052
 254  4999.622
 255  1913.586
