# Input file       =  1201376082.115093-PSRB0329-2ms-sampling-dd.dat
# Candidate        =  PSR_0332+5434
# Telescope        =  AR
# Epoch_topo       =  58148.815985128393
# Epoch_bary       =  N/A
# T_sample         =  0.002
# Data Folded      =  7340032
# Data Avg         =  3.64975246831398e-11
# Data StdDev      =  6.94332335028389 
# Profile Bins     =  512
# Profile Avg      =  0.200567156447718
# Profile StdDev   =  831.345187275191 
# Reduced chi-sqr  =  0.723
# Prob(Noise)      <  1   (~0.0 sigma)
# P_topo (ms)      =  714.575743272235  +/- 0.00046
# P'_topo (s/s)    =  -0                +/- 2.43e-10
# P''_topo (s/s^2) =  0                 +/- 1.07e-13
# P_bary (ms)      =  N/A
# P'_bary (s/s)    =  N/A
# P''_bary (s/s^2) =  N/A
# P_orb (s)        =  N/A
# asin(i)/c (s)    =  N/A
# eccentricity     =  N/A
# w (rad)          =  N/A
# T_peri           =  N/A
######################################################
   0  -534.7826
   1  -440.083
   2  -91.2207
   3  248.148
   4  49.41983
   5  -442.2729
   6  -635.5188
   7  45.6197
   8  -30.2653
   9  -398.2735
  10  -87.84433
  11  -73.16088
  12  -77.89651
  13  -266.0007
  14  -452.605
  15  -268.4294
  16  -424.3279
  17  -393.3376
  18  -488.6238
  19  -549.5128
  20  -609.9418
  21  -614.034
  22  -913.5467
  23  -1170.241
  24  -1165.863
  25  -1044.181
  26  -726.6658
  27  -739.3739
  28  -540.9544
  29  -544.8902
  30  -383.3726
  31  -773.6567
  32  -544.4265
  33  -432.8902
  34  -386.197
  35  -286.1295
  36  -409.0505
  37  -404.3403
  38  -546.6647
  39  -455.2369
  40  -210.8104
  41  -148.5014
  42  -294.868
  43  -319.8721
  44  -440.8731
  45  -621.5231
  46  -498.1142
  47  -489.5157
  48  -417.3896
  49  -552.0643
  50  -42.12539
  51  200.1992
  52  -91.98875
  53  -267.9783
  54  -148.2789
  55  354.0339
  56  423.1704
  57  282.1792
  58  619.8224
  59  731.7422
  60  502.8973
  61  111.41
  62  412.2363
  63  693.3477
  64  393.602
  65  120.0438
  66  -151.4794
  67  -412.1864
  68  411.4623
  69  819.7878
  70  84.09045
  71  -80.2764
  72  -279.1296
  73  -760.5532
  74  34.92781
  75  257.7943
  76  1033.488
  77  817.6246
  78  483.6879
  79  477.3065
  80  437.5004
  81  234.9971
  82  -76.3987
  83  179.2189
  84  499.3448
  85  61.32845
  86  -493.0953
  87  -117.1309
  88  -8.960375
  89  -355.6801
  90  -503.3442
  91  -145.757
  92  18.40359
  93  158.5609
  94  -110.6294
  95  66.20895
  96  220.1856
  97  279.6934
  98  138.5374
  99  163.7141
 100  231.914
 101  10.50629
 102  -1.20673
 103  157.4417
 104  502.223
 105  299.5554
 106  -146.4024
 107  207.7034
 108  373.3423
 109  155.6049
 110  278.2928
 111  780.8969
 112  598.2569
 113  663.5487
 114  243.0403
 115  266.9584
 116  -61.79345
 117  38.53658
 118  -137.9009
 119  100.7847
 120  470.7314
 121  391.4014
 122  370.2566
 123  170.0361
 124  -215.2212
 125  -188.5405
 126  -209.877
 127  110.6803
 128  34.46989
 129  10.64626
 130  80.63734
 131  -73.39236
 132  106.6646
 133  178.404
 134  444.33
 135  588.9672
 136  206.8655
 137  177.0118
 138  115.0815
 139  204.0544
 140  -19.80691
 141  -18.18295
 142  73.66293
 143  157.8746
 144  228.7524
 145  101.3752
 146  454.135
 147  265.0648
 148  309.851
 149  356.0534
 150  355.4464
 151  222.3714
 152  162.8735
 153  20.47839
 154  194.5195
 155  228.4058
 156  65.54688
 157  193.938
 158  0.9506337
 159  -335.4719
 160  54.28889
 161  345.8621
 162  875.226
 163  1249
 164  1944.102
 165  1624.327
 166  1407.718
 167  1492.948
 168  1393.305
 169  1947.517
 170  2076.593
 171  1701.83
 172  1231.156
 173  646.1697
 174  692.1693
 175  515.3188
 176  512.4199
 177  272.4382
 178  277.8968
 179  175.4188
 180  -353.4668
 181  -591.1611
 182  -413.2407
 183  -184.6564
 184  -314.2574
 185  -128.4254
 186  -183.9588
 187  -68.21778
 188  -124.6922
 189  -16.53269
 190  -222.3378
 191  -256.0961
 192  -365.2269
 193  83.61616
 194  349.6225
 195  458.9948
 196  1089.329
 197  783.4265
 198  585.1369
 199  767.9897
 200  411.7166
 201  -91.57785
 202  279.7617
 203  993.7031
 204  858.4412
 205  240.5903
 206  132.843
 207  266.856
 208  344.1438
 209  541.7252
 210  702.7966
 211  441.9785
 212  213.2142
 213  173.496
 214  -250.4424
 215  -358.9683
 216  -52.13786
 217  312.4816
 218  516.903
 219  345.0489
 220  265.8796
 221  391.555
 222  239.8664
 223  -30.72672
 224  335.5967
 225  884.3989
 226  850.6085
 227  726.3391
 228  683.7456
 229  295.6561
 230  147.9211
 231  320.9663
 232  396.2014
 233  319.6501
 234  -66.56645
 235  30.15612
 236  -157.4483
 237  -181.3331
 238  279.2242
 239  167.7862
 240  270.8863
 241  247.0636
 242  115.9317
 243  223.2582
 244  -106.2576
 245  65.63886
 246  376.0612
 247  305.4082
 248  759.7833
 249  671.799
 250  795.3781
 251  487.9782
 252  448.7099
 253  71.94511
 254  0.8962445
 255  -21.36156
 256  -46.68077
 257  130.7661
 258  140.0948
 259  322.3684
 260  335.0171
 261  -4.546097
 262  -441.6068
 263  -495.559
 264  -394.6823
 265  -383.317
 266  -481.5845
 267  -439.3439
 268  -641.4656
 269  -333.8708
 270  133.4163
 271  165.4258
 272  -14.32919
 273  386.3136
 274  827.0359
 275  1410.268
 276  1586.143
 277  1791.307
 278  1463.613
 279  628.8646
 280  -130.8686
 281  -163.74
 282  294.4962
 283  247.3644
 284  65.31929
 285  444.3495
 286  215.9163
 287  286.6617
 288  136.9183
 289  15.03288
 290  -105.7831
 291  -120.5674
 292  272.7998
 293  -34.54116
 294  186.0842
 295  -435.7525
 296  -296.3764
 297  -304.6821
 298  -666.9826
 299  -864.5682
 300  -744.0863
 301  -356.6725
 302  -51.73327
 303  -22.08247
 304  -118.8693
 305  -203.1453
 306  -88.79846
 307  -4.92258
 308  -33.87423
 309  46.07972
 310  -138.997
 311  -97.10912
 312  151.7499
 313  235.8278
 314  -374.8203
 315  -686.6202
 316  -916.2508
 317  -666.5849
 318  -297.4576
 319  -114.8292
 320  136.062
 321  335.209
 322  -441.4019
 323  -85.40676
 324  281.9002
 325  894.3148
 326  1452.354
 327  1456.392
 328  1485.931
 329  90.56931
 330  -141.5706
 331  305.5872
 332  1256.132
 333  1622.873
 334  1504.978
 335  121.9068
 336  -242.8261
 337  -285.1263
 338  -116.2723
 339  -632.0293
 340  -690.3214
 341  -319.2535
 342  -224.3936
 343  -466.3561
 344  3.16243
 345  868.3931
 346  546.1221
 347  545.1564
 348  258.5405
 349  313.0534
 350  -4.008035
 351  -157.9148
 352  485.1976
 353  290.3667
 354  111.202
 355  -30.60813
 356  -377.0643
 357  -458.1486
 358  -34.06765
 359  70.0005
 360  -526.6157
 361  -528.8207
 362  -67.57344
 363  234.2577
 364  -725.7261
 365  -522.0287
 366  -218.3259
 367  -414.3665
 368  -393.8844
 369  -511.885
 370  -462.9196
 371  -859.7399
 372  -495.8497
 373  17.19265
 374  35.08437
 375  -194.165
 376  -759.5532
 377  -428.4438
 378  -433.6758
 379  -338.7115
 380  -412.1351
 381  -339.0327
 382  -271.5029
 383  -515.911
 384  -726.7944
 385  -558.5224
 386  -169.1218
 387  -330.9394
 388  -220.0741
 389  -193.2223
 390  -497.3728
 391  -234.7602
 392  -413.0897
 393  -612.4221
 394  -178.2399
 395  89.77911
 396  -30.14486
 397  -187.2304
 398  -416.1226
 399  -665.9849
 400  -449.7434
 401  68.7003
 402  479.9388
 403  467.0576
 404  313.614
 405  -350.1281
 406  -674.8926
 407  -602.4488
 408  -14.71828
 409  171.9784
 410  308.1276
 411  624.3855
 412  173.6712
 413  -414.3792
 414  -763.2828
 415  -222.2751
 416  -191.4237
 417  -352.2743
 418  -228.8204
 419  -206.9554
 420  -353.8729
 421  -364.0561
 422  -616.2249
 423  -738.9293
 424  -589.4048
 425  -557.0025
 426  -293.1111
 427  -286.7587
 428  -375.2728
 429  -721.8275
 430  -741.8871
 431  -682.4858
 432  -645.49
 433  -329.1826
 434  -361.7477
 435  -518.7386
 436  -302.3434
 437  -294.2661
 438  -639.2755
 439  -200.8927
 440  -32.15292
 441  -640.295
 442  -713.173
 443  -146.5324
 444  554.4149
 445  251.2747
 446  688.5947
 447  499.2384
 448  -97.14805
 449  -400.4041
 450  -44.41813
 451  61.07568
 452  -67.38743
 453  -243.1853
 454  -411.2021
 455  -144.819
 456  -130.8467
 457  -539.1803
 458  -406.7479
 459  -190.9579
 460  129.5095
 461  -233.7639
 462  -158.489
 463  -194.4763
 464  -449.196
 465  -215.8353
 466  -473.3996
 467  -751.4581
 468  -628.9786
 469  -811.1466
 470  -654.8897
 471  -967.559
 472  -485.6009
 473  -192.4009
 474  -457.0199
 475  -862.1591
 476  -502.6925
 477  -62.76911
 478  102.685
 479  112.0396
 480  -79.32774
 481  -255.4615
 482  440.4072
 483  379.3262
 484  -99.82351
 485  206.7112
 486  147.8935
 487  -12.85567
 488  -271.7748
 489  -345.5552
 490  -393.3828
 491  -37.5601
 492  -108.6382
 493  -50.76855
 494  164.2572
 495  153.7444
 496  -432.9135
 497  -532.3225
 498  -182.9347
 499  -427.4911
 500  -670.3837
 501  -567.3536
 502  -211.0551
 503  -260.7082
 504  -610.33
 505  -456.1205
 506  -547.8059
 507  -417.0481
 508  -409.7454
 509  -592.4212
 510  -809.554
 511  -870.2606
