# Input file       =  1201878730.107112_cleaned.dat
# Candidate        =  PSR_0332+5434
# Telescope        =  AR
# Epoch_topo       =  58154.633670221199
# Epoch_bary       =  N/A
# T_sample         =  0.002
# Data Folded      =  7340032
# Data Avg         =  0.0294122413134948
# Data StdDev      =  1.0000780618118  
# Profile Bins     =  512
# Profile Avg      =  421.676379880742 
# Profile StdDev   =  119.742382954518 
# Reduced chi-sqr  =  1.164
# Prob(Noise)      <  0.00604   (~2.5 sigma)
# P_topo (ms)      =  714.57764420298   +/- 0.000338
# P'_topo (s/s)    =  -0                +/- 1.79e-10
# P''_topo (s/s^2) =  0                 +/- 7.88e-14
# P_bary (ms)      =  N/A
# P'_bary (s/s)    =  N/A
# P''_bary (s/s^2) =  N/A
# P_orb (s)        =  N/A
# asin(i)/c (s)    =  N/A
# eccentricity     =  N/A
# w (rad)          =  N/A
# T_peri           =  N/A
######################################################
   0  887.3616
   1  963.6257
   2  978.3174
   3  649.0513
   4  512.2209
   5  401.1602
   6  451.9259
   7  449.4476
   8  374.2468
   9  430.3394
  10  397.71
  11  424.0421
  12  377.2051
  13  427.1804
  14  449.862
  15  347.9972
  16  396.5537
  17  289.6625
  18  392.765
  19  351.6027
  20  376.2688
  21  471.6878
  22  458.2238
  23  444.1892
  24  545.8314
  25  487.6701
  26  420.8795
  27  413.7029
  28  533.3416
  29  465.5219
  30  327.1702
  31  329.5704
  32  412.2621
  33  403.3021
  34  405.0849
  35  413.1186
  36  505.0867
  37  389.1943
  38  355.1176
  39  311.7018
  40  360.194
  41  477.1232
  42  435.4508
  43  528.6756
  44  447.5121
  45  375.0898
  46  469.346
  47  384.5989
  48  604.8549
  49  574.791
  50  480.8402
  51  439.929
  52  452.6336
  53  492.3367
  54  485.6634
  55  452.5515
  56  400.9574
  57  554.9727
  58  467.6961
  59  499.9952
  60  436.0646
  61  387.644
  62  444.9086
  63  521.0675
  64  559.1327
  65  380.5644
  66  407.0793
  67  448.5212
  68  366.4839
  69  394.7944
  70  377.6834
  71  488.6694
  72  411.5786
  73  457.7399
  74  412.679
  75  422.9554
  76  383.8017
  77  595.2464
  78  646.3939
  79  486.9938
  80  343.3932
  81  363.6782
  82  432.4176
  83  406.9619
  84  487.4196
  85  500.3164
  86  507.6036
  87  422.348
  88  462.9857
  89  541.1883
  90  520.6185
  91  459.0208
  92  421.5355
  93  487.2849
  94  442.4505
  95  478.1779
  96  419.1519
  97  476.855
  98  606.0446
  99  433.161
 100  416.5522
 101  553.8163
 102  454.8662
 103  409.476
 104  382.6569
 105  417.3767
 106  508.1672
 107  514.4679
 108  392.6255
 109  430.7383
 110  442.1554
 111  578.1
 112  513.5965
 113  460.7744
 114  380.6866
 115  427.9303
 116  514.01
 117  417.5663
 118  380.4384
 119  477.9622
 120  501.1119
 121  533.777
 122  564.4844
 123  515.561
 124  538.5775
 125  400.0721
 126  401.2064
 127  529.1546
 128  430.584
 129  528.5903
 130  485.2137
 131  473.1435
 132  489.7816
 133  425.4053
 134  491.8121
 135  483.7404
 136  469.6979
 137  558.8938
 138  584.6427
 139  616.9486
 140  532.6143
 141  436.5579
 142  441.2567
 143  493.3194
 144  509.3087
 145  501.2184
 146  542.3135
 147  533.6028
 148  471.3123
 149  529.774
 150  531.5554
 151  459.492
 152  379.4385
 153  438.4225
 154  468.3681
 155  357.3626
 156  323.9035
 157  551.1676
 158  437.9047
 159  451.4821
 160  393.2068
 161  432.9348
 162  527.4973
 163  570.1216
 164  626.7425
 165  435.9864
 166  433.5266
 167  442.5783
 168  364.8088
 169  402.571
 170  398.4842
 171  265.6894
 172  295.032
 173  389.059
 174  350.2977
 175  359.5809
 176  402.9951
 177  543.5095
 178  481.242
 179  371.0415
 180  401.2549
 181  353.1106
 182  450.5455
 183  494.8987
 184  406.2183
 185  414.9222
 186  404.6062
 187  271.0925
 188  354.5444
 189  289.4956
 190  381.074
 191  361.2711
 192  353.1
 193  301.5447
 194  294.0849
 195  427.0611
 196  491.5165
 197  428.1232
 198  370.9373
 199  513.0241
 200  539.3853
 201  457.7892
 202  452.5858
 203  459.2682
 204  498.56
 205  435.5187
 206  494.7456
 207  495.6029
 208  443.7728
 209  437.2793
 210  492.2802
 211  457.6812
 212  420.8777
 213  493.288
 214  419.2678
 215  427.2439
 216  382.586
 217  317.2398
 218  321.9906
 219  327.8099
 220  318.8178
 221  454.1982
 222  449.3646
 223  519.7259
 224  471.86
 225  573.1216
 226  485.9665
 227  464.4642
 228  317.6674
 229  410.8851
 230  400.5873
 231  386.2486
 232  373.7822
 233  427.6761
 234  408.7833
 235  437.8268
 236  453.5317
 237  340.7483
 238  366.9549
 239  320.8604
 240  347.1893
 241  347.5489
 242  291.8165
 243  409.1506
 244  338.7996
 245  337.4419
 246  340.5131
 247  311.7913
 248  354.7743
 249  345.9167
 250  279.2518
 251  268.3233
 252  361.2982
 253  383.9989
 254  351.2799
 255  317.8322
 256  376.0526
 257  350.1758
 258  400.9892
 259  400.3387
 260  246.167
 261  334.1145
 262  396.0359
 263  329.0384
 264  294.6159
 265  307.7827
 266  305.1848
 267  396.241
 268  357.8842
 269  349.4789
 270  178.8177
 271  121.88
 272  378.205
 273  405.0942
 274  377.4564
 275  334.9306
 276  214.6066
 277  208.0739
 278  319.7452
 279  340.6667
 280  332.3314
 281  391.0943
 282  452.3993
 283  546.4995
 284  418.7046
 285  364.9974
 286  339.906
 287  381.6308
 288  444.0934
 289  379.0077
 290  333.5601
 291  404.1975
 292  333.6855
 293  340.5
 294  423.3265
 295  394.0385
 296  394.8688
 297  349.9117
 298  455.9397
 299  461.6984
 300  353.1648
 301  422.1011
 302  465.8829
 303  336.3069
 304  369.1232
 305  425.4011
 306  409.7111
 307  278.6035
 308  183.7535
 309  396.2278
 310  362.071
 311  345.6624
 312  379.7756
 313  392.7676
 314  391.3139
 315  447.5806
 316  424.71
 317  478.2371
 318  377.86
 319  405.4536
 320  476.8784
 321  477.2621
 322  416.8386
 323  433.6053
 324  452.4938
 325  429.0646
 326  341.454
 327  485.3116
 328  528.1453
 329  444.4572
 330  449.9799
 331  388.1804
 332  431.6023
 333  496.1547
 334  531.8924
 335  553.7021
 336  559.3427
 337  445.3248
 338  475.4747
 339  426.5455
 340  517.614
 341  513.0377
 342  521.7956
 343  460.1404
 344  456.505
 345  386.8854
 346  281.7794
 347  347.4109
 348  454.356
 349  400.5475
 350  252.5738
 351  367.1468
 352  502.5959
 353  414.1821
 354  435.8673
 355  325.1438
 356  302.4797
 357  294.518
 358  384.3813
 359  464.7711
 360  375.9791
 361  270.4623
 362  292.4396
 363  414.645
 364  473.3449
 365  432.1531
 366  432.1145
 367  460.9114
 368  428.5448
 369  437.62
 370  348.2826
 371  410.0976
 372  434.4128
 373  431.7593
 374  403.1747
 375  480.0978
 376  467.6623
 377  355.1003
 378  260.7949
 379  336.9814
 380  420.3514
 381  364.2243
 382  197.1143
 383  233.9899
 384  388.1829
 385  373.9584
 386  392.6551
 387  324.4661
 388  498.985
 389  409.2913
 390  245.4019
 391  315.9503
 392  386.9184
 393  439.7408
 394  515.7615
 395  485.4647
 396  379.2133
 397  283.0006
 398  358.7057
 399  459.277
 400  355.9612
 401  337.7325
 402  483.0435
 403  554.9149
 404  417.0431
 405  444.1213
 406  509.9673
 407  415.5056
 408  504.5195
 409  476.2518
 410  467.8201
 411  419.8279
 412  415.2964
 413  442.6134
 414  356.5968
 415  407.0835
 416  347.9323
 417  516.1061
 418  374.5638
 419  337.7767
 420  326.6097
 421  333.3997
 422  402.4716
 423  375.7615
 424  345.2603
 425  350.5476
 426  496.1901
 427  332.1828
 428  359.2745
 429  416.7899
 430  309.0304
 431  253.9128
 432  233.1162
 433  303.7567
 434  357.3719
 435  451.1649
 436  379.9891
 437  336.9906
 438  376.6902
 439  410.4382
 440  392.1965
 441  333.2339
 442  354.6439
 443  314.0688
 444  369.5771
 445  556.802
 446  420.1244
 447  520.6959
 448  497.0009
 449  405.2668
 450  424.2132
 451  459.5495
 452  455.6111
 453  360.963
 454  350.9981
 455  476.9838
 456  364.2455
 457  250.1724
 458  284.4903
 459  367.0556
 460  372.9694
 461  264.7787
 462  292.1241
 463  446.5963
 464  513.8229
 465  454.1721
 466  403.1772
 467  374.2591
 468  367.3532
 469  482.0788
 470  335.9701
 471  309.7503
 472  329.2169
 473  417.3174
 474  503.3428
 475  350.847
 476  309.1103
 477  465.5951
 478  533.4362
 479  449.4859
 480  486.1017
 481  518.3089
 482  452.2692
 483  436.9648
 484  419.0006
 485  345.7125
 486  333.9146
 487  319.9304
 488  358.5463
 489  421.4673
 490  462.0634
 491  422.2919
 492  490.3926
 493  402.3528
 494  427.2299
 495  441.0255
 496  498.1798
 497  395.7242
 498  258.326
 499  295.29
 500  458.3978
 501  514.1417
 502  391.3633
 503  401.3835
 504  405.9504
 505  463.0311
 506  467.8378
 507  503.5
 508  607.9144
 509  748.3653
 510  796.5765
 511  897.6119
