# Input file       =  1201031938.106413-PSRB0329-2ms-sampling-dd.dat
# Candidate        =  PSR_0332+5434
# Telescope        =  AR
# Epoch_topo       =  58144.832836879781
# Epoch_bary       =  N/A
# T_sample         =  0.002
# Data Folded      =  7340032
# Data Avg         =  1.65512305521784e-09
# Data StdDev      =  105.196299632137 
# Profile Bins     =  512
# Profile Avg      =  0.00340575877832473
# Profile StdDev   =  12595.4723705558 
# Reduced chi-sqr  =  1.165
# Prob(Noise)      <  0.00578   (~2.5 sigma)
# P_topo (ms)      =  714.573921290458  +/- 0.000281
# P'_topo (s/s)    =  -0                +/- 1.48e-10
# P''_topo (s/s^2) =  0                 +/- 6.54e-14
# P_bary (ms)      =  N/A
# P'_bary (s/s)    =  N/A
# P''_bary (s/s^2) =  N/A
# P_orb (s)        =  N/A
# asin(i)/c (s)    =  N/A
# eccentricity     =  N/A
# w (rad)          =  N/A
# T_peri           =  N/A
######################################################
   0  3018.612
   1  11083.78
   2  12685.59
   3  17455.3
   4  19838.01
   5  -2155.102
   6  3025.079
   7  12036.17
   8  35637.95
   9  38922.56
  10  34720.52
  11  25508.22
  12  -2502.154
  13  -4138.514
  14  -2559.067
  15  -4542.937
  16  -3729.312
  17  -2538.954
  18  -4026.067
  19  -4245.708
  20  2867.56
  21  8647.322
  22  15929.43
  23  18826.9
  24  17683.34
  25  14531.82
  26  -5814.502
  27  15096.13
  28  28765.35
  29  41117.2
  30  41586.97
  31  30019.09
  32  14211.85
  33  -4308.131
  34  -3617.51
  35  -3088.21
  36  -4826.924
  37  -3533.198
  38  -3705.549
  39  -4471.664
  40  -4269.934
  41  -4202.465
  42  -4201.429
  43  -3959.111
  44  -3595.317
  45  -3825.577
  46  -3741.077
  47  -4048.88
  48  -4429.88
  49  -4594.324
  50  -4102.736
  51  -3685.758
  52  -3542.006
  53  -3795.863
  54  -3567.352
  55  -3918.399
  56  -4123.052
  57  -4115.129
  58  -4174.121
  59  -3504.667
  60  -3543.221
  61  -3465.147
  62  -3927.549
  63  -4228.669
  64  -4316.842
  65  -3039.446
  66  -1962.929
  67  -1167.76
  68  -606.6998
  69  -1427.941
  70  -2256.24
  71  -3691.399
  72  -428.2699
  73  1070.249
  74  2052.329
  75  3692.62
  76  2103.302
  77  561.804
  78  -611.5176
  79  -1354.987
  80  -1680.568
  81  -2462.415
  82  -938.7651
  83  747.925
  84  2263.134
  85  1255.084
  86  -1047.618
  87  -3357.765
  88  -3597.432
  89  -3478.034
  90  -3384.624
  91  -2748.661
  92  -3260.464
  93  -3583.857
  94  -2899.269
  95  -3863.797
  96  -3059.603
  97  -1531.866
  98  -2689.914
  99  -1420.77
 100  -576.0944
 101  -4328.224
 102  9093.749
 103  21031.48
 104  32889.12
 105  40045.41
 106  37460.87
 107  23676.4
 108  -497.2459
 109  20041.75
 110  53074.49
 111  70734.21
 112  68294
 113  60108.21
 114  11185.38
 115  -674.1375
 116  -4035.493
 117  -1650.661
 118  -2967.822
 119  -3024.158
 120  -2761.033
 121  -3565.862
 122  -2882.802
 123  -2097.988
 124  -2506.948
 125  -1922.78
 126  -1794.449
 127  -3421.382
 128  -1084.999
 129  -699.4795
 130  -411.9149
 131  2902.663
 132  2737.719
 133  2594.274
 134  730.2376
 135  -1482.877
 136  -2797.865
 137  -3789.478
 138  -3488.581
 139  -3658.493
 140  -3595.013
 141  -3513.163
 142  -3399.124
 143  -3347.547
 144  -3300.96
 145  -3315.341
 146  -3309.412
 147  -3632.956
 148  -3679.101
 149  -3822
 150  -3820.297
 151  -3691.603
 152  -3700.077
 153  -3862.544
 154  -3583.513
 155  -3097.409
 156  -3017.852
 157  -2817.427
 158  -2894.09
 159  -3228.412
 160  -3388.182
 161  -3079.908
 162  -3271.674
 163  -3276.742
 164  -3097.121
 165  -2995.553
 166  -3468.261
 167  -3388.752
 168  -3726.639
 169  -3764.942
 170  -3479.661
 171  -3260.935
 172  -3169.318
 173  -3145.703
 174  -3059.101
 175  -3258.116
 176  -3496.198
 177  -3543.512
 178  -3469.561
 179  -3570.159
 180  -3289.107
 181  -3740.396
 182  -3564.295
 183  -3863.088
 184  -3650.929
 185  -3363.77
 186  -3114.358
 187  -3142.382
 188  -3358.468
 189  -3098.55
 190  -3177.643
 191  -3487.667
 192  -3851.42
 193  -3590.439
 194  -2816.644
 195  -2547.54
 196  -2651.735
 197  -2487.146
 198  -2457.766
 199  -2398.652
 200  -2392.318
 201  -2469.872
 202  -2186.252
 203  -2662.031
 204  -2837.329
 205  -3323.858
 206  -3674.163
 207  -3088.008
 208  -2622.984
 209  -2503.596
 210  -2804.495
 211  -2572.875
 212  -3015.044
 213  -3595.576
 214  -3860.12
 215  -3764.436
 216  -3468.154
 217  -3416.383
 218  -3801.507
 219  -3702.646
 220  -3691.002
 221  -3587.87
 222  -3530.68
 223  -3269.801
 224  -2744.803
 225  -3207.529
 226  -3222.124
 227  -3404.208
 228  -3582.845
 229  -2674.782
 230  -1837.378
 231  -1832.748
 232  -2723.196
 233  -3057.37
 234  -3297.231
 235  -3715.918
 236  -3608.645
 237  -3259.389
 238  -3308.219
 239  -3586.847
 240  -3827.441
 241  -3893.216
 242  -3767.233
 243  -4019.546
 244  -3983.583
 245  -4199.369
 246  -4019.094
 247  -3638.066
 248  -3848.915
 249  -3816.45
 250  -4191.047
 251  -4786.58
 252  -4950.899
 253  -4607.875
 254  -3821.391
 255  -3718.577
 256  -3303.202
 257  -3604.515
 258  -3365.011
 259  -4009.301
 260  -4669.694
 261  -3475.092
 262  -3715.144
 263  -4371.208
 264  -3367.03
 265  -4019.214
 266  -3096.499
 267  2543.579
 268  6614.829
 269  12496.51
 270  19901.05
 271  18804.74
 272  14572.62
 273  9980.871
 274  16491.77
 275  25317.02
 276  35568.42
 277  51706.49
 278  37766.8
 279  26400.65
 280  13821.54
 281  -2249.307
 282  -3791.498
 283  -4034.935
 284  -4940.114
 285  -4340.253
 286  -3356.324
 287  -3312.004
 288  -3208.549
 289  -3487.444
 290  -3558.168
 291  -3503.922
 292  -4190.049
 293  -4169.735
 294  -4023.074
 295  -3676.728
 296  -3310.33
 297  -3588.057
 298  -3474
 299  -3188.258
 300  -2158.406
 301  7429.036
 302  8246.328
 303  9503.721
 304  11816.92
 305  726.3105
 306  -1685.656
 307  3505.969
 308  19572.92
 309  23846.95
 310  26077.59
 311  15195.87
 312  4317.93
 313  -3986.403
 314  -1942.684
 315  -3444.918
 316  -3531.106
 317  -2514.365
 318  -2917.563
 319  -2070.972
 320  -1326.277
 321  -1764.016
 322  -1602.177
 323  -1915.271
 324  -2139.848
 325  -1149.325
 326  42.60769
 327  2026.882
 328  2814.908
 329  3322.481
 330  -38.54873
 331  -295.4094
 332  -787.9905
 333  -761.6475
 334  221.3083
 335  218.5035
 336  200.4152
 337  -1271.179
 338  -1916.702
 339  -2453.096
 340  -2902.896
 341  -2899.051
 342  -2638.867
 343  -2906.655
 344  -2985.985
 345  -3365.918
 346  -3062.563
 347  -3274.486
 348  -3450.551
 349  -3498.624
 350  -3568.371
 351  -3369.644
 352  -3138.292
 353  -3298.549
 354  -3624.169
 355  -3498.912
 356  -3695.534
 357  -3707.204
 358  -3609.649
 359  -3704.785
 360  -3427.588
 361  -3444.767
 362  -3417.36
 363  -3615.239
 364  -3485.808
 365  -3269.29
 366  -3280.204
 367  -3331.655
 368  -3424.469
 369  -3343.744
 370  -3246.477
 371  -3427.412
 372  -3340.625
 373  -3043.075
 374  -3084.623
 375  -3253.182
 376  -3645.261
 377  -3899.078
 378  -4273.48
 379  -3955.304
 380  -3970.578
 381  -3298.831
 382  -3267.199
 383  -3898.866
 384  -4354.708
 385  -4247.548
 386  -4767.978
 387  -4531.563
 388  -3917.082
 389  -3858.086
 390  -3911.176
 391  -4193.568
 392  -4311.219
 393  -4323.821
 394  -4608.397
 395  -3786.264
 396  -3886.718
 397  -3559.342
 398  -4015.401
 399  -3783.305
 400  -3718.666
 401  -3391.096
 402  -3385.626
 403  -3517.541
 404  -3705.684
 405  -3534.344
 406  -3213.918
 407  -3676.691
 408  -3866.038
 409  -3808.715
 410  -3765.662
 411  -3856.861
 412  -3943.34
 413  -3823.715
 414  -3707.641
 415  -3861.048
 416  -3807.828
 417  -3940.71
 418  -4592.134
 419  -4426.117
 420  -4420.889
 421  -4475.984
 422  -4212.869
 423  -3941.337
 424  -4348.52
 425  -4313.129
 426  -4388.953
 427  -4672.48
 428  -5008.905
 429  -4135.16
 430  -4153.435
 431  -4201.452
 432  -3709.281
 433  -3490.691
 434  -3296.439
 435  -3077.962
 436  -2848.266
 437  -2822.815
 438  -3849.587
 439  -3198.795
 440  -2826.232
 441  -2099.651
 442  -1361.369
 443  -920.5374
 444  62.46189
 445  -722.0791
 446  -1530.21
 447  -2779.597
 448  -4047.676
 449  -3237.332
 450  -2309.929
 451  44.31491
 452  -583.8918
 453  -1418.901
 454  -2274.7
 455  -2766.241
 456  -3070.685
 457  -3299.908
 458  -3850.612
 459  -3706.319
 460  -3929.306
 461  -4125.669
 462  -3929.889
 463  -4027.167
 464  -3902.354
 465  -3692.22
 466  -3323.264
 467  -3970.854
 468  -4028.959
 469  -4311.93
 470  -3852.874
 471  -3874.923
 472  -3898.658
 473  -3691.9
 474  -3455.278
 475  -3583.103
 476  -4176.287
 477  -4586.019
 478  -4433.454
 479  -4317.444
 480  -3704.502
 481  -3082.633
 482  -2648.068
 483  -2779.979
 484  -1017.586
 485  -840.3765
 486  -1753.487
 487  -761.5245
 488  -1001.197
 489  69.56733
 490  412.5583
 491  4767.857
 492  4865.646
 493  5369.261
 494  4649.338
 495  795.2394
 496  -2470.375
 497  -4315.717
 498  -3649.165
 499  -3570.202
 500  -3734.233
 501  -3538.171
 502  -3737.688
 503  -3209.572
 504  -3078.311
 505  -3013.287
 506  -3680.46
 507  -3792.651
 508  -3812.249
 509  -3634.231
 510  -3180.147
 511  -2123.637
