# Input file       =  1201863564.114864_cleaned.dat
# Candidate        =  PSR_0332+5434
# Telescope        =  AR
# Epoch_topo       =  58154.458137903523
# Epoch_bary       =  N/A
# T_sample         =  0.002
# Data Folded      =  7405568
# Data Avg         =  0.013253840047512
# Data StdDev      =  1.00032001391032 
# Profile Bins     =  512
# Profile Avg      =  191.703831581073 
# Profile StdDev   =  120.304857938655 
# Reduced chi-sqr  =  1.464
# Prob(Noise)      <  3.37e-11   (~6.5 sigma)
# P_topo (ms)      =  714.577556694807  +/- 9.94e-05
# P'_topo (s/s)    =  -0                +/- 5.2e-11
# P''_topo (s/s^2) =  0                 +/- 2.27e-14
# P_bary (ms)      =  N/A
# P'_bary (s/s)    =  N/A
# P''_bary (s/s^2) =  N/A
# P_orb (s)        =  N/A
# asin(i)/c (s)    =  N/A
# eccentricity     =  N/A
# w (rad)          =  N/A
# T_peri           =  N/A
######################################################
   0  1020.067
   1  879.6598
   2  612.3129
   3  355.7754
   4  189.9517
   5  257.3126
   6  250.412
   7  66.31217
   8  117.3124
   9  285.7906
  10  234.7701
  11  309.3006
  12  274.2554
  13  269.5007
  14  195.063
  15  202.968
  16  138.5408
  17  102.9606
  18  264.528
  19  328.1288
  20  234.4257
  21  51.41705
  22  42.99249
  23  110.2681
  24  29.45946
  25  138.2514
  26  256.5983
  27  171.6366
  28  172.7949
  29  166.9369
  30  42.70774
  31  24.77126
  32  37.60098
  33  142.034
  34  305.1131
  35  248.1439
  36  184.3242
  37  299.6037
  38  169.6146
  39  104.4102
  40  180.0927
  41  328.3694
  42  250.218
  43  186.7134
  44  156.7533
  45  159.1787
  46  161.411
  47  115.6405
  48  168.5412
  49  278.0475
  50  248.6155
  51  172.132
  52  347.0656
  53  315.5513
  54  233.7983
  55  150.8443
  56  139.0677
  57  265.0536
  58  202.7035
  59  208.6898
  60  256.9057
  61  89.81122
  62  113.3412
  63  128.0271
  64  155.7885
  65  274.1048
  66  290.8122
  67  223.6892
  68  232.0288
  69  255.9151
  70  250.0163
  71  251.6021
  72  121.2407
  73  89.00656
  74  45.25439
  75  179.2696
  76  264.7642
  77  257.0757
  78  157.2771
  79  120.5095
  80  193.7773
  81  215.1812
  82  191.1806
  83  179.4735
  84  245.7146
  85  300.9514
  86  128.012
  87  103.3952
  88  133.3009
  89  189.7661
  90  357.1121
  91  302.0822
  92  183.7588
  93  165.9206
  94  229.7096
  95  60.17495
  96  -3.846828
  97  75.6153
  98  141.1499
  99  170.2637
 100  153.8541
 101  264.0912
 102  177.6941
 103  168.6552
 104  201.6125
 105  231.5429
 106  240.126
 107  245.6473
 108  255.2725
 109  160.1156
 110  122.1174
 111  237.2125
 112  239.9398
 113  2.832964
 114  57.89463
 115  141.9628
 116  183.4094
 117  327.0008
 118  349.8501
 119  290.3801
 120  200.3501
 121  185.3805
 122  319.7309
 123  148.8065
 124  23.36124
 125  205.8088
 126  140.6409
 127  133.8692
 128  136.2234
 129  -15.03843
 130  19.24597
 131  8.883976
 132  266.8324
 133  272.9214
 134  171.1221
 135  228.7162
 136  249.3792
 137  181.2874
 138  281.4944
 139  323.4874
 140  237.722
 141  198.6834
 142  166.2999
 143  127.6183
 144  -13.24177
 145  60.86457
 146  83.80704
 147  3.754261
 148  53.91746
 149  292.7108
 150  399.9405
 151  241.2648
 152  166.9778
 153  181.913
 154  179.2026
 155  110.8373
 156  128.3387
 157  171.1241
 158  172.2211
 159  134.6474
 160  81.5801
 161  132.9593
 162  149.9298
 163  217.4592
 164  67.63048
 165  150.1009
 166  237.2433
 167  260.8298
 168  126.0094
 169  57.55085
 170  -93.65645
 171  -11.14802
 172  52.92911
 173  53.90505
 174  145.5011
 175  116.3796
 176  102.7469
 177  133.5591
 178  198.8663
 179  131.4219
 180  80.0999
 181  206.1581
 182  290.7154
 183  219.4817
 184  143.1842
 185  115.6663
 186  210.706
 187  186.6486
 188  136.8775
 189  19.03582
 190  26.42842
 191  127.1162
 192  216.8074
 193  209.1405
 194  269.0478
 195  249.5862
 196  179.5939
 197  151.6746
 198  246.6862
 199  219.819
 200  272.9553
 201  265.1115
 202  128.8888
 203  45.13447
 204  192.6135
 205  256.0088
 206  42.39085
 207  127.7714
 208  95.56136
 209  72.1275
 210  42.02747
 211  34.3391
 212  138.6145
 213  86.56127
 214  94.16138
 215  198.8707
 216  216.336
 217  193.6183
 218  181.0004
 219  9.395207
 220  191.3142
 221  227.5443
 222  117.065
 223  139.282
 224  183.8493
 225  175.318
 226  162.4225
 227  83.5342
 228  164.5926
 229  136.8169
 230  147.7962
 231  267.4011
 232  215.5359
 233  235.5793
 234  181.6374
 235  128.4415
 236  34.70504
 237  -27.02699
 238  109.906
 239  120.2659
 240  178.745
 241  132.161
 242  162.7603
 243  123.8039
 244  114.6023
 245  177.0032
 246  348.4362
 247  249.6368
 248  288.7125
 249  257.4576
 250  137.7533
 251  159.2976
 252  271.7798
 253  205.7864
 254  180.9017
 255  206.7986
 256  175.957
 257  226.9592
 258  159.1907
 259  230.8557
 260  268.6915
 261  136.8885
 262  184.5852
 263  328.4703
 264  412.4913
 265  340.1627
 266  317.5674
 267  226.8266
 268  263.5408
 269  218.2139
 270  179.5116
 271  146.4578
 272  232.4254
 273  288.0862
 274  194.5219
 275  269.4088
 276  228.7267
 277  122.8158
 278  178.8631
 279  311.5122
 280  203.1663
 281  244.6029
 282  326.9189
 283  327.6924
 284  196.4473
 285  148.6473
 286  208.5182
 287  171.8255
 288  141.4535
 289  189.8951
 290  127.6671
 291  52.12423
 292  57.80882
 293  103.9588
 294  25.77093
 295  18.90579
 296  158.6352
 297  158.1966
 298  174.3828
 299  201.1702
 300  247.9057
 301  190.0011
 302  151.3652
 303  204.2236
 304  179.5504
 305  137.4389
 306  195.1205
 307  138.7682
 308  124.4932
 309  276.6555
 310  240.6658
 311  226.035
 312  189.7827
 313  251.1318
 314  355.1404
 315  256.4505
 316  172.1665
 317  109.4843
 318  137.6993
 319  175.739
 320  180.2128
 321  264.2357
 322  63.80345
 323  128.4536
 324  215.2483
 325  84.18279
 326  115.9774
 327  177.3107
 328  155.8158
 329  253.4008
 330  250.7338
 331  101.2464
 332  213.403
 333  348.0866
 334  286.6073
 335  217.4673
 336  267.9925
 337  180.5271
 338  250.1154
 339  232.022
 340  173.5363
 341  184.3041
 342  233.3357
 343  199.1913
 344  153.2712
 345  95.16134
 346  169.4042
 347  126.3351
 348  217.3153
 349  403.9106
 350  380.916
 351  221.5972
 352  167.1691
 353  166.2682
 354  184.544
 355  256.4627
 356  190.2625
 357  255.4689
 358  278.0361
 359  249.7518
 360  250.0114
 361  144.5495
 362  150.5939
 363  246.7693
 364  397.1723
 365  299.1816
 366  254.7001
 367  165.522
 368  -58.73161
 369  42.96603
 370  212.5498
 371  195.5795
 372  248.5196
 373  244.9692
 374  263.8466
 375  194.9591
 376  195.4554
 377  77.93196
 378  209.9529
 379  235.1522
 380  195.209
 381  328.0552
 382  364.1246
 383  320.5754
 384  236.6068
 385  120.4474
 386  84.61237
 387  93.5308
 388  167.2002
 389  264.6497
 390  106.4637
 391  126.5839
 392  107.0644
 393  104.6057
 394  148.1771
 395  208.7274
 396  150.2104
 397  217.1931
 398  196.6231
 399  137.9387
 400  98.98403
 401  183.7596
 402  257.263
 403  243.8172
 404  339.8729
 405  436.4061
 406  200.8814
 407  245.0954
 408  186.0147
 409  157.7917
 410  27.15186
 411  55.28101
 412  112.3259
 413  181.3193
 414  263.9056
 415  224.5641
 416  151.772
 417  186.4541
 418  201.0689
 419  315.9724
 420  244.2698
 421  299.7054
 422  214.2081
 423  142.7107
 424  196.4647
 425  92.35029
 426  233.8001
 427  72.22585
 428  134.1083
 429  223.138
 430  278.2727
 431  259.5443
 432  329.4165
 433  396.9484
 434  251.1146
 435  141.4002
 436  225.6768
 437  254.1626
 438  140.3548
 439  97.1585
 440  166.2046
 441  50.35543
 442  101.17
 443  155.8753
 444  189.9504
 445  256.0856
 446  180.8108
 447  265.4545
 448  273.9208
 449  205.6106
 450  214.0394
 451  167.7368
 452  156.5854
 453  267.6201
 454  197.88
 455  245.2647
 456  227.0835
 457  86.85884
 458  227.7088
 459  266.3521
 460  140.4006
 461  136.5237
 462  182.3335
 463  208.6677
 464  117.4093
 465  330.6235
 466  357.6945
 467  202.8328
 468  78.19189
 469  201.7214
 470  102.3394
 471  41.25713
 472  200.1546
 473  179.9808
 474  231.8288
 475  174.9398
 476  101.7853
 477  68.98034
 478  152.0974
 479  104.1563
 480  215.0425
 481  177.892
 482  110.5416
 483  49.83622
 484  55.13359
 485  104.715
 486  66.8437
 487  187.5385
 488  185.7795
 489  186.2781
 490  111.5059
 491  104.0445
 492  131.5899
 493  185.6939
 494  248.1636
 495  220.8952
 496  291.8726
 497  276.4451
 498  272.6634
 499  343.1322
 500  304.0632
 501  195.285
 502  273.7127
 503  122.2997
 504  100.5766
 505  255.2347
 506  308.1533
 507  228.3615
 508  341.3223
 509  462.1147
 510  627.1036
 511  902.2979
