# Input file       =  1201274952.113662-PSRB0329-2ms-sampling-dd.dat
# Candidate        =  PSR_0332+5434
# Telescope        =  AR
# Epoch_topo       =  58147.645499000719
# Epoch_bary       =  N/A
# T_sample         =  0.002
# Data Folded      =  7340032
# Data Avg         =  -2.50002324822776e-09
# Data StdDev      =  13.9475771610826 
# Profile Bins     =  512
# Profile Avg      =  -1.57394263930887
# Profile StdDev   =  1669.98576359566 
# Reduced chi-sqr  =  1.159
# Prob(Noise)      <  0.00736   (~2.4 sigma)
# P_topo (ms)      =  714.574892224239  +/- 0.00118
# P'_topo (s/s)    =  -0                +/- 6.25e-10
# P''_topo (s/s^2) =  0                 +/- 2.76e-13
# P_bary (ms)      =  N/A
# P'_bary (s/s)    =  N/A
# P''_bary (s/s^2) =  N/A
# P_orb (s)        =  N/A
# asin(i)/c (s)    =  N/A
# eccentricity     =  N/A
# w (rad)          =  N/A
# T_peri           =  N/A
######################################################
   0  -505.9767
   1  -860.5949
   2  -453.4565
   3  38.24414
   4  445.0681
   5  198.2844
   6  -737.6479
   7  -664.8262
   8  -1291.969
   9  -1668.222
  10  -1625.829
  11  -1283.077
  12  -1218.559
  13  -1325.289
  14  -1345.506
  15  -1230.927
  16  -1177.242
  17  -1434.009
  18  -1466.492
  19  -1562.508
  20  -1455.551
  21  -1489.509
  22  -1339.211
  23  -1323.446
  24  -1306.952
  25  -1567.285
  26  -1768.568
  27  -1765.972
  28  -1158.705
  29  -938.8801
  30  -1254.933
  31  -1252.957
  32  -1059.274
  33  -1434.888
  34  -1527.074
  35  -1463.406
  36  -1069.191
  37  -883.9666
  38  -970.3856
  39  -1179.035
  40  -1144.689
  41  -1112.135
  42  -982.0828
  43  -380.0676
  44  -371.0934
  45  -179.9853
  46  -356.5287
  47  -178.0202
  48  -568.8763
  49  -242.9064
  50  80.9499
  51  -126.9857
  52  228.2379
  53  -98.43768
  54  -701.5554
  55  -1363.228
  56  -875.4849
  57  -757.2278
  58  -1202.595
  59  -980.1847
  60  -694.9572
  61  -745.6339
  62  -1124.578
  63  -912.752
  64  -890.6614
  65  -789.8173
  66  -996.399
  67  -566.891
  68  315.5832
  69  631.0836
  70  1111.598
  71  1031.625
  72  449.3312
  73  -257.7027
  74  -690.0778
  75  -1046.42
  76  -1256.129
  77  -1283.134
  78  -1096.464
  79  -619.4927
  80  -562.8174
  81  -769.0784
  82  -729.4833
  83  -531.1349
  84  -413.8797
  85  -513.0256
  86  -757.483
  87  -827.0555
  88  -726.1064
  89  -745.2194
  90  -476.3303
  91  -883.2446
  92  -1190.824
  93  -1076.382
  94  -987.6466
  95  -1129.036
  96  -1079.292
  97  -970.8958
  98  -813.5087
  99  -1008.095
 100  -1011.991
 101  -922.1136
 102  -739.7465
 103  -765.2651
 104  -654.1573
 105  -805.3468
 106  -895.1375
 107  -760.369
 108  -419.0104
 109  -315.1003
 110  -265.6278
 111  -257.3598
 112  -733.1612
 113  -1118.854
 114  -1013.258
 115  -621.5529
 116  -478.0738
 117  -152.3694
 118  -118.3099
 119  289.2119
 120  124.9117
 121  2668.3
 122  3401.222
 123  3647.542
 124  3676.293
 125  1937.025
 126  802.8443
 127  322.0802
 128  2334.541
 129  2585.064
 130  1723.017
 131  1087.113
 132  530.3268
 133  185.7737
 134  849.9993
 135  1684.127
 136  2201.984
 137  2903.018
 138  1757.351
 139  1283.573
 140  303.4664
 141  459.3049
 142  1407.516
 143  2010.172
 144  2802.8
 145  2254.179
 146  2169.142
 147  2646.073
 148  2007.907
 149  1843.72
 150  1598.835
 151  2371.522
 152  2421.464
 153  2861.895
 154  2856.6
 155  2579.689
 156  2295.376
 157  1679.586
 158  1274.89
 159  929.9088
 160  905.128
 161  1156.183
 162  975.7043
 163  1016.48
 164  1339.235
 165  1889.585
 166  2323.463
 167  2418.8
 168  1294.831
 169  406.9816
 170  867.304
 171  1748.25
 172  1801.749
 173  2109.697
 174  1211.376
 175  750.5384
 176  705.1175
 177  383.9879
 178  1187.743
 179  1861.285
 180  2461.791
 181  2395.848
 182  1932.491
 183  1178.858
 184  92.02102
 185  909.6539
 186  1521.539
 187  1601.617
 188  2273.638
 189  2377.074
 190  2036.563
 191  1543.564
 192  1833.372
 193  1552.429
 194  2420.132
 195  3081.304
 196  3410.654
 197  2858.881
 198  2474.509
 199  2012.456
 200  2059.219
 201  1578.341
 202  2458.669
 203  3358.864
 204  3027.822
 205  2560.182
 206  2165.922
 207  2410.516
 208  4012.681
 209  5594.397
 210  6255.274
 211  5322.61
 212  3887.005
 213  1925.196
 214  2425.09
 215  3203.096
 216  3692.935
 217  3691.012
 218  3504.688
 219  3572.677
 220  2102.972
 221  1978.476
 222  2266.314
 223  3327.161
 224  3642.225
 225  2915.157
 226  2207.519
 227  735.4183
 228  951.8054
 229  1505.161
 230  2286.643
 231  1613.922
 232  1083.54
 233  679.1859
 234  127.5976
 235  79.66322
 236  -174.2748
 237  202.3372
 238  578.7249
 239  929.3983
 240  439.8688
 241  -557.6108
 242  -509.9978
 243  -795.8956
 244  -699.8167
 245  -730.8506
 246  -825.6829
 247  -685.7639
 248  -901.1871
 249  -753.2692
 250  -723.1967
 251  -199.5678
 252  -117.8157
 253  -299.3808
 254  -670.3171
 255  -447.9373
 256  -456.8952
 257  -277.7894
 258  -596.8967
 259  -1087.201
 260  -993.7598
 261  -1100.8
 262  -1237.178
 263  -1341.995
 264  -1169.908
 265  -909.6303
 266  -878.081
 267  -696.5292
 268  -267.6062
 269  -551.8124
 270  -883.0001
 271  -678.8352
 272  -276.3919
 273  -129.801
 274  349.6654
 275  359.8544
 276  368.8109
 277  -185.2762
 278  -155.7618
 279  -424.7715
 280  -480.7489
 281  -124.309
 282  -69.60161
 283  -19.11031
 284  -567.0328
 285  -843.8746
 286  -614.3525
 287  -793.1356
 288  -572.2961
 289  -701.043
 290  -982.8799
 291  -719.7773
 292  -545.6927
 293  -220.9343
 294  -28.66945
 295  -404.4694
 296  -394.7351
 297  -569.5464
 298  -762.1185
 299  -945.0187
 300  -1047.023
 301  -542.7745
 302  -431.9573
 303  -741.5738
 304  -1052.557
 305  -1072.193
 306  -794.5323
 307  -737.6335
 308  -819.6388
 309  -950.1422
 310  -458.0273
 311  -208.4492
 312  273.4539
 313  651.6003
 314  982.8101
 315  625.8045
 316  -567.6658
 317  -1147.608
 318  -35.26247
 319  701.2219
 320  1188.153
 321  1591.685
 322  919.7556
 323  443.545
 324  -513.7453
 325  -693.957
 326  -697.0818
 327  -147.7667
 328  357.8318
 329  289.4427
 330  -82.52302
 331  -580.8633
 332  -1255.579
 333  -948.4108
 334  -876.8405
 335  -705.9001
 336  -623.7876
 337  -603.1493
 338  -770.884
 339  -707.0833
 340  -996.9041
 341  -913.4803
 342  -415.6458
 343  -268.1756
 344  104.6436
 345  106.5219
 346  -135.0626
 347  -610.6071
 348  -601.3589
 349  -363.2053
 350  -407.4495
 351  -222.5629
 352  -139.9542
 353  -56.72839
 354  -28.66359
 355  12.03922
 356  222.0719
 357  396.2124
 358  835.8984
 359  699.8742
 360  -286.0158
 361  -104.2535
 362  -110.528
 363  300.8827
 364  375.3182
 365  268.5011
 366  211.1829
 367  -282.0978
 368  -613.3853
 369  -819.6275
 370  -1220.001
 371  -820.9242
 372  111.7247
 373  492.5333
 374  49.32722
 375  -202.1303
 376  -632.508
 377  -501.4348
 378  -246.3647
 379  -366.2598
 380  53.36073
 381  -150.1378
 382  -903.9881
 383  -964.6427
 384  -1262.608
 385  -883.9587
 386  -839.4896
 387  -722.722
 388  -416.3822
 389  -913.8054
 390  -617.4714
 391  -1016.754
 392  -1157.486
 393  -686.3533
 394  -776.3828
 395  -756.1094
 396  -788.3425
 397  -674.8416
 398  -684.2458
 399  -506.8791
 400  -662.3253
 401  -503.9218
 402  -384.0747
 403  -983.081
 404  -1024.27
 405  -858.8685
 406  -139.0981
 407  -359.8299
 408  -233.65
 409  -674.1936
 410  -1208.27
 411  -1085.624
 412  -1250.989
 413  -1111.711
 414  -1031.125
 415  -896.2077
 416  -841.0533
 417  -809.0124
 418  -890.3134
 419  -1066.516
 420  -1213.075
 421  -865.5034
 422  -773.4222
 423  -859.4567
 424  -988.0175
 425  -828.5317
 426  -762.7542
 427  -893.5637
 428  -946.4813
 429  -801.2643
 430  -802.2806
 431  -1098.242
 432  -1062.621
 433  -819.3936
 434  -859.8036
 435  -846.2933
 436  -631.7994
 437  -1110.262
 438  -1281.827
 439  -1125.176
 440  -1213.042
 441  -1481.478
 442  -1114.756
 443  -1202.102
 444  -1306.474
 445  -1277.723
 446  -1032.751
 447  -942.3461
 448  -1250.036
 449  -869.7912
 450  -540.6766
 451  -399.6721
 452  -355.2188
 453  -332.4518
 454  -332.1162
 455  -142.4763
 456  22.26632
 457  -52.51645
 458  118.5958
 459  137.6364
 460  -90.00254
 461  -207.986
 462  -160.1762
 463  -451.7656
 464  -604.9034
 465  -786.1751
 466  -743.5439
 467  -848.5727
 468  -635.9938
 469  -364.2377
 470  -537.1494
 471  -287.3483
 472  -471.3611
 473  -385.3826
 474  -347.4854
 475  118.3134
 476  -190.6188
 477  -623.4095
 478  -917.9993
 479  -908.0979
 480  -549.7635
 481  -726.9122
 482  -574.1582
 483  -225.7609
 484  -607.9402
 485  -406.5345
 486  -463.9911
 487  -415.5633
 488  -589.578
 489  -721.8106
 490  -533.4604
 491  -455.4722
 492  -481.1602
 493  -342.6749
 494  -505.3089
 495  -826.4924
 496  -1010.388
 497  -730.5383
 498  -839.4284
 499  -970.4051
 500  -892.9106
 501  -1254.034
 502  -1415.971
 503  -1006.589
 504  -827.3635
 505  -487.1549
 506  -672.031
 507  -360.0031
 508  -251.5677
 509  -35.90628
 510  -351.9338
 511  -456.1165
