# Input file       =  1201605060.106532_cleaned.dat
# Candidate        =  PSR_0332+5434
# Telescope        =  AR
# Epoch_topo       =  58151.466193362641
# Epoch_bary       =  N/A
# T_sample         =  0.002
# Data Folded      =  7208960
# Data Avg         =  0.0134828004867908
# Data StdDev      =  1.00000859055817 
# Profile Bins     =  512
# Profile Avg      =  189.915043746598 
# Profile StdDev   =  118.660195142083 
# Reduced chi-sqr  =  1.453
# Prob(Noise)      <  8.49e-11   (~6.4 sigma)
# P_topo (ms)      =  714.576469175683  +/- 0.000129
# P'_topo (s/s)    =  -0                +/- 6.9e-11
# P''_topo (s/s^2) =  0                 +/- 3.1e-14
# P_bary (ms)      =  N/A
# P'_bary (s/s)    =  N/A
# P''_bary (s/s^2) =  N/A
# P_orb (s)        =  N/A
# asin(i)/c (s)    =  N/A
# eccentricity     =  N/A
# w (rad)          =  N/A
# T_peri           =  N/A
######################################################
   0  156.6628
   1  100.7717
   2  136.4815
   3  191.8066
   4  343.5196
   5  212.7779
   6  172.5858
   7  195.4588
   8  108.2618
   9  133.5387
  10  191.6035
  11  177.1241
  12  227.5446
  13  304.0472
  14  296.3197
  15  241.7901
  16  143.6366
  17  253.5032
  18  252.3122
  19  119.3549
  20  176.1811
  21  169.0187
  22  181.487
  23  131.3487
  24  232.4447
  25  254.0394
  26  263.9271
  27  353.2155
  28  228.7877
  29  210.7329
  30  231.2458
  31  311.2716
  32  312.3228
  33  261.826
  34  210.7049
  35  234.0075
  36  268.6938
  37  182.3994
  38  212.1516
  39  226.5748
  40  235.1529
  41  213.3265
  42  306.8618
  43  212.091
  44  155.5705
  45  101.8286
  46  2.541599
  47  138.49
  48  233.1428
  49  275.6971
  50  222.5284
  51  338.3641
  52  373.121
  53  354.7925
  54  304.4606
  55  275.3292
  56  206.9258
  57  113.4844
  58  134.3515
  59  131.3751
  60  180.81
  61  277.2188
  62  244.7906
  63  278.0449
  64  208.6713
  65  67.57919
  66  84.22773
  67  143.5493
  68  275.0886
  69  294.5843
  70  255.9654
  71  317.5519
  72  320.4537
  73  306.9932
  74  188.0639
  75  268.6926
  76  192.6535
  77  251.3286
  78  334.2349
  79  194.8839
  80  65.25925
  81  123.8069
  82  170.6351
  83  81.32736
  84  189.8215
  85  278.7411
  86  132.7995
  87  204.4715
  88  249.0143
  89  219.9581
  90  143.3546
  91  161.2961
  92  199.3848
  93  198.5876
  94  217.0455
  95  70.80499
  96  128.9525
  97  249.6212
  98  213.873
  99  293.6346
 100  427.4326
 101  353.3896
 102  319.5269
 103  302.5237
 104  328.8996
 105  302.7405
 106  249.3589
 107  259.4319
 108  213.3247
 109  217.6487
 110  129.8427
 111  124.1633
 112  196.2692
 113  230.0845
 114  254.2796
 115  292.7353
 116  259.9919
 117  303.0217
 118  210.5507
 119  262.7558
 120  306.2084
 121  204.0396
 122  135.5365
 123  106.9241
 124  208.3652
 125  214.5385
 126  203.5603
 127  169.875
 128  223.9089
 129  219.2596
 130  186.4123
 131  68.7612
 132  76.36676
 133  259.0226
 134  237.1334
 135  292.0562
 136  232.0065
 137  138.9737
 138  60.41365
 139  134.9198
 140  38.02016
 141  27.74787
 142  112.5585
 143  161.0762
 144  68.06223
 145  166.8381
 146  169.013
 147  138.7542
 148  143.3108
 149  227.555
 150  327.5163
 151  375.7272
 152  361.6539
 153  280.6121
 154  213.8009
 155  133.6394
 156  25.88101
 157  37.26187
 158  313.0511
 159  237.4869
 160  137.1406
 161  198.3629
 162  292.3875
 163  126.5496
 164  148.8707
 165  9.432655
 166  138.1689
 167  266.8444
 168  188.5178
 169  127.6246
 170  95.39182
 171  105.6958
 172  44.19536
 173  109.8756
 174  241.1352
 175  192.602
 176  188.513
 177  221.2295
 178  250.3475
 179  307.8672
 180  187.9723
 181  166.5518
 182  167.7177
 183  288.7658
 184  233.1945
 185  78.92854
 186  31.97175
 187  133.1863
 188  175.8392
 189  260.8098
 190  209.7652
 191  107.3233
 192  161.5914
 193  219.4228
 194  179.0279
 195  114.2629
 196  183.2411
 197  290.5001
 198  234.3497
 199  205.8368
 200  223.2231
 201  17.19461
 202  129.5394
 203  238.8706
 204  69.65118
 205  166.2538
 206  108.0418
 207  190.4044
 208  260.465
 209  346.2295
 210  212.5645
 211  103.2909
 212  82.01228
 213  88.68594
 214  53.97333
 215  203.8516
 216  210.9732
 217  190.4498
 218  291.0805
 219  224.1251
 220  148.3685
 221  144.1411
 222  160.0665
 223  46.16232
 224  156.2165
 225  262.9347
 226  200.299
 227  189.0134
 228  147.7366
 229  210.9144
 230  189.3679
 231  190.1699
 232  339.5482
 233  273.9565
 234  59.24189
 235  139.0399
 236  22.70851
 237  -127.1911
 238  110.3129
 239  216.8413
 240  208.2252
 241  240.3235
 242  277.5821
 243  327.7515
 244  157.1595
 245  74.81332
 246  33.05969
 247  92.94739
 248  69.47436
 249  133.55
 250  83.74126
 251  40.37827
 252  103.2643
 253  156.2452
 254  180.1696
 255  37.10603
 256  -18.81205
 257  41.40198
 258  180.9984
 259  141.2822
 260  158.3188
 261  61.09471
 262  15.10303
 263  113.3512
 264  125.0181
 265  199.9625
 266  130.1356
 267  134.0924
 268  63.75237
 269  113.2425
 270  266.2103
 271  251.8983
 272  216.6286
 273  171.9796
 274  125.064
 275  215.2552
 276  175.0251
 277  112.3984
 278  26.41772
 279  -6.444125
 280  71.73793
 281  109.0305
 282  110.2248
 283  311.7057
 284  260.475
 285  249.4143
 286  208.0513
 287  66.14632
 288  43.88537
 289  254.3152
 290  234.55
 291  307.8476
 292  326.5652
 293  88.76797
 294  9.657853
 295  59.9272
 296  123.4647
 297  95.09996
 298  160.3477
 299  141.4497
 300  161.9528
 301  219.5471
 302  285.6974
 303  226.3499
 304  218.5125
 305  144.8847
 306  -7.986333
 307  26.84462
 308  137.5692
 309  145.0934
 310  150.9815
 311  175.56
 312  131.2473
 313  60.10831
 314  173.9192
 315  131.6175
 316  210.4559
 317  142.3942
 318  180.5256
 319  224.0239
 320  234.2495
 321  107.083
 322  77.63373
 323  126.1297
 324  123.9853
 325  160.5027
 326  94.51916
 327  167.3823
 328  111.1736
 329  145.9093
 330  64.05595
 331  84.44694
 332  130.9709
 333  226.541
 334  155.1904
 335  40.30938
 336  137.5862
 337  109.6523
 338  153.6858
 339  122.8312
 340  233.5106
 341  414.7434
 342  527.4255
 343  366.5565
 344  222.2626
 345  161.896
 346  154.6756
 347  250.4672
 348  182.0556
 349  264.1177
 350  242.3111
 351  266.8201
 352  263.7826
 353  236.4499
 354  309.2238
 355  266.5855
 356  230.9794
 357  227.651
 358  213.2203
 359  464.6551
 360  770.2892
 361  731.301
 362  764.2086
 363  836.1858
 364  596.1535
 365  353.6589
 366  271.9509
 367  363.6005
 368  216.7994
 369  125.7598
 370  118.4013
 371  193.9009
 372  228.083
 373  389.6974
 374  330.6896
 375  283.2695
 376  219.2073
 377  126.2942
 378  123.0286
 379  189.3761
 380  185.5676
 381  275.6491
 382  335.4436
 383  221.6452
 384  111.3825
 385  67.80957
 386  123.7401
 387  96.97086
 388  130.8263
 389  298.7938
 390  254.4484
 391  188.6203
 392  143.9475
 393  64.34496
 394  90.02851
 395  42.19118
 396  38.46381
 397  150.3771
 398  166.2387
 399  263.5164
 400  69.88551
 401  44.73982
 402  185.3266
 403  165.5946
 404  102.0642
 405  69.02648
 406  211.2041
 407  127.6981
 408  134.7319
 409  160.3491
 410  185.596
 411  161.0928
 412  204.9537
 413  270.8426
 414  335.6207
 415  299.6241
 416  237.0241
 417  173.4248
 418  170.0565
 419  108.4232
 420  158.9117
 421  204.9457
 422  235.972
 423  227.5839
 424  278.5813
 425  198.3377
 426  133.9336
 427  180.5749
 428  -24.14478
 429  15.08581
 430  189.8367
 431  166.391
 432  69.15531
 433  179.9672
 434  267.7587
 435  87.55807
 436  -0.5544903
 437  245.3902
 438  163.7582
 439  200.6434
 440  249.8406
 441  158.9152
 442  113.2316
 443  65.69662
 444  156.61
 445  226.1613
 446  198.8869
 447  241.3511
 448  189.882
 449  236.3665
 450  200.4582
 451  198.1815
 452  248.5963
 453  222.6958
 454  176.1721
 455  231.5154
 456  154.4315
 457  141.6955
 458  90.37682
 459  19.35146
 460  0.2105936
 461  154.371
 462  286.6865
 463  333.2587
 464  170.8733
 465  224.8894
 466  303.1186
 467  196.7779
 468  152.2928
 469  202.3967
 470  259.6302
 471  341.9904
 472  184.2191
 473  210.111
 474  185.7527
 475  107.9678
 476  66.50919
 477  161.8566
 478  242.44
 479  171.3155
 480  266.3693
 481  332.4929
 482  182.9633
 483  145.1371
 484  117.5854
 485  25.6177
 486  66.79743
 487  238.9408
 488  263.9175
 489  172.5427
 490  157.9226
 491  254.1728
 492  424.1867
 493  270.8409
 494  172.7624
 495  264.4951
 496  239.9091
 497  220.6672
 498  157.2988
 499  332.4074
 500  189.9481
 501  116.4818
 502  141.0809
 503  23.6533
 504  -62.24391
 505  106.3911
 506  177.2583
 507  110.4543
 508  138.9038
 509  217.5599
 510  204.907
 511  128.5591
