# Input file       =  1201878730.107112_cleaned.dat
# Candidate        =  PSR_0332+5434
# Telescope        =  AR
# Epoch_topo       =  58154.633670221199
# Epoch_bary       =  N/A
# T_sample         =  0.002
# Data Folded      =  7340032
# Data Avg         =  0.0294122413134948
# Data StdDev      =  1.0000780618118  
# Profile Bins     =  512
# Profile Avg      =  421.676336748993 
# Profile StdDev   =  119.742382954518 
# Reduced chi-sqr  =  1.165
# Prob(Noise)      <  0.00569   (~2.5 sigma)
# P_topo (ms)      =  714.577645263037  +/- 0.000346
# P'_topo (s/s)    =  -0                +/- 1.82e-10
# P''_topo (s/s^2) =  0                 +/- 8.05e-14
# P_bary (ms)      =  N/A
# P'_bary (s/s)    =  N/A
# P''_bary (s/s^2) =  N/A
# P_orb (s)        =  N/A
# asin(i)/c (s)    =  N/A
# eccentricity     =  N/A
# w (rad)          =  N/A
# T_peri           =  N/A
######################################################
   0  362.0593
   1  464.3062
   2  474.8132
   3  281.6465
   4  390.0019
   5  511.0978
   6  495.7571
   7  449.0195
   8  504.0826
   9  517.1662
  10  416.3926
  11  457.5253
  12  377.0482
  13  322.9805
  14  340.3641
  15  314.5024
  16  409.3197
  17  437.7067
  18  433.4767
  19  459.3121
  20  450.3065
  21  411.8498
  22  421.6852
  23  482.1258
  24  467.8473
  25  332.0033
  26  239.6501
  27  379.9048
  28  490.6367
  29  483.3846
  30  363.4967
  31  416.431
  32  418.2225
  33  467.8519
  34  483.296
  35  538.5707
  36  684.5311
  37  760.1385
  38  843.1216
  39  908.85
  40  893.6199
  41  1028.761
  42  830.9771
  43  562.8076
  44  445.3187
  45  417.7657
  46  477.4946
  47  393.4274
  48  402.1696
  49  423.5804
  50  415.2928
  51  403.8863
  52  384.4931
  53  446.6885
  54  407.6527
  55  368.0349
  56  346.5395
  57  322.3177
  58  386.1983
  59  350.2794
  60  411.9775
  61  491.8827
  62  429.8807
  63  492.5287
  64  556.7394
  65  431.1313
  66  427.8179
  67  446.5123
  68  555.174
  69  364.7762
  70  316.5275
  71  359.0381
  72  419.2642
  73  411.4278
  74  396.7849
  75  480.9873
  76  447.0589
  77  377.5653
  78  323.1633
  79  324.2291
  80  417.4507
  81  465.7409
  82  471.9498
  83  516.1207
  84  381.5927
  85  429.3263
  86  436.8566
  87  463.7744
  88  637.912
  89  507.9669
  90  456.3718
  91  445.8469
  92  461.2438
  93  504.0207
  94  459.7331
  95  427.0495
  96  474.2757
  97  532.0469
  98  470.1489
  99  480.0795
 100  405.3734
 101  398.5771
 102  476.6222
 103  555.1699
 104  498.6163
 105  342.7626
 106  462.0606
 107  401.8405
 108  375.3014
 109  390.3618
 110  421.3796
 111  482.6655
 112  401.3078
 113  458.6792
 114  409.3506
 115  396.3293
 116  465.1574
 117  652.4083
 118  591.2909
 119  399.0215
 120  335.3623
 121  410.7722
 122  416.1653
 123  459.6064
 124  483.9186
 125  524.514
 126  446.5314
 127  426.0903
 128  496.132
 129  558.006
 130  491.5777
 131  429.9366
 132  457.0758
 133  460.0827
 134  475.1736
 135  434.7193
 136  432.9461
 137  526.9186
 138  564.4372
 139  382.017
 140  496.2708
 141  540.8871
 142  400.0328
 143  409.9504
 144  368.3607
 145  486.2555
 146  519.9711
 147  456.1647
 148  405.713
 149  424.076
 150  516.9819
 151  547.2866
 152  506.5986
 153  396.273
 154  403.4784
 155  463.7252
 156  502.4218
 157  369.1917
 158  415.6634
 159  519.9252
 160  485.4357
 161  577.058
 162  519.3068
 163  536.1326
 164  499.3417
 165  358.9631
 166  498.6132
 167  461.891
 168  479.5707
 169  507.4708
 170  488.8035
 171  463.9736
 172  485.0171
 173  416.8856
 174  534.1608
 175  437.747
 176  518.7539
 177  573.4155
 178  600.9405
 179  611.7422
 180  468.0114
 181  437.0305
 182  448.8824
 183  515.089
 184  500.6588
 185  510.0683
 186  562.8695
 187  493.2714
 188  490.6281
 189  527.3828
 190  506.6533
 191  420.0286
 192  393.8987
 193  492.1974
 194  410.5222
 195  315.7454
 196  414.4448
 197  539.9771
 198  407.5455
 199  460.3048
 200  377.1188
 201  496.1389
 202  524.7255
 203  624.0342
 204  553.543
 205  393.8795
 206  471.9908
 207  383.4203
 208  381.9252
 209  422.1938
 210  343.2175
 211  257.0677
 212  328.554
 213  402.0487
 214  323.2571
 215  379.2076
 216  467.6276
 217  537.0742
 218  448.4533
 219  351.715
 220  404.9798
 221  340.2281
 222  524.8641
 223  423.7306
 224  406.678
 225  436.597
 226  323.2
 227  330.1514
 228  304.2454
 229  344.2873
 230  358.7699
 231  389.245
 232  308.9526
 233  306.3225
 234  340.2864
 235  473.8051
 236  468.9708
 237  381.3795
 238  429.9789
 239  543.0645
 240  504.3314
 241  442.1129
 242  451.1013
 243  486.2455
 244  476.8798
 245  454.1525
 246  496.2415
 247  486.4733
 248  406.6386
 249  490.164
 250  474.0262
 251  426.912
 252  462.0515
 253  468.5458
 254  424.8346
 255  399.8406
 256  362.359
 257  283.15
 258  359.0464
 259  294.8965
 260  395.3495
 261  453.8982
 262  466.6892
 263  503.8683
 264  496.2302
 265  588.3423
 266  460.2885
 267  417.4471
 268  309.7764
 269  442.1337
 270  382.5597
 271  372.0688
 272  405.4257
 273  416.8507
 274  413.8484
 275  446.115
 276  422.0644
 277  332.7469
 278  366.9926
 279  306.1448
 280  371.5046
 281  308.6641
 282  329.3496
 283  413.8576
 284  307.2672
 285  363.211
 286  325.8628
 287  318.8673
 288  380.3547
 289  304.9882
 290  264.2341
 291  299.0977
 292  376.2712
 293  387.024
 294  321.4498
 295  362.6386
 296  352.7108
 297  366.0114
 298  403.7738
 299  350.8313
 300  233.1497
 301  411.2661
 302  347.0886
 303  319.5534
 304  298.3823
 305  295.8329
 306  336.3662
 307  386.0001
 308  357.5608
 309  305.8737
 310  92.3087
 311  246.7375
 312  418.8757
 313  395.3983
 314  351.9226
 315  306.8728
 316  159.4571
 317  279.2618
 318  320.6816
 319  350.8686
 320  357.1508
 321  407.4012
 322  527.2197
 323  467.4948
 324  411.6928
 325  314.4525
 326  374.8092
 327  404.4707
 328  443.2781
 329  337.5585
 330  370.6679
 331  387.6273
 332  302.5673
 333  384.7973
 334  422.4294
 335  402.7036
 336  365.7408
 337  378.919
 338  493.2754
 339  387.1156
 340  388.7425
 341  447.9017
 342  426.562
 343  318.64
 344  412.1041
 345  419.6308
 346  360.421
 347  208.2767
 348  253.1196
 349  440.5469
 350  308.3101
 351  387.6035
 352  374.0361
 353  395.4657
 354  420.157
 355  431.1754
 356  470.533
 357  425.0707
 358  386.5157
 359  416.4658
 360  507.4341
 361  435.4651
 362  418.7899
 363  455.59
 364  442.0229
 365  392.4986
 366  358.5053
 367  568.9595
 368  471.6119
 369  445.1955
 370  419.5615
 371  377.4323
 372  488.2981
 373  504.6547
 374  557.0677
 375  550.5806
 376  512.1132
 377  443.5174
 378  461.3009
 379  459.5013
 380  516.5538
 381  531.1718
 382  487.9788
 383  465.5098
 384  436.4817
 385  334.4663
 386  282.9849
 387  405.226
 388  464.3282
 389  315.8678
 390  281.6859
 391  437.7621
 392  495.0269
 393  387.9304
 394  437.9994
 395  268.339
 396  305.2884
 397  308.2422
 398  430.2587
 399  465.0197
 400  290.6643
 401  287.4839
 402  322.3463
 403  481.8693
 404  446.6951
 405  418.4692
 406  459.7349
 407  433.2966
 408  441.9183
 409  384.2205
 410  364.7111
 411  438.2707
 412  435.5593
 413  418.9725
 414  426.421
 415  505.7997
 416  411.016
 417  311.9039
 418  260.1739
 419  397.769
 420  407.7447
 421  300.0997
 422  168.8698
 423  315.9187
 424  391.7497
 425  389.4818
 426  372.6006
 427  369.4286
 428  523.8618
 429  285.3063
 430  265.9906
 431  344.9222
 432  411.2139
 433  473.3511
 434  523.3832
 435  451.1906
 436  319.4219
 437  294.3097
 438  417.7667
 439  420.1109
 440  347.1037
 441  372.2894
 442  574.6453
 443  480.6779
 444  410.7018
 445  469.4343
 446  473.7788
 447  434.9604
 448  516.6196
 449  473.647
 450  439.537
 451  415.2213
 452  418.6113
 453  420.0984
 454  375.0295
 455  378.1011
 456  428.6811
 457  470.8216
 458  330.7952
 459  330.5562
 460  333.7467
 461  356.4715
 462  403.5416
 463  370.77
 464  314.4352
 465  463.7815
 466  412.5804
 467  336.4793
 468  382.6225
 469  396.6419
 470  252.17
 471  242.4822
 472  258.4614
 473  323.2047
 474  411.3105
 475  422.0476
 476  357.8057
 477  335.021
 478  403.3741
 479  405.7583
 480  375.7678
 481  340.4677
 482  345.5039
 483  299.3679
 484  479.5755
 485  517.0977
 486  408.1834
 487  569.0548
 488  427.8588
 489  428.0134
 490  433.3806
 491  461.9774
 492  439.4749
 493  298.8303
 494  447.0989
 495  423.9072
 496  313.0442
 497  235.6188
 498  341.9414
 499  381.7292
 500  314.08
 501  256.4014
 502  342.9456
 503  521.2792
 504  475.925
 505  438.7308
 506  393.0824
 507  350.0305
 508  440.3661
 509  424.2053
 510  312.0334
 511  305.52
