# Input file       =  1201949674.108761_cleaned.dat
# Candidate        =  PSR_0332+5434
# Telescope        =  AR
# Epoch_topo       =  58155.454781351400
# Epoch_bary       =  N/A
# T_sample         =  0.002
# Data Folded      =  7143424
# Data Avg         =  0.0163751586136162
# Data StdDev      =  1.00003515433135 
# Profile Bins     =  512
# Profile Avg      =  228.468379946872 
# Profile StdDev   =  118.122736861725 
# Reduced chi-sqr  =  1.687
# Prob(Noise)      <  2.14e-20   (~9.2 sigma)
# P_topo (ms)      =  714.577887090588  +/- 4.03e-05
# P'_topo (s/s)    =  -0                +/- 2.19e-11
# P''_topo (s/s^2) =  0                 +/- 9.92e-15
# P_bary (ms)      =  N/A
# P'_bary (s/s)    =  N/A
# P''_bary (s/s^2) =  N/A
# P_orb (s)        =  N/A
# asin(i)/c (s)    =  N/A
# eccentricity     =  N/A
# w (rad)          =  N/A
# T_peri           =  N/A
######################################################
   0  777.5493
   1  735.0877
   2  539.4036
   3  342.2675
   4  132.6741
   5  127.1514
   6  241.502
   7  215.7647
   8  192.7078
   9  156.02
  10  163.8162
  11  232.2175
  12  197.8796
  13  137.09
  14  209.3314
  15  354.8328
  16  322.5809
  17  345.3624
  18  366.0672
  19  279.3718
  20  202.4219
  21  183.3744
  22  124.4191
  23  157.8525
  24  143.2847
  25  169.0035
  26  198.8813
  27  133.7412
  28  115.0696
  29  -16.92665
  30  67.38448
  31  194.7846
  32  287.6493
  33  350.0938
  34  360.9749
  35  377.6801
  36  288.1444
  37  210.8429
  38  126.1125
  39  61.06828
  40  112.734
  41  258.1029
  42  271.468
  43  177.1904
  44  205.7979
  45  143.2789
  46  149.7221
  47  108.5611
  48  349.2392
  49  482.4617
  50  377.9161
  51  177.549
  52  204.6836
  53  136.465
  54  92.45103
  55  84.89249
  56  116.2065
  57  172.7059
  58  208.5837
  59  226.6357
  60  200.8467
  61  122.8514
  62  146.7122
  63  177.0099
  64  172.8116
  65  195.0369
  66  209.5581
  67  142.9701
  68  196.0786
  69  185.3941
  70  211.2261
  71  96.8509
  72  82.78252
  73  163.0087
  74  289.1235
  75  287.9623
  76  272.6422
  77  206.8859
  78  116.8422
  79  193.7586
  80  62.20367
  81  209.0309
  82  379.7648
  83  304.8704
  84  66.32353
  85  -6.595767
  86  95.09964
  87  42.06753
  88  132.4244
  89  159.4214
  90  285.8545
  91  181.9837
  92  85.06721
  93  100.9536
  94  172.3243
  95  259.612
  96  208.7233
  97  122.049
  98  210.5429
  99  197.8753
 100  161.3061
 101  202.8952
 102  202.8017
 103  139.6232
 104  60.98973
 105  11.99852
 106  58.26549
 107  258.5234
 108  280.7299
 109  185.9891
 110  246.9991
 111  132.7318
 112  166.5402
 113  147.0627
 114  205.786
 115  271.3369
 116  305.4156
 117  319.6378
 118  150.7366
 119  151.1661
 120  41.87241
 121  57.33613
 122  151.4589
 123  186.1819
 124  212.3332
 125  227.4752
 126  101.7105
 127  145.5585
 128  178.7716
 129  128.3237
 130  168.3892
 131  187.6819
 132  204.8594
 133  171.1697
 134  200.8082
 135  273.7952
 136  165.8202
 137  87.00259
 138  27.88095
 139  127.8235
 140  206.0206
 141  284.5297
 142  205.7987
 143  59.49991
 144  0.2449609
 145  87.9338
 146  142.5293
 147  185.1757
 148  191.2701
 149  115.773
 150  142.6414
 151  211.8432
 152  233.8504
 153  113.8685
 154  132.5359
 155  168.4344
 156  166.4944
 157  138.0788
 158  139.0556
 159  90.97527
 160  100.5176
 161  153.2328
 162  59.61367
 163  122.0868
 164  279.693
 165  224.3293
 166  186.4977
 167  112.0649
 168  233.2654
 169  117.1131
 170  54.38207
 171  126.2345
 172  81.49435
 173  221.3672
 174  211.8576
 175  164.4818
 176  263.4911
 177  214.2403
 178  187.9642
 179  198.8049
 180  268.2916
 181  345.7275
 182  291.3191
 183  154.0263
 184  145.3511
 185  195.455
 186  165.4479
 187  91.66208
 188  116.2689
 189  245.6086
 190  222.8606
 191  161.7769
 192  146.6379
 193  109.4616
 194  177.2605
 195  234.3208
 196  209.999
 197  330.4359
 198  370.2126
 199  439.6323
 200  338.8282
 201  139.8181
 202  173.6765
 203  285.2271
 204  190.8925
 205  281.2397
 206  261.8463
 207  213.7732
 208  286.6111
 209  277.3697
 210  212.162
 211  167.4952
 212  212.3056
 213  177.9517
 214  287.9939
 215  322.8766
 216  255.6822
 217  207.868
 218  151.7585
 219  204.4513
 220  246.1335
 221  245.6303
 222  198.1899
 223  249.9284
 224  259.9076
 225  241.2747
 226  111.3057
 227  188.5745
 228  133.592
 229  208.0041
 230  322.7087
 231  297.7984
 232  315.5036
 233  366.1657
 234  366.8263
 235  195.6593
 236  73.58753
 237  73.19874
 238  106.4627
 239  234.1403
 240  98.31509
 241  108.6519
 242  286.3636
 243  237.8873
 244  177.1043
 245  125.286
 246  252.1009
 247  351.1592
 248  350.9469
 249  229.251
 250  198.0317
 251  217.0818
 252  182.5934
 253  129.5367
 254  293.9864
 255  288.2263
 256  277.5144
 257  165.0201
 258  246.7835
 259  299.1939
 260  187.3101
 261  251.5617
 262  300.3127
 263  322.3716
 264  504.1089
 265  441.4314
 266  305.6046
 267  244.8596
 268  171.9804
 269  69.94285
 270  44.84018
 271  166.5373
 272  226.4499
 273  291.5318
 274  236.8533
 275  172.6239
 276  247.5083
 277  59.30877
 278  62.24358
 279  176.4676
 280  447.3561
 281  451.927
 282  430.3617
 283  338.8958
 284  259.224
 285  195.8352
 286  189.2094
 287  200.5037
 288  82.75782
 289  132.952
 290  154.9328
 291  54.57758
 292  205.4313
 293  250.6905
 294  160.3593
 295  85.96887
 296  207.0857
 297  413.5267
 298  361.6033
 299  246.3647
 300  288.4916
 301  104.9272
 302  63.38499
 303  133.204
 304  230.8421
 305  366.8949
 306  296.598
 307  163.5222
 308  121.662
 309  150.5686
 310  97.89981
 311  265.6739
 312  232.0633
 313  278.9449
 314  339.9069
 315  238.9733
 316  331.1798
 317  280.6481
 318  318.2542
 319  203.2379
 320  139.7656
 321  236.4367
 322  273.56
 323  277.6991
 324  227.7613
 325  242.8899
 326  183.8997
 327  131.0123
 328  376.9133
 329  502.8956
 330  431.4328
 331  366.6663
 332  280.4197
 333  346.1196
 334  323.4195
 335  308.4062
 336  306.6146
 337  316.196
 338  396.4192
 339  400.9174
 340  384.7109
 341  221.5263
 342  212.6196
 343  209.7259
 344  338.3548
 345  423.7984
 346  400.2686
 347  505.181
 348  509.2702
 349  323.8164
 350  164.4806
 351  202.5125
 352  106.2419
 353  136.5892
 354  169.9048
 355  249.0385
 356  263.7597
 357  158.0648
 358  142.2729
 359  214.5691
 360  170.356
 361  133.4791
 362  342.0661
 363  467.4501
 364  459.8562
 365  339.5612
 366  198.7194
 367  206.7238
 368  192.6984
 369  169.3571
 370  172.2326
 371  243.9147
 372  243.4122
 373  156.8963
 374  281.7211
 375  180.382
 376  65.10715
 377  84.70164
 378  251.2956
 379  317.325
 380  253.5104
 381  215.557
 382  284.9179
 383  325.6719
 384  245.0039
 385  432.8459
 386  363.4062
 387  238.5286
 388  326.4268
 389  349.4296
 390  367.6262
 391  230.3003
 392  172.5848
 393  190.3074
 394  228.7803
 395  238.2106
 396  288.6266
 397  301.8401
 398  254.6135
 399  261.5317
 400  244.1818
 401  283.0443
 402  229.664
 403  157.5346
 404  303.4866
 405  356.0562
 406  199.1436
 407  193.9189
 408  209.6758
 409  241.6563
 410  286.2073
 411  334.5341
 412  509.7405
 413  489.5677
 414  464.298
 415  455.3625
 416  381.1549
 417  287.911
 418  188.4893
 419  167.936
 420  204.704
 421  382.3262
 422  320.368
 423  201.6343
 424  199.7852
 425  64.62236
 426  149.7381
 427  198.9335
 428  333.0943
 429  296.998
 430  364.5049
 431  376.804
 432  252.9845
 433  309.8202
 434  228.918
 435  108.45
 436  126.0642
 437  311.2603
 438  294.4377
 439  355.4602
 440  415.1857
 441  242.4073
 442  172.9786
 443  176.9594
 444  233.9096
 445  314.7804
 446  488.4806
 447  334.8034
 448  190.1741
 449  216.0667
 450  214.6744
 451  224.6237
 452  122.8256
 453  162.3157
 454  169.6626
 455  203.5513
 456  146.1187
 457  72.80792
 458  42.02982
 459  56.63797
 460  167.8255
 461  376.6053
 462  367.967
 463  316.4117
 464  209.2215
 465  266.2166
 466  260.1937
 467  220.4023
 468  138.7072
 469  191.8692
 470  249.0368
 471  246.3983
 472  320.1211
 473  314.6761
 474  261.3238
 475  167.3239
 476  70.59914
 477  219.5518
 478  325.3378
 479  368.0997
 480  266.7353
 481  273.2277
 482  309.2489
 483  199.3419
 484  135.9667
 485  131.2088
 486  195.3285
 487  335.1487
 488  231.9407
 489  129.7904
 490  118.1122
 491  234.5732
 492  137.105
 493  267.5746
 494  308.4469
 495  332.6789
 496  340.0348
 497  322.9803
 498  275.8025
 499  225.7795
 500  164.175
 501  139.6971
 502  163.6893
 503  385.7524
 504  387.7164
 505  281.4372
 506  290.7685
 507  280.9071
 508  248.247
 509  530.8003
 510  794.7689
 511  841.6441
