# Input file       =  1201432719.115438-PSRB0329-2ms-sampling-dd.dat
# Candidate        =  PSR_0332+5434
# Telescope        =  AR
# Epoch_topo       =  58149.471505965717
# Epoch_bary       =  N/A
# T_sample         =  0.002
# Data Folded      =  7208960
# Data Avg         =  -4.22679412033069e-10
# Data StdDev      =  28.6698075775402 
# Profile Bins     =  512
# Profile Avg      =  -0.291139321529501
# Profile StdDev   =  3401.93573731004 
# Reduced chi-sqr  =  1.149
# Prob(Noise)      <  0.0107   (~2.3 sigma)
# P_topo (ms)      =  714.57566481605   +/- 0.000432
# P'_topo (s/s)    =  -0                +/- 2.32e-10
# P''_topo (s/s^2) =  0                 +/- 1.04e-13
# P_bary (ms)      =  N/A
# P'_bary (s/s)    =  N/A
# P''_bary (s/s^2) =  N/A
# P_orb (s)        =  N/A
# asin(i)/c (s)    =  N/A
# eccentricity     =  N/A
# w (rad)          =  N/A
# T_peri           =  N/A
######################################################
   0  9027.854
   1  14436.1
   2  15592.03
   3  14965.88
   4  13528.56
   5  13517.1
   6  13557.8
   7  15357.85
   8  16390.09
   9  16563.09
  10  14300.81
  11  12000.2
  12  9888.372
  13  6527.342
  14  4033.764
  15  3041.253
  16  2629.156
  17  2174.056
  18  1632.681
  19  1275.244
  20  402.9688
  21  -208.4851
  22  -838.5116
  23  -1490.495
  24  -1315.428
  25  -1235.547
  26  -570.4929
  27  -607.2615
  28  -769.3925
  29  -1284.115
  30  -1258.75
  31  -816.7043
  32  -523.4407
  33  -176.1756
  34  506.6445
  35  2027.294
  36  2816.774
  37  2574.603
  38  2211.174
  39  64.67753
  40  -447.6794
  41  -605.9517
  42  -37.68887
  43  -361.8483
  44  -1015.602
  45  -1233.23
  46  -936.7134
  47  -1376.378
  48  -1225.084
  49  -424.7381
  50  109.4135
  51  132.706
  52  -335.8333
  53  -618.9144
  54  -1323.441
  55  -1984.417
  56  -1466.345
  57  -1496.487
  58  -1213.095
  59  -930.2491
  60  -1151.483
  61  -1218.702
  62  -1414.445
  63  -1918.798
  64  -1710.218
  65  -650.3295
  66  309.3187
  67  273.1117
  68  218.4111
  69  -471.6154
  70  -1120.055
  71  -1398.423
  72  -1080.573
  73  -812.2854
  74  -626.104
  75  -551.9619
  76  -557.4299
  77  -970.562
  78  -1341.594
  79  -1832.823
  80  -1491.514
  81  -982.2115
  82  -597.6633
  83  -204.3423
  84  -6.283909
  85  -441.7891
  86  -735.7706
  87  -1394.766
  88  -2322.318
  89  -2453.088
  90  -1896.095
  91  -1235.737
  92  -758.0128
  93  -453.7521
  94  -784.7944
  95  -1182.248
  96  -1514.526
  97  -1702.662
  98  -1107.884
  99  -671.0739
 100  -223.2026
 101  -271.7372
 102  -311.5978
 103  -865.4631
 104  -1363.598
 105  -1727.168
 106  -1428.839
 107  -912.1041
 108  -582.4431
 109  -675.0931
 110  -867.5764
 111  -1034.189
 112  -1710.67
 113  -1744.054
 114  -707.4922
 115  -572.3435
 116  -198.3381
 117  -284.8911
 118  -263.8996
 119  -678.4302
 120  -1360.019
 121  -1578.236
 122  -1737.861
 123  -1506.013
 124  -1167.255
 125  -364.8441
 126  -227.6179
 127  -320.8033
 128  -1028.153
 129  -1323.228
 130  -1382.587
 131  -721.6374
 132  140.5421
 133  149.4613
 134  347.0655
 135  -61.87588
 136  -1059.404
 137  -1757.128
 138  -1972.601
 139  -1468.515
 140  -833.709
 141  -705.7292
 142  -840.7758
 143  -771.6974
 144  -943.3867
 145  -1462.145
 146  -1965.924
 147  -1336.425
 148  -788.0543
 149  -575.0795
 150  -532.5602
 151  -473.6216
 152  -684.8112
 153  -1075.65
 154  -1401.667
 155  -1522.915
 156  -1415.206
 157  -827.3925
 158  -362.2197
 159  -430.6309
 160  -930.6464
 161  -1274.016
 162  -1561.129
 163  -1530.696
 164  -1069.363
 165  -374.0093
 166  -324.6446
 167  -419.8416
 168  -744.5734
 169  -992.7714
 170  -1555.025
 171  -1992.476
 172  -1490.985
 173  -842.2642
 174  -549.4567
 175  -735.3279
 176  -1034.973
 177  -898.9236
 178  -1264.057
 179  -1762.664
 180  -1818.919
 181  -851.667
 182  -438.6727
 183  -264.8399
 184  -251.0329
 185  -582.2092
 186  -1382.445
 187  -1795.12
 188  -1936.005
 189  -1486.258
 190  -598.7295
 191  -579.0395
 192  -508.132
 193  -696.9703
 194  -1225.732
 195  -1651.814
 196  -2045.361
 197  -1317.319
 198  -857.4947
 199  -170.8472
 200  -526.1265
 201  -568.0129
 202  -600.9929
 203  -850.3981
 204  -1588.518
 205  -1496.165
 206  -924.3278
 207  -296.7943
 208  -928.1616
 209  -801.051
 210  -1105.392
 211  -1438.902
 212  -1767.177
 213  -1489.582
 214  -927.5457
 215  406.1378
 216  718.2715
 217  735.6807
 218  1323.985
 219  -41.54268
 220  -1565.704
 221  -2037.546
 222  -322.362
 223  1623.974
 224  1579.231
 225  255.5722
 226  -241.0576
 227  -1082.772
 228  -1555.057
 229  -1401.809
 230  -1230.763
 231  -241.7206
 232  46.30274
 233  -340.8169
 234  -13.94528
 235  -771.8487
 236  -582.2165
 237  -1109.181
 238  -1188.608
 239  -1110.035
 240  -1235.419
 241  -784.8038
 242  -1170.955
 243  -1138.001
 244  -1614.72
 245  -2091.689
 246  -1703.453
 247  -801.8464
 248  -22.4537
 249  20.83185
 250  67.23687
 251  -240.9095
 252  -1030.537
 253  -1303.318
 254  -1114.198
 255  -484.278
 256  247.1457
 257  530.9188
 258  596.6884
 259  -495.3238
 260  -939.4048
 261  -1113.465
 262  -645.6121
 263  55.67612
 264  552.0506
 265  722.0126
 266  260.5468
 267  97.8587
 268  -420.2793
 269  -975.5818
 270  -1580.091
 271  -1873.606
 272  -1660.23
 273  -1260.247
 274  -898.7665
 275  -626.6937
 276  -426.0365
 277  -1104.018
 278  -1696.974
 279  -1602.567
 280  -1119.349
 281  -628.0529
 282  -823.243
 283  -615.1349
 284  -894.3229
 285  -1037.056
 286  -1454.747
 287  -1887.462
 288  -1655.089
 289  -1064.55
 290  -766.519
 291  -411.8997
 292  -535.785
 293  -1056.132
 294  -1544.647
 295  -1800.472
 296  -1660.089
 297  -1096.588
 298  -770.6688
 299  -773.0916
 300  -497.7346
 301  -855.2148
 302  -1233.557
 303  -1398.949
 304  -1631.887
 305  -1307.923
 306  -1309.772
 307  -1381.862
 308  -1184.909
 309  -1098.146
 310  -546.459
 311  -854.9843
 312  -739.2866
 313  -293.5031
 314  -170.3585
 315  -127.119
 316  -78.07509
 317  -550.3519
 318  -422.9152
 319  -685.4247
 320  -734.8522
 321  -676.9448
 322  -965.1821
 323  -929.3952
 324  -1392.113
 325  -1383.24
 326  -1508.898
 327  -1855.203
 328  -1872.331
 329  -1592.569
 330  -938.5015
 331  -675.7507
 332  -363.5108
 333  -814.0507
 334  -1138.777
 335  -1419.173
 336  -1591.335
 337  -1672.019
 338  -1172.64
 339  -842.6255
 340  -886.2982
 341  -520.6816
 342  -860.6969
 343  -1091.646
 344  -1618.194
 345  -1527.696
 346  -1251.579
 347  -1169.421
 348  -860.0406
 349  -722.0532
 350  -654.2505
 351  -661.7368
 352  -801.4581
 353  -1433.248
 354  -1332.917
 355  -815.7167
 356  -539.7308
 357  -231.2235
 358  -308.8203
 359  -547.5781
 360  -670.312
 361  -1076.588
 362  -618.5571
 363  -371.0361
 364  49.03393
 365  -220.012
 366  47.12861
 367  34.67057
 368  -577.7471
 369  -927.2009
 370  -775.7426
 371  -348.338
 372  -255.904
 373  98.73767
 374  192.6682
 375  313.289
 376  219.0682
 377  -571.4453
 378  -1093.479
 379  -266.8652
 380  375.7017
 381  528.6987
 382  254.3427
 383  446.4385
 384  833.9835
 385  133.4516
 386  113.204
 387  608.996
 388  822.2156
 389  1063.704
 390  1380.538
 391  1206.051
 392  826.1329
 393  496.982
 394  333.509
 395  1330.492
 396  1992.649
 397  2269.755
 398  2481.95
 399  1611.309
 400  742.3299
 401  -7.134017
 402  -133.9863
 403  53.68497
 404  457.4404
 405  429.5759
 406  37.1873
 407  -387.3863
 408  -603.6853
 409  -777.3267
 410  -1064.714
 411  -833.8664
 412  -694.1778
 413  -163.7526
 414  214.3323
 415  161.8536
 416  -204.4923
 417  -412.429
 418  -960.7928
 419  -1381.934
 420  -1176.77
 421  -319.5038
 422  -233.8902
 423  -153.5829
 424  -681.945
 425  -761.8869
 426  -1348.377
 427  -1053.343
 428  -1076.533
 429  -758.5879
 430  -452.917
 431  -615.7636
 432  -851.1308
 433  -1078.802
 434  -784.8616
 435  -1295.821
 436  -1763.978
 437  -1825.817
 438  -1223.609
 439  -1014.777
 440  -1107.189
 441  -907.5893
 442  -1145.205
 443  -1619.259
 444  -1537.346
 445  -864.1085
 446  -597.554
 447  -523.5284
 448  -245.7292
 449  -541.5845
 450  -969.1858
 451  -1478.446
 452  -1967.615
 453  -1495.508
 454  -1258.186
 455  -1029.122
 456  -943.8547
 457  -1090.953
 458  -579.7119
 459  439.0446
 460  694.0437
 461  2000.164
 462  3613.829
 463  1695.752
 464  1595.789
 465  1527.646
 466  3859.27
 467  4028.438
 468  3758.735
 469  3064.313
 470  1403.949
 471  644.337
 472  148.6955
 473  282.8531
 474  379.141
 475  398.4303
 476  -347.6202
 477  -158.824
 478  117.0064
 479  850.6444
 480  1269.969
 481  1786.553
 482  1485.027
 483  1857.193
 484  2016.919
 485  1568.763
 486  1096.197
 487  251.774
 488  498.7193
 489  680.9385
 490  946.8298
 491  652.4641
 492  -91.98726
 493  -82.56441
 494  21.89151
 495  501.8409
 496  1490.222
 497  1453.12
 498  1704.081
 499  2169.574
 500  4150.236
 501  4855.111
 502  5513.912
 503  5648.265
 504  4172.935
 505  1740.885
 506  4916.29
 507  6166.266
 508  6630.876
 509  6244.505
 510  6593.644
 511  7641.137
