# Input file       =  1201878730.107112-PSRB0329-2ms-sampling-dd.dat
# Candidate        =  PSR_0332+5434
# Telescope        =  AR
# Epoch_topo       =  58154.633670221199
# Epoch_bary       =  N/A
# T_sample         =  0.002
# Data Folded      =  7340032
# Data Avg         =  2.34322807960049e-10
# Data StdDev      =  22.499850728933  
# Profile Bins     =  512
# Profile Avg      =  0.19864876291678 
# Profile StdDev   =  2693.97544579914 
# Reduced chi-sqr  =  0.968
# Prob(Noise)      <  0.692   (~0.0 sigma)
# P_topo (ms)      =  714.577645263037  +/- 0.000206
# P'_topo (s/s)    =  -0                +/- 1.09e-10
# P''_topo (s/s^2) =  0                 +/- 4.8e-14
# P_bary (ms)      =  N/A
# P'_bary (s/s)    =  N/A
# P''_bary (s/s^2) =  N/A
# P_orb (s)        =  N/A
# asin(i)/c (s)    =  N/A
# eccentricity     =  N/A
# w (rad)          =  N/A
# T_peri           =  N/A
######################################################
   0  -400.3509
   1  -185.3472
   2  -487.3574
   3  -1777.775
   4  -509.7596
   5  -49.37767
   6  -173.0409
   7  -866.5958
   8  -1183.554
   9  -1438.533
  10  -2228.96
  11  -760.8328
  12  -587.5804
  13  -659.1909
  14  -778.0837
  15  -1078.136
  16  -856.0103
  17  -1082.226
  18  -335.3274
  19  -424.7523
  20  -807.1318
  21  -1128.721
  22  -1157.793
  23  -1406.103
  24  -1417.375
  25  -1655.524
  26  -1814.702
  27  -1003.861
  28  -1055.847
  29  -1524.629
  30  -1858.995
  31  -1389.749
  32  -1014.753
  33  -531.9572
  34  -166.7204
  35  -408.9328
  36  -344.0916
  37  -102.5319
  38  -114.4949
  39  114.3689
  40  1642.68
  41  2184.626
  42  2059.606
  43  977.6972
  44  -511.8749
  45  -1116.222
  46  -1123.201
  47  1182.083
  48  1324.201
  49  1238.389
  50  1022.696
  51  -837.0438
  52  -1580.848
  53  -1367.345
  54  -572.3583
  55  -531.1959
  56  -725.5377
  57  -1129.765
  58  -1265.944
  59  -1550.648
  60  -1619.109
  61  -661.0892
  62  -324.6385
  63  212.0811
  64  19.45473
  65  -559.9807
  66  -1136.286
  67  -993.3646
  68  -828.046
  69  -950.3311
  70  -1173.99
  71  -1348.445
  72  -1753.328
  73  -2166.2
  74  -1915.683
  75  -1437.285
  76  -1068.175
  77  -1503.446
  78  -1766.795
  79  -1864.681
  80  -1926.833
  81  -1927.962
  82  -1520.927
  83  -547.7311
  84  -846.4789
  85  -747.0654
  86  -966.6111
  87  -1349.457
  88  -1121.663
  89  -1255.001
  90  -782.979
  91  -806.5734
  92  -1003.384
  93  -828.4786
  94  -1139.065
  95  -1392.342
  96  -1090.889
  97  -548.4943
  98  -81.66709
  99  486.6462
 100  52.98097
 101  -603.0307
 102  -1230.819
 103  -213.8212
 104  -80.09392
 105  86.04818
 106  -20.39747
 107  -760.8541
 108  -978.1302
 109  -1753.381
 110  -1589.358
 111  -783.113
 112  -363.4145
 113  -486.9655
 114  -1018.766
 115  -1727.788
 116  -1073.759
 117  -54.09581
 118  163.1178
 119  -71.62341
 120  -297.0936
 121  -52.14497
 122  -323.7283
 123  -51.31266
 124  433.6504
 125  1731.547
 126  3866.569
 127  5645.335
 128  6483.986
 129  4004.904
 130  2689.765
 131  2921.864
 132  7596.212
 133  12349.18
 134  14229.94
 135  13714.91
 136  8775.771
 137  5779.416
 138  2410.19
 139  4091.793
 140  7221.155
 141  9684.717
 142  7909.031
 143  4465.034
 144  1944.899
 145  -481.7727
 146  -944.5847
 147  -448.0574
 148  -397.2235
 149  -328.274
 150  -84.28524
 151  -643.1913
 152  -1610.069
 153  -1666.644
 154  -571.8245
 155  247.6306
 156  -217.794
 157  -1067.716
 158  -1543.203
 159  -1785.863
 160  -1347.264
 161  -1155.484
 162  -1051.659
 163  -1126.733
 164  -1079.477
 165  -1305.492
 166  -968.8614
 167  -1063.781
 168  -1198.142
 169  -349.7348
 170  -680.8517
 171  -1071.331
 172  -1009.301
 173  -1472.561
 174  -545.1037
 175  -442.0522
 176  169.9803
 177  393.5615
 178  275.36
 179  -81.40448
 180  -554.5108
 181  -1304.615
 182  -844.6024
 183  -130.8002
 184  285.211
 185  82.44199
 186  -407.7487
 187  -1209.426
 188  -1735.725
 189  -1391.166
 190  -935.903
 191  -1041.071
 192  -1190.078
 193  -954.3951
 194  -1224.854
 195  -2062.55
 196  -1260.612
 197  -199.2039
 198  90.91688
 199  69.48343
 200  -734.1659
 201  -938.1976
 202  -1737.471
 203  -636.4421
 204  -580.3679
 205  -723.5403
 206  -757.6191
 207  -1516.32
 208  -2133.541
 209  -2190.576
 210  -2524.24
 211  -2542.469
 212  -2538.878
 213  -2427.187
 214  -2568.419
 215  -2430.225
 216  -2049.637
 217  -1995.01
 218  -2382.287
 219  -2714.706
 220  -2428.661
 221  -2563.836
 222  -2098.221
 223  -2021.562
 224  -1703.54
 225  -219.9194
 226  372.2929
 227  1296.343
 228  2782.408
 229  531.3204
 230  213.1684
 231  1707.944
 232  3909.037
 233  5080.7
 234  6004.084
 235  4653.358
 236  2324.069
 237  290.4459
 238  -709.4445
 239  -700.4615
 240  -852.2473
 241  -75.34927
 242  317.7692
 243  14.57546
 244  -124.4367
 245  -169.1707
 246  -35.27449
 247  -32.31852
 248  191.6939
 249  1504.358
 250  1402.864
 251  868.7664
 252  -686.6291
 253  -1171.176
 254  -1029.494
 255  580.1977
 256  326.8659
 257  -95.30489
 258  -188.2148
 259  -1831.362
 260  -540.9864
 261  412.5399
 262  2212.458
 263  2153.671
 264  2085.858
 265  1504.325
 266  163.7699
 267  421.8897
 268  874.5847
 269  1073.535
 270  689.8622
 271  780.3603
 272  -220.3115
 273  -733.5295
 274  -1050.652
 275  -648.4073
 276  -1187.627
 277  -1364.862
 278  -1152.913
 279  -1621.344
 280  -1555.673
 281  -1926.9
 282  -1414.163
 283  -1082.482
 284  -1327.706
 285  -1417.419
 286  -2147.447
 287  -1631.464
 288  -1123.286
 289  -902.5726
 290  -1049.681
 291  -1295.565
 292  -1571.252
 293  -2108.442
 294  -1773.786
 295  -627.5383
 296  -375.0642
 297  -119.8394
 298  212.847
 299  -799.5731
 300  -1686.265
 301  -2266.935
 302  -1111.511
 303  -210.1132
 304  181.1765
 305  -136.1284
 306  -561.0521
 307  -1213.068
 308  -1812.292
 309  -1539.716
 310  -1905.278
 311  -1753.519
 312  1047.884
 313  1524.314
 314  1581.124
 315  1798.214
 316  237.492
 317  -167.6068
 318  -653.5231
 319  1903.884
 320  2425.255
 321  2305.295
 322  1548.883
 323  275.6085
 324  -933.7021
 325  -995.6541
 326  -354.8532
 327  298.578
 328  1495.665
 329  2171.892
 330  2916.449
 331  2607.101
 332  1793.925
 333  2187.601
 334  1698.844
 335  2534.05
 336  2759.073
 337  3011.235
 338  1236.795
 339  955.0334
 340  465.038
 341  773.9968
 342  -16.13059
 343  -418.4056
 344  -291.1436
 345  -1474.248
 346  -1685.718
 347  -2094.682
 348  -1590.496
 349  -1299.66
 350  -2061.407
 351  -1894.258
 352  -1709.563
 353  -1725.352
 354  -1662.097
 355  -976.1838
 356  -734.5551
 357  -541.5027
 358  -76.59792
 359  -201.8732
 360  -194.5873
 361  -460.1504
 362  226.4138
 363  437.726
 364  240.0488
 365  -269.3186
 366  -436.0054
 367  239.0136
 368  -171.9164
 369  -366.8408
 370  -508.5639
 371  -1120.526
 372  -685.6148
 373  -167.5303
 374  85.24281
 375  -137.2663
 376  -471.8142
 377  -922.1385
 378  -493.2735
 379  7.68884
 380  440.884
 381  675.6063
 382  502.9433
 383  499.8872
 384  382.0796
 385  177.0319
 386  159.8965
 387  1195.481
 388  1042.318
 389  513.3267
 390  412.5234
 391  1607.375
 392  1843.576
 393  736.6035
 394  -361.9738
 395  -966.256
 396  -634.554
 397  513.558
 398  1632.36
 399  1702.58
 400  1217.097
 401  919.6331
 402  309.4019
 403  674.4913
 404  345.8669
 405  1832.666
 406  2554.43
 407  2309.679
 408  481.9562
 409  -417.9245
 410  418.8226
 411  924.6125
 412  1696.988
 413  2448.797
 414  1909.174
 415  1546.775
 416  292.6767
 417  -747.6874
 418  -761.9619
 419  -756.7361
 420  -152.05
 421  -847.2429
 422  -1252.727
 423  -1141.07
 424  -1359.481
 425  -1102.922
 426  -1104.906
 427  -868.8121
 428  280.1772
 429  66.74982
 430  18.75427
 431  796.6387
 432  1160.434
 433  1132.522
 434  2073.473
 435  2512.106
 436  2136.662
 437  555.5226
 438  -249.0063
 439  -124.1194
 440  428.4122
 441  992.9359
 442  1840.767
 443  1519.017
 444  543.7341
 445  193.0215
 446  -184.9413
 447  -505.0681
 448  238.0214
 449  468.6348
 450  412.7642
 451  -147.2302
 452  -638.7067
 453  -1034.752
 454  -1205.839
 455  -812.1054
 456  -227.9298
 457  -181.8683
 458  -348.5559
 459  -463.8193
 460  -463.6771
 461  246.648
 462  937.927
 463  1301.81
 464  282.2168
 465  -139.4023
 466  -593.493
 467  -246.4762
 468  302.185
 469  462.1338
 470  402.0757
 471  386.3398
 472  335.3144
 473  84.68465
 474  353.8228
 475  702.3236
 476  493.8859
 477  1655.617
 478  2053.909
 479  1823.531
 480  330.3422
 481  -250.5585
 482  -338.3321
 483  -34.94962
 484  253.3893
 485  -203.5426
 486  -644.7688
 487  -981.2156
 488  -1227.276
 489  -1421.547
 490  -2026.914
 491  -1127.782
 492  -432.7569
 493  915.696
 494  1922.447
 495  2427.936
 496  1918.469
 497  -343.1679
 498  -328.2012
 499  1793.177
 500  2137.795
 501  2497.659
 502  3271.703
 503  1422.191
 504  141.9658
 505  -937.0251
 506  -780.6161
 507  -1294.301
 508  -967.8363
 509  -272.9907
 510  -447.3365
 511  -659.2529
