# Input file       =  1201289859.116976_cleaned.dat
# Candidate        =  PSR_0332+5434
# Telescope        =  AR
# Epoch_topo       =  58147.818033761294
# Epoch_bary       =  N/A
# T_sample         =  0.002
# Data Folded      =  7340032
# Data Avg         =  0.0183305103948417
# Data StdDev      =  1.00005429693063 
# Profile Bins     =  512
# Profile Avg      =  262.787438866252 
# Profile StdDev   =  119.739537513137 
# Reduced chi-sqr  =  1.191
# Prob(Noise)      <  0.00187   (~2.9 sigma)
# P_topo (ms)      =  714.575305535539  +/- 0.000181
# P'_topo (s/s)    =  -0                +/- 9.57e-11
# P''_topo (s/s^2) =  0                 +/- 4.22e-14
# P_bary (ms)      =  N/A
# P'_bary (s/s)    =  N/A
# P''_bary (s/s^2) =  N/A
# P_orb (s)        =  N/A
# asin(i)/c (s)    =  N/A
# eccentricity     =  N/A
# w (rad)          =  N/A
# T_peri           =  N/A
######################################################
   0  177.6078
   1  324.9796
   2  340.9019
   3  344.0092
   4  278.4859
   5  216.5152
   6  211.4169
   7  198.4227
   8  227.9402
   9  154.1369
  10  177.4556
  11  218.543
  12  284.3785
  13  241.1153
  14  291.1059
  15  407.0866
  16  384.4199
  17  272.4114
  18  297.7901
  19  360.3994
  20  370.7231
  21  174.2227
  22  170.5403
  23  392.8049
  24  330.3194
  25  223.2113
  26  118.2299
  27  31.75399
  28  165.5597
  29  270.3829
  30  381.5896
  31  287.3565
  32  198.3135
  33  68.36743
  34  111.0515
  35  265.7182
  36  208.3183
  37  166.4831
  38  239.4525
  39  331.2752
  40  276.0029
  41  272.75
  42  234.3548
  43  246.879
  44  249.5577
  45  353.696
  46  288.4382
  47  245.9958
  48  157.0074
  49  128.3162
  50  148.1681
  51  218.4456
  52  255.1105
  53  260.9846
  54  192.026
  55  182.4399
  56  123.6968
  57  314.9447
  58  351.1829
  59  266.6852
  60  236.1033
  61  219.6504
  62  219.8528
  63  97.35902
  64  182.3608
  65  288.9441
  66  344.1843
  67  350.4211
  68  236.25
  69  242.2907
  70  273.2609
  71  230.4274
  72  212.0765
  73  289.3008
  74  358.747
  75  297.21
  76  248.2222
  77  178.8563
  78  148.5448
  79  303.5273
  80  331.3136
  81  357.9648
  82  296.5893
  83  224.163
  84  212.0845
  85  329.2381
  86  182.7632
  87  168.6549
  88  264.9245
  89  240.4093
  90  208.2777
  91  238.0945
  92  223.5031
  93  211.034
  94  263.0711
  95  172.8676
  96  276.3851
  97  313.0273
  98  218.9441
  99  156.417
 100  155.8678
 101  215.0507
 102  198.6139
 103  202.0169
 104  215.414
 105  343.82
 106  379.2611
 107  250.503
 108  288.648
 109  281.7537
 110  341.2794
 111  291.79
 112  322.3029
 113  374.4705
 114  272.2384
 115  292.3929
 116  303.6943
 117  198.5171
 118  71.82299
 119  151.73
 120  172.9906
 121  199.8513
 122  221.4869
 123  192.7323
 124  142.3449
 125  117.9413
 126  112.892
 127  194.8265
 128  302.8994
 129  222.3435
 130  153.1242
 131  245.9544
 132  203.827
 133  189.1581
 134  240.1865
 135  214.4233
 136  248.7475
 137  204.3214
 138  331.4205
 139  413.6223
 140  292.6686
 141  288.1731
 142  228.1914
 143  229.3471
 144  158.8882
 145  190.7721
 146  312.4166
 147  401.4286
 148  297.4802
 149  315.957
 150  261.0904
 151  133.8233
 152  286.9918
 153  285.2055
 154  276.5081
 155  313.8271
 156  255.0493
 157  240.1178
 158  419.6129
 159  445.1371
 160  308.6151
 161  129.9825
 162  261.5433
 163  265.1537
 164  160.7096
 165  155.4367
 166  226.5054
 167  315.2151
 168  177.5144
 169  200.7174
 170  274.3399
 171  359.6639
 172  402.7322
 173  452.0519
 174  348.0095
 175  329.7932
 176  347.7564
 177  288.2958
 178  250.0118
 179  179.5652
 180  300.1413
 181  334.925
 182  315.0891
 183  344.0494
 184  297.3884
 185  323.952
 186  183.254
 187  124.4623
 188  269.6332
 189  210.5735
 190  328.448
 191  240.2086
 192  185.0438
 193  149.2081
 194  174.5428
 195  228.0319
 196  202.1345
 197  90.28002
 198  283.4032
 199  288.2036
 200  285.2478
 201  145.4552
 202  75.37972
 203  149.6895
 204  316.6626
 205  423.9734
 206  262.9794
 207  266.6713
 208  304.663
 209  259.1156
 210  149.2917
 211  124.1832
 212  187.5815
 213  183.0232
 214  222.1742
 215  230.4617
 216  224.8243
 217  189.5607
 218  252.4451
 219  267.1777
 220  163.7497
 221  249.9111
 222  179.2279
 223  190.0151
 224  210.3469
 225  250.8935
 226  366.3932
 227  279.6507
 228  316.0572
 229  207.5095
 230  279.069
 231  313.3562
 232  209.18
 233  327.1133
 234  311.1368
 235  159.4378
 236  239.1345
 237  291.3635
 238  396.9914
 239  321.6514
 240  343.6321
 241  360.5279
 242  413.7789
 243  302.6752
 244  369.009
 245  462.1647
 246  324.335
 247  374.4442
 248  369.0916
 249  330.867
 250  323.5488
 251  314.9165
 252  264.3506
 253  220.5376
 254  286.1545
 255  250.9086
 256  212
 257  223.6274
 258  266.1974
 259  259.4459
 260  322.739
 261  216.9956
 262  231.7018
 263  274.6968
 264  416.1109
 265  317.0512
 266  230.4671
 267  301.1653
 268  341.2142
 269  410.8455
 270  335.4398
 271  279.4997
 272  187.4738
 273  255.1849
 274  391.5792
 275  368.6737
 276  231.3494
 277  180.57
 278  191.3578
 279  127.6967
 280  187.7662
 281  390.565
 282  314.2153
 283  219.4506
 284  282.962
 285  283.6679
 286  236.3213
 287  348.814
 288  252.8168
 289  191.8567
 290  238.7854
 291  277.0784
 292  248.813
 293  207.24
 294  256.3036
 295  261.045
 296  166.752
 297  181.0974
 298  193.1573
 299  259.3494
 300  243.7526
 301  161.6866
 302  151.3363
 303  167.1457
 304  103.2459
 305  224.3762
 306  177.2605
 307  195.7151
 308  400.2565
 309  338.8192
 310  245.5757
 311  272.1593
 312  183.5146
 313  305.8116
 314  265.4059
 315  299.092
 316  373.4349
 317  276.5246
 318  261.4483
 319  277.3817
 320  304.8648
 321  293.5131
 322  262.6939
 323  356.1369
 324  340.2115
 325  204.4445
 326  190.4378
 327  283.6689
 328  232.4219
 329  316.5564
 330  445.6627
 331  343.9822
 332  342.2157
 333  314.8056
 334  284.7885
 335  435.5263
 336  299.731
 337  254.3338
 338  184.9403
 339  217.8138
 340  286.7117
 341  213.9574
 342  433.7748
 343  422.3093
 344  410.4751
 345  330.156
 346  290.0454
 347  242.2771
 348  248.3638
 349  147.4049
 350  265.5456
 351  209.7488
 352  348.2894
 353  331.8843
 354  237.1299
 355  174.4863
 356  228.6364
 357  241.4901
 358  107.9626
 359  128.0724
 360  299.4097
 361  303.1167
 362  226.2405
 363  150.8399
 364  111.0081
 365  179.97
 366  216.0844
 367  295.1961
 368  286.1216
 369  233.5071
 370  293.9937
 371  249.2283
 372  288.3567
 373  333.8298
 374  177.5213
 375  91.41656
 376  84.93354
 377  172.7642
 378  236.7219
 379  223.4686
 380  330.9178
 381  467.4398
 382  516.1126
 383  392.6873
 384  395.4047
 385  368.617
 386  275.7883
 387  309.0802
 388  327.3689
 389  303.0787
 390  279.1662
 391  297.1099
 392  391.3742
 393  250.2046
 394  282.8353
 395  475.5711
 396  491.581
 397  425.1368
 398  367.9328
 399  572.6739
 400  780.5268
 401  947.9454
 402  827.4333
 403  680.7795
 404  558.5038
 405  387.9296
 406  342.4969
 407  286.0162
 408  231.5112
 409  256.45
 410  309.8942
 411  329.0799
 412  381.2936
 413  260.6694
 414  236.625
 415  376.4777
 416  342.8843
 417  265.0779
 418  173.9479
 419  171.3967
 420  184.5411
 421  180.4356
 422  153.7564
 423  168.5169
 424  295.9443
 425  315.0746
 426  266.7115
 427  203.587
 428  265.6197
 429  204.6997
 430  261.5008
 431  364.5953
 432  329.0904
 433  310.7733
 434  349.0877
 435  242.5425
 436  167.3703
 437  68.93819
 438  161.9415
 439  230.2729
 440  215.946
 441  153.1027
 442  63.19853
 443  272.2245
 444  391.38
 445  323.3621
 446  227.9333
 447  181.3793
 448  158.8871
 449  146.3009
 450  183.8956
 451  239.8857
 452  232.6303
 453  283.5845
 454  293.0896
 455  233.4359
 456  276.8184
 457  176.808
 458  265.1804
 459  308.6548
 460  278.4626
 461  297.0422
 462  191.8883
 463  202.5537
 464  316.6365
 465  298.5551
 466  230.0064
 467  247.2437
 468  228.1524
 469  255.2008
 470  258.4877
 471  199.4415
 472  260.4985
 473  254.7749
 474  224.5107
 475  248.8134
 476  251.3218
 477  223.8053
 478  246.4087
 479  285.7739
 480  388.3474
 481  295.0861
 482  232.3315
 483  314.5231
 484  265.1367
 485  225.8344
 486  252.6127
 487  167.0668
 488  195.2865
 489  240.7908
 490  147.2675
 491  112.5543
 492  266.6911
 493  253.3287
 494  275.0907
 495  263.9836
 496  141.4936
 497  158.473
 498  271.446
 499  228.486
 500  176.6814
 501  360.3671
 502  363.1552
 503  178.3319
 504  155.3641
 505  162.0372
 506  152.5268
 507  188.7227
 508  161.3746
 509  242.8588
 510  258.334
 511  237.9657
