# Input file       =  1201174118.105377_cleaned.dat
# Candidate        =  PSR_0332+5434
# Telescope        =  AR
# Epoch_topo       =  58146.478438719641
# Epoch_bary       =  N/A
# T_sample         =  0.002
# Data Folded      =  7208960
# Data Avg         =  0.00925428392241265
# Data StdDev      =  0.999995154457213
# Profile Bins     =  512
# Profile Avg      =  130.222833304656 
# Profile StdDev   =  118.658600825417 
# Reduced chi-sqr  =  1.528
# Prob(Noise)      <  1.38e-13   (~7.3 sigma)
# P_topo (ms)      =  714.574340987175  +/- 0.00016
# P'_topo (s/s)    =  -0                +/- 8.57e-11
# P''_topo (s/s^2) =  0                 +/- 3.85e-14
# P_bary (ms)      =  N/A
# P'_bary (s/s)    =  N/A
# P''_bary (s/s^2) =  N/A
# P_orb (s)        =  N/A
# asin(i)/c (s)    =  N/A
# eccentricity     =  N/A
# w (rad)          =  N/A
# T_peri           =  N/A
######################################################
   0  920.3398
   1  843.1216
   2  567.6703
   3  307.7174
   4  78.35893
   5  116.5445
   6  116.1954
   7  199.7319
   8  256.7775
   9  219.6
  10  285.7091
  11  201.8799
  12  155.2081
  13  168.7979
  14  142.9756
  15  149.0554
  16  201.5867
  17  167.23
  18  132.1117
  19  95.74114
  20  113.9362
  21  123.1395
  22  94.38906
  23  10.27949
  24  60.34536
  25  108.8894
  26  44.76092
  27  -25.64203
  28  22.74337
  29  93.3224
  30  82.46097
  31  59.11607
  32  139.5147
  33  109.0026
  34  87.72807
  35  88.992
  36  70.10705
  37  3.865123
  38  20.79489
  39  7.348171
  40  158.8133
  41  166.5278
  42  142.5028
  43  135.6434
  44  8.051064
  45  172.9393
  46  167.0503
  47  119.942
  48  -113.54
  49  28.04925
  50  90.31226
  51  19.35158
  52  18.44278
  53  -87.55877
  54  58.04343
  55  57.14026
  56  2.236056
  57  51.82975
  58  37.26622
  59  2.017876
  60  103.2497
  61  63.06353
  62  -8.207389
  63  -27.9722
  64  101.358
  65  -41.27772
  66  78.10207
  67  15.76635
  68  -7.567357
  69  191.6879
  70  33.64596
  71  7.332675
  72  74.51022
  73  147.9136
  74  226.7686
  75  97.32442
  76  122.0414
  77  62.63808
  78  15.58541
  79  132.8428
  80  118.646
  81  94.39014
  82  10.41632
  83  16.21237
  84  20.62888
  85  64.28185
  86  201.5449
  87  182.8344
  88  145.4894
  89  275.9336
  90  325.1867
  91  182.3165
  92  138.2694
  93  175.7027
  94  197.3846
  95  66.92487
  96  30.78712
  97  201.1136
  98  211.1311
  99  147.2047
 100  45.24776
 101  47.85719
 102  125.1463
 103  180.2041
 104  95.7823
 105  164.5078
 106  204.7639
 107  182.4075
 108  265.3015
 109  190.5797
 110  80.8345
 111  34.7351
 112  56.3014
 113  156.2939
 114  108.6875
 115  148.5258
 116  126.5742
 117  17.31481
 118  98.52908
 119  118.3498
 120  98.91057
 121  126.8942
 122  239.3429
 123  265.9526
 124  259.0844
 125  144.4331
 126  31.19768
 127  56.39731
 128  67.86537
 129  214.0841
 130  226.8617
 131  85.82116
 132  113.1653
 133  222.8679
 134  229.0737
 135  133.2345
 136  80.93633
 137  42.79235
 138  105.0447
 139  158.015
 140  279.7811
 141  59.59115
 142  201.321
 143  153.1851
 144  183.6176
 145  142.2243
 146  111.4136
 147  136.7987
 148  189.0479
 149  295.3867
 150  298.7856
 151  215.0812
 152  122.0282
 153  162.5727
 154  248.42
 155  66.10877
 156  132.9475
 157  309.6736
 158  345.4664
 159  244.9066
 160  218.101
 161  -1.715659
 162  39.60386
 163  114.694
 164  215.8512
 165  240.7725
 166  264.7198
 167  221.37
 168  152.8464
 169  104.2284
 170  142.6721
 171  248.4818
 172  294.8576
 173  89.28826
 174  99.256
 175  194.5569
 176  175.8481
 177  229.4357
 178  49.69777
 179  4.561192
 180  127.6908
 181  134.926
 182  170.2285
 183  30.29198
 184  73.87788
 185  72.42325
 186  52.52721
 187  -14.79784
 188  92.32732
 189  23.28287
 190  99.03301
 191  213.0092
 192  259.873
 193  142.5517
 194  -17.62689
 195  30.44688
 196  184.5966
 197  196.8081
 198  172.1535
 199  205.7145
 200  78.38847
 201  8.308141
 202  23.10235
 203  54.04527
 204  56.18642
 205  59.68385
 206  -70.41154
 207  63.66082
 208  229.113
 209  83.94953
 210  -57.4425
 211  175.0953
 212  240.553
 213  131.9345
 214  7.047427
 215  81.22546
 216  160.929
 217  153.2023
 218  44.9787
 219  -29.84568
 220  115.5395
 221  -69.97471
 222  -30.96284
 223  92.2012
 224  207.4495
 225  121.4862
 226  190.681
 227  74.17664
 228  77.83687
 229  -9.207808
 230  113.6655
 231  150.4637
 232  141.9243
 233  195.8239
 234  161.9213
 235  80.97982
 236  151.1735
 237  62.25694
 238  51.22117
 239  107.2659
 240  175.2064
 241  136.0653
 242  156.3833
 243  103.577
 244  162.4722
 245  255.9138
 246  273.6585
 247  121.7288
 248  25.1939
 249  87.40544
 250  105.4324
 251  245.4394
 252  201.2936
 253  69.94511
 254  201.5196
 255  202.4329
 256  67.14602
 257  161.6079
 258  152.8326
 259  101.4755
 260  137.8957
 261  169.4794
 262  230.9672
 263  47.79902
 264  21.72707
 265  53.88973
 266  21.69426
 267  -54.23035
 268  47.90315
 269  0.4226496
 270  40.7426
 271  146.8466
 272  58.60106
 273  79.75125
 274  15.24142
 275  67.27287
 276  42.40236
 277  33.27147
 278  33.13874
 279  78.41513
 280  211.0682
 281  158.3851
 282  162.4483
 283  132.7557
 284  131.6394
 285  90.36203
 286  112.5646
 287  116.0308
 288  174.038
 289  138.3739
 290  165.5116
 291  237.3109
 292  185.2628
 293  269.178
 294  219.3539
 295  117.6381
 296  85.17175
 297  225.9286
 298  169.4974
 299  218.0771
 300  133.8786
 301  147.289
 302  149.4779
 303  247.418
 304  159.2866
 305  37.02797
 306  5.596225
 307  114.0938
 308  182.7206
 309  203.0095
 310  190.9404
 311  224.8669
 312  191.5929
 313  224.026
 314  74.35654
 315  150.0948
 316  231.4923
 317  255.438
 318  186.6168
 319  145.517
 320  57.66756
 321  97.41867
 322  232.2285
 323  289.1231
 324  104.6682
 325  148.2277
 326  112.409
 327  136.5621
 328  -3.768205
 329  110.5442
 330  0.9973649
 331  2.114013
 332  84.76415
 333  158.1095
 334  99.93353
 335  24.91755
 336  100.3631
 337  118.3038
 338  87.0686
 339  99.51933
 340  63.94442
 341  -36.09315
 342  90.51047
 343  17.2079
 344  180.2954
 345  123.4307
 346  97.72826
 347  160.8272
 348  29.55801
 349  27.90538
 350  112.9908
 351  160.8585
 352  148.5652
 353  136.8466
 354  176.3622
 355  183.8246
 356  147.746
 357  30.73988
 358  83.83923
 359  152.0489
 360  264.4031
 361  169.9431
 362  191.4723
 363  200.9441
 364  8.64325
 365  -90.12431
 366  -29.12862
 367  136.5811
 368  163.2803
 369  94.43115
 370  157.492
 371  199.2093
 372  147.4863
 373  106.1086
 374  95.82394
 375  79.99386
 376  91.25413
 377  160.3234
 378  172.0851
 379  123.5201
 380  135.2999
 381  220.2265
 382  146.759
 383  64.88245
 384  63.55943
 385  96.57581
 386  199.6239
 387  200.3218
 388  55.63663
 389  87.12706
 390  196.2968
 391  184.3799
 392  101.6856
 393  61.09234
 394  50.94238
 395  88.92787
 396  199.1477
 397  227.6859
 398  53.44287
 399  119.123
 400  149.8652
 401  125.326
 402  172.5628
 403  238.7646
 404  85.62179
 405  29.02632
 406  -1.567177
 407  107.9002
 408  230.5407
 409  168.0874
 410  27.46229
 411  56.18607
 412  130.0199
 413  159.7479
 414  102.3264
 415  164.7451
 416  146.3764
 417  11.58807
 418  89.78977
 419  -3.5264
 420  69.08498
 421  228.9262
 422  255.0066
 423  174.1422
 424  114.3091
 425  106.6454
 426  107.6886
 427  210.1844
 428  247.8312
 429  263.4774
 430  331.0167
 431  297.386
 432  204.5742
 433  73.36169
 434  107.255
 435  82.41603
 436  32.76955
 437  54.38419
 438  44.41939
 439  104.9617
 440  99.94839
 441  206.9884
 442  188.8854
 443  127.6568
 444  234.5441
 445  197.5957
 446  129.4861
 447  97.45911
 448  80.20559
 449  225.0176
 450  184.6098
 451  29.17437
 452  -6.826061
 453  119.5762
 454  122.3581
 455  91.45898
 456  134.3291
 457  189.0224
 458  183.8762
 459  43.89629
 460  119.344
 461  214.6368
 462  143.1819
 463  82.22454
 464  61.53724
 465  132.8195
 466  160.8806
 467  -9.572851
 468  44.24003
 469  264.5299
 470  177.4094
 471  9.306243
 472  41.56142
 473  150.0719
 474  103.5094
 475  122.3384
 476  172.1579
 477  142.2774
 478  172.3447
 479  128.3278
 480  88.72803
 481  18.44666
 482  -38.19749
 483  109.9257
 484  -39.84121
 485  -58.48438
 486  15.59474
 487  46.90793
 488  141.6525
 489  188.5779
 490  118.4832
 491  265.5372
 492  160.6557
 493  156.2552
 494  139.8807
 495  120.027
 496  173.3736
 497  39.48814
 498  108.5615
 499  153.1102
 500  41.33955
 501  17.31822
 502  126.0599
 503  254.6377
 504  309.1567
 505  359.2165
 506  317.2416
 507  296.9347
 508  404.0349
 509  605.1968
 510  646.6035
 511  824.4316
