# Input file       =  1201964296.100175_cleaned.dat
# Candidate        =  PSR_0332+5434
# Telescope        =  AR
# Epoch_topo       =  58155.624017363138
# Epoch_bary       =  N/A
# T_sample         =  0.002
# Data Folded      =  7340032
# Data Avg         =  0.0326313395796567
# Data StdDev      =  1.00004495685658 
# Profile Bins     =  512
# Profile Avg      =  467.707018018609 
# Profile StdDev   =  119.73841919771  
# Reduced chi-sqr  =  1.161
# Prob(Noise)      <  0.00678   (~2.5 sigma)
# P_topo (ms)      =  714.577960257077  +/- 0.000533
# P'_topo (s/s)    =  -0                +/- 2.81e-10
# P''_topo (s/s^2) =  0                 +/- 1.24e-13
# P_bary (ms)      =  N/A
# P'_bary (s/s)    =  N/A
# P''_bary (s/s^2) =  N/A
# P_orb (s)        =  N/A
# asin(i)/c (s)    =  N/A
# eccentricity     =  N/A
# w (rad)          =  N/A
# T_peri           =  N/A
######################################################
   0  990.7135
   1  923.1772
   2  844.4429
   3  631.196
   4  574.8975
   5  663.7352
   6  616.9707
   7  602.9212
   8  553.8033
   9  611.2773
  10  646.008
  11  625.379
  12  711.3646
  13  723.8154
  14  737.4892
  15  668.0344
  16  654.1948
  17  575.3411
  18  575.0356
  19  534.8829
  20  504.4482
  21  596.1395
  22  559.9987
  23  423.3135
  24  452.7649
  25  557.3782
  26  548.9606
  27  515.4328
  28  474.2621
  29  459.568
  30  445.1517
  31  473.6091
  32  549.6193
  33  576.1694
  34  575.5068
  35  573.2939
  36  464.9002
  37  530.7972
  38  545.5215
  39  616.7912
  40  618.9348
  41  576.7168
  42  541.6827
  43  573.6423
  44  457.3348
  45  462.7334
  46  511.4601
  47  490.9637
  48  519.2208
  49  557.3424
  50  469.1224
  51  456.4835
  52  468.7763
  53  600.8967
  54  545.358
  55  407.2953
  56  353.6026
  57  340.0338
  58  480.6194
  59  540.4373
  60  551.0036
  61  532.3531
  62  561.4886
  63  557.3205
  64  432.3059
  65  382.0738
  66  315.8706
  67  444.7285
  68  500.6319
  69  475.5176
  70  342.5122
  71  405.1636
  72  535.1353
  73  571.6039
  74  459.4391
  75  363.4514
  76  291.4685
  77  399.1902
  78  336.5311
  79  397.933
  80  536.9485
  81  488.0884
  82  393.0753
  83  474.5196
  84  465.3321
  85  441.6275
  86  501.5234
  87  518.2501
  88  452.9111
  89  390.6803
  90  460.6919
  91  423.7842
  92  491.8886
  93  455.1409
  94  500.2274
  95  517.0594
  96  482.2825
  97  517.8197
  98  423.4572
  99  329.7844
 100  460.269
 101  490.4874
 102  480.8659
 103  517.8289
 104  490.2308
 105  444.7347
 106  479.2426
 107  482.0287
 108  456.5127
 109  486.1529
 110  487.4056
 111  518.4958
 112  439.5026
 113  382.788
 114  337.4127
 115  361.3392
 116  470.9492
 117  497.5669
 118  509.7582
 119  426.6222
 120  485.4019
 121  470.2
 122  453.8514
 123  443.9379
 124  359.8338
 125  340.5852
 126  320.2571
 127  325.6529
 128  340.961
 129  315.3459
 130  353.6754
 131  372.707
 132  353.4518
 133  289.1544
 134  351.4659
 135  491.038
 136  434.3328
 137  434.7869
 138  366.3806
 139  415.4952
 140  402.5664
 141  318.0348
 142  362.7263
 143  404.4119
 144  439.5492
 145  353.2663
 146  376.2783
 147  412.0359
 148  462.2022
 149  477.8384
 150  427.8411
 151  455.0201
 152  401.6206
 153  476.3995
 154  459.7565
 155  399.8302
 156  423.9726
 157  292.2529
 158  267.9636
 159  377.0831
 160  374.2596
 161  389.4114
 162  414.1407
 163  456.118
 164  464.2237
 165  422.7125
 166  451.3021
 167  441.2375
 168  451.2094
 169  397.3816
 170  434.3314
 171  518.2579
 172  469.4383
 173  411.7253
 174  564.1473
 175  597.5687
 176  459.7091
 177  357.6757
 178  429.0722
 179  502.4238
 180  444.096
 181  470.2809
 182  422.9813
 183  470.1412
 184  444.6025
 185  458.9908
 186  457.3566
 187  398.1454
 188  278.1844
 189  294.2992
 190  397.058
 191  386.5325
 192  348.6119
 193  354.3557
 194  294.6679
 195  288.9677
 196  316.5902
 197  422.1354
 198  413.0537
 199  463.1766
 200  440.8172
 201  405.4163
 202  388.238
 203  443.459
 204  454.6357
 205  360.8531
 206  300.2903
 207  352.683
 208  433.4137
 209  394.7308
 210  397.7876
 211  414.5937
 212  376.8958
 213  401.2572
 214  325.2102
 215  369.4538
 216  500.3475
 217  450.8205
 218  406.6454
 219  393.3018
 220  399.262
 221  393.6748
 222  432.7391
 223  419.9856
 224  501.6751
 225  455.5996
 226  392.5232
 227  476.8557
 228  514.4002
 229  508.5204
 230  514.4482
 231  559.7057
 232  515.1549
 233  504.6128
 234  509.6917
 235  533.9963
 236  460.639
 237  345.5223
 238  515.8079
 239  523.5144
 240  513.071
 241  492.4201
 242  442.3448
 243  494.4646
 244  512.9528
 245  482.5871
 246  529.691
 247  512.5256
 248  487.0149
 249  500.6226
 250  468.9019
 251  521.8987
 252  559.3729
 253  444.9282
 254  458.1501
 255  515.4413
 256  538.1503
 257  505.6912
 258  479.5065
 259  524.2663
 260  461.9625
 261  463.4567
 262  452.9012
 263  514.6194
 264  474.3972
 265  493.0611
 266  502.2445
 267  459.9669
 268  447.5082
 269  383.7637
 270  374.6981
 271  440.5523
 272  341.019
 273  274.5592
 274  366.6055
 275  431.7637
 276  353.96
 277  380.7976
 278  431.7923
 279  428.0636
 280  487.5749
 281  497.7834
 282  507.5471
 283  443.3692
 284  472.5386
 285  462.6342
 286  487.8922
 287  511.7295
 288  497.1562
 289  575.121
 290  640.372
 291  616.6949
 292  530.6134
 293  427.0606
 294  444.9241
 295  507.8091
 296  599.9669
 297  537.0386
 298  539.0269
 299  478.4728
 300  419.6165
 301  476.2954
 302  567.1286
 303  589.6815
 304  559.014
 305  449.2321
 306  469.289
 307  482.6241
 308  434.8108
 309  478.5717
 310  477.4202
 311  584.2799
 312  574.8926
 313  485.1135
 314  515.6207
 315  568.5099
 316  615.2115
 317  562.9547
 318  582.0515
 319  519.4766
 320  541.3446
 321  549.4069
 322  448.7462
 323  454.1553
 324  461.6016
 325  526.1057
 326  503.1815
 327  533.494
 328  448.4647
 329  481.093
 330  455.6395
 331  462.8196
 332  473.1331
 333  435.4519
 334  404.5412
 335  503.019
 336  620.3774
 337  486.6804
 338  438.6091
 339  454.0533
 340  436.9689
 341  428.2866
 342  446.6039
 343  506.4037
 344  550.4902
 345  454.5371
 346  492.3952
 347  435.9793
 348  460.6622
 349  476.9682
 350  517.629
 351  495.4668
 352  383.2419
 353  284.6184
 354  296.2431
 355  395.1364
 356  418.6093
 357  449.6907
 358  390.6259
 359  515.2255
 360  465.1447
 361  299.2648
 362  435.5974
 363  373.1718
 364  416.5236
 365  434.0782
 366  549.0433
 367  596.6514
 368  483.9678
 369  467.5723
 370  419.3637
 371  576.3367
 372  471.8122
 373  450.6581
 374  448.4349
 375  539.1185
 376  583.7573
 377  531.6755
 378  480.5538
 379  525.8835
 380  512.996
 381  565.0237
 382  541.7028
 383  491.0911
 384  473.6496
 385  470.7358
 386  478.294
 387  476.9684
 388  503.0394
 389  470.751
 390  409.8748
 391  428.7093
 392  506.5992
 393  541.4336
 394  504.5055
 395  497.4094
 396  615.5532
 397  512.5518
 398  498.8876
 399  413.2137
 400  353.5297
 401  361.0614
 402  324.1903
 403  338.4988
 404  313.9833
 405  327.9726
 406  310.3313
 407  318.636
 408  357.0512
 409  359.6466
 410  399.6225
 411  305.5962
 412  375.7306
 413  422.2894
 414  419.8927
 415  347.377
 416  420.8415
 417  440.2545
 418  441.8398
 419  427.9996
 420  357.4737
 421  380.3875
 422  400.4268
 423  434.2306
 424  486.1368
 425  450.2543
 426  433.1458
 427  337.0566
 428  380.0699
 429  519.9741
 430  479.5909
 431  394.4223
 432  435.937
 433  468.1889
 434  374.2177
 435  359.2219
 436  406.9357
 437  446.4856
 438  363.4514
 439  381.787
 440  282.8347
 441  378.3142
 442  323.2369
 443  359.9655
 444  360.661
 445  363.6355
 446  338.5585
 447  323.8917
 448  346.2771
 449  328.1128
 450  453.4526
 451  428.3767
 452  467.9193
 453  457.3852
 454  460.5951
 455  447.2184
 456  511.9623
 457  432.7695
 458  409.9998
 459  488.1095
 460  493.3954
 461  507.211
 462  486.2158
 463  544.3282
 464  517.0386
 465  584.8881
 466  437.5961
 467  412.2776
 468  523.248
 469  596.2793
 470  539.4277
 471  565.4401
 472  598.9799
 473  547.7072
 474  523.8516
 475  510.2982
 476  514.1581
 477  557.1749
 478  542.8031
 479  487.7245
 480  460.0795
 481  408.6548
 482  455.6603
 483  552.7372
 484  588.5898
 485  520.9998
 486  497.0678
 487  434.7724
 488  439.6319
 489  404.1256
 490  522.5731
 491  544.5241
 492  594.3586
 493  599.7537
 494  527.1612
 495  434.0271
 496  483.0415
 497  523.1808
 498  450.7254
 499  380.6295
 500  425.213
 501  415.0332
 502  488.2891
 503  531.5814
 504  529.1354
 505  531.8238
 506  456.8961
 507  442.8565
 508  668.5383
 509  814.9214
 510  850.3638
 511  1010.982
