# Input file       =  1201274952.113662_cleaned.dat
# Candidate        =  PSR_0332+5434
# Telescope        =  AR
# Epoch_topo       =  58147.645499000719
# Epoch_bary       =  N/A
# T_sample         =  0.002
# Data Folded      =  7340032
# Data Avg         =  0.0237060761834001
# Data StdDev      =  1.0001019739125  
# Profile Bins     =  512
# Profile Avg      =  339.469558645399 
# Profile StdDev   =  119.745246022941 
# Reduced chi-sqr  =  1.254
# Prob(Noise)      <  7.87e-05   (~3.8 sigma)
# P_topo (ms)      =  714.574892224239  +/- 0.000277
# P'_topo (s/s)    =  -0                +/- 1.46e-10
# P''_topo (s/s^2) =  0                 +/- 6.46e-14
# P_bary (ms)      =  N/A
# P'_bary (s/s)    =  N/A
# P''_bary (s/s^2) =  N/A
# P_orb (s)        =  N/A
# asin(i)/c (s)    =  N/A
# eccentricity     =  N/A
# w (rad)          =  N/A
# T_peri           =  N/A
######################################################
   0  350.6166
   1  313.7315
   2  324.1439
   3  407.4943
   4  435.2198
   5  328.9348
   6  353.8622
   7  390.595
   8  317.4781
   9  244.4598
  10  309.525
  11  446.8851
  12  393.6715
  13  331.7638
  14  333.2783
  15  413.9543
  16  311.854
  17  275.1927
  18  317.645
  19  295.3038
  20  364.5697
  21  357.4023
  22  326.0893
  23  287.1518
  24  329.9716
  25  314.2769
  26  274.2555
  27  210.6016
  28  398.1751
  29  456.9208
  30  359.679
  31  313.0264
  32  459.9295
  33  337.8564
  34  268.7059
  35  271.3851
  36  338.9285
  37  392.8923
  38  407.6421
  39  373.4017
  40  388.1365
  41  359.37
  42  344.9123
  43  410.4417
  44  382.3361
  45  464.9755
  46  367.2024
  47  463.8862
  48  473.4821
  49  494.8004
  50  361.5036
  51  221.4458
  52  496.0766
  53  533.4119
  54  387.6253
  55  326.0736
  56  425.8623
  57  448.6778
  58  283.4611
  59  318.2383
  60  457.931
  61  436.0976
  62  303.2852
  63  317.693
  64  367.039
  65  376.2672
  66  446.4078
  67  488.3497
  68  715.2591
  69  908.5604
  70  1001.217
  71  1006.805
  72  907.139
  73  775.5187
  74  584.2551
  75  414.6315
  76  391.3937
  77  351.5269
  78  331.6058
  79  484.1312
  80  467.5525
  81  320.655
  82  378.2775
  83  391.8378
  84  467.936
  85  475.1187
  86  436.7165
  87  413.0905
  88  424.5794
  89  482.7292
  90  565.0963
  91  439.6833
  92  336.7149
  93  365.9031
  94  431.5638
  95  386.376
  96  331.3375
  97  321.4401
  98  392.7957
  99  302.6363
 100  354.6804
 101  427.8069
 102  391.2908
 103  368.1055
 104  393.752
 105  308.2644
 106  312.011
 107  361.6741
 108  417.2846
 109  375.8634
 110  343.2019
 111  473.826
 112  398.0286
 113  314.1848
 114  265.4532
 115  323.4652
 116  307.1452
 117  366.8019
 118  351.9993
 119  444.1882
 120  356.0211
 121  414.6046
 122  452.1451
 123  405.1243
 124  381.4264
 125  343.4784
 126  343.5797
 127  299.784
 128  317.336
 129  366.8097
 130  305.4855
 131  214.8439
 132  251.0598
 133  317.6086
 134  328.5103
 135  292.4143
 136  291.129
 137  182.5138
 138  215.7461
 139  335.8786
 140  299.4427
 141  250.2914
 142  345.6826
 143  335.0232
 144  416.8345
 145  283.3919
 146  256.0617
 147  235.7708
 148  109.5191
 149  175.4216
 150  221.9339
 151  203.9144
 152  231.5749
 153  238.6061
 154  274.4145
 155  223.0461
 156  298.8808
 157  297.9454
 158  347.5744
 159  298.3407
 160  226.7669
 161  310.4062
 162  329.9444
 163  350.1053
 164  386.7924
 165  296.0872
 166  278.23
 167  301.7733
 168  412.2741
 169  302.6597
 170  294.999
 171  370.5899
 172  294.5769
 173  280.6955
 174  327.0107
 175  279.4799
 176  281.5765
 177  289.6784
 178  236.4781
 179  244.3681
 180  140.6841
 181  215.7822
 182  242.7401
 183  273.5731
 184  219.1293
 185  226.5917
 186  277.0959
 187  141.9105
 188  316.4381
 189  343.1869
 190  290.4798
 191  358.967
 192  386.6862
 193  287.6343
 194  267.9085
 195  277.1675
 196  356.7854
 197  378.85
 198  491.6357
 199  433.794
 200  404.7068
 201  257.8194
 202  372.5455
 203  491.1494
 204  367.9413
 205  378.6579
 206  408.4165
 207  412.8732
 208  358.6686
 209  414.1904
 210  448.2519
 211  336.9759
 212  351.9141
 213  360.2865
 214  385.8693
 215  499.4314
 216  462.8456
 217  365.7552
 218  324.7925
 219  446.8887
 220  334.5826
 221  373.2609
 222  385.1383
 223  363.1858
 224  257.9069
 225  238.7589
 226  293.05
 227  354.14
 228  344.2926
 229  378.69
 230  444.2329
 231  328.5803
 232  246.3384
 233  215.0186
 234  199.7421
 235  435.2219
 236  481.5998
 237  364.7292
 238  298.3092
 239  308.6026
 240  347.5303
 241  197.4924
 242  318.2311
 243  377.6601
 244  358.4429
 245  339.933
 246  333.5593
 247  335.3538
 248  262.8051
 249  267.9984
 250  215.6264
 251  301.8976
 252  325.408
 253  278.6801
 254  361.9476
 255  359.9148
 256  337.0323
 257  304.0311
 258  300.7135
 259  228.2879
 260  333.0056
 261  355.8629
 262  280.5397
 263  271.8359
 264  199.4724
 265  299.9435
 266  333.9689
 267  295.2363
 268  406.6761
 269  272.7656
 270  196.5248
 271  170.0817
 272  234.1353
 273  194.4899
 274  251.6234
 275  240.3197
 276  249.9585
 277  222.1098
 278  308.5075
 279  248.3674
 280  265.0809
 281  348.2327
 282  405.1658
 283  401.8958
 284  300.1146
 285  311.2856
 286  407.1439
 287  287.7314
 288  271.5343
 289  261.5452
 290  190.4093
 291  252.527
 292  410.7932
 293  436.5472
 294  365.5394
 295  231.2756
 296  260.7141
 297  303.6091
 298  249.6347
 299  158.9527
 300  161.1991
 301  309.333
 302  290.5674
 303  285.4717
 304  216.7261
 305  250.8015
 306  237.3537
 307  267.5758
 308  187.5084
 309  193.041
 310  374.6382
 311  360.2484
 312  262.2046
 313  325.5452
 314  326.9884
 315  216.8615
 316  142.2529
 317  99.60535
 318  115.0241
 319  295.6512
 320  304.6477
 321  303.4261
 322  252.6795
 323  138.5896
 324  252.0713
 325  323.7768
 326  321.0699
 327  319.2181
 328  385.312
 329  273.3185
 330  215.2052
 331  225.0671
 332  251.8949
 333  290.9219
 334  308.5967
 335  249.6917
 336  232.707
 337  268.2475
 338  206.6426
 339  299.5909
 340  255.8536
 341  304.432
 342  402.8688
 343  393.3727
 344  401.2395
 345  336.2399
 346  228.6559
 347  256.1486
 348  275.2856
 349  345.3359
 350  381.6166
 351  338.4724
 352  391.1915
 353  364.0837
 354  394.3792
 355  360.6097
 356  410.143
 357  358.9462
 358  324.7267
 359  330.2885
 360  381.3152
 361  340.7752
 362  280.0014
 363  316.4003
 364  363.883
 365  247.1124
 366  279.5552
 367  269.2287
 368  223.7514
 369  211.6355
 370  247.9436
 371  323.5172
 372  377.2712
 373  285.4325
 374  244.0561
 375  371.0626
 376  351.1873
 377  301.9288
 378  333.1987
 379  239.1557
 380  300.9308
 381  391.3959
 382  305.8435
 383  371.1586
 384  313.6401
 385  429.2465
 386  422.4229
 387  470.2836
 388  555.0258
 389  416.0529
 390  502.4946
 391  419.8652
 392  323.7003
 393  304.3872
 394  284.5581
 395  321.9119
 396  347.6812
 397  499.9928
 398  443.7999
 399  406.6225
 400  288.9144
 401  301.8931
 402  372.5561
 403  331.4305
 404  318.2779
 405  308.8418
 406  462.7297
 407  378.2845
 408  406.8022
 409  297.7513
 410  310.3254
 411  344.5638
 412  316.9986
 413  346.3958
 414  383.2255
 415  411.2764
 416  419.8374
 417  389.8742
 418  341.0461
 419  310.7526
 420  300.6523
 421  426.3603
 422  443.6347
 423  413.896
 424  318.2797
 425  324.3701
 426  339.4302
 427  323.5273
 428  369.7159
 429  373.9629
 430  363.0169
 431  318.0374
 432  348.6095
 433  405.9048
 434  354.1952
 435  383.1807
 436  443.1559
 437  276.5726
 438  223.0416
 439  330.5625
 440  367.3598
 441  291.6866
 442  407.4966
 443  285.2938
 444  314.2278
 445  297.591
 446  399.1809
 447  464.8631
 448  253.1243
 449  285.9583
 450  236.8772
 451  369.1537
 452  394.0726
 453  407.2254
 454  359.4492
 455  312.0715
 456  340.161
 457  327.1823
 458  351.7097
 459  383.8847
 460  324.8427
 461  304.1378
 462  256.2867
 463  295.1671
 464  336.3557
 465  331.089
 466  305.3878
 467  230.552
 468  326.8965
 469  430.7795
 470  320.6653
 471  365.0484
 472  361.0311
 473  359.415
 474  304.5241
 475  301.3533
 476  319.0724
 477  244.0345
 478  237.6482
 479  289.6978
 480  336.4078
 481  368.8197
 482  375.1927
 483  446.5504
 484  360.6752
 485  417.21
 486  376.7379
 487  361.9712
 488  351.8094
 489  330.7397
 490  411.6953
 491  439.905
 492  383.4222
 493  464.3871
 494  427.8541
 495  385.6994
 496  402.8167
 497  493.9249
 498  328.3508
 499  229.5968
 500  244.3938
 501  218.3397
 502  310.9571
 503  390.6301
 504  337.8115
 505  421.0495
 506  297.6892
 507  277.864
 508  370.8011
 509  362.2383
 510  249.0722
 511  304.4341
