# Input file       =  1201863564.114864_cleaned.dat
# Candidate        =  PSR_0332+5434
# Telescope        =  AR
# Epoch_topo       =  58154.458137903523
# Epoch_bary       =  N/A
# T_sample         =  0.002
# Data Folded      =  7405568
# Data Avg         =  0.013253840047512
# Data StdDev      =  1.00032001391032 
# Profile Bins     =  512
# Profile Avg      =  191.70383934657  
# Profile StdDev   =  120.304857938655 
# Reduced chi-sqr  =  1.464
# Prob(Noise)      <  3.36e-11   (~6.5 sigma)
# P_topo (ms)      =  714.57755786575   +/- 9.95e-05
# P'_topo (s/s)    =  -0                +/- 5.21e-11
# P''_topo (s/s^2) =  0                 +/- 2.28e-14
# P_bary (ms)      =  N/A
# P'_bary (s/s)    =  N/A
# P''_bary (s/s^2) =  N/A
# P_orb (s)        =  N/A
# asin(i)/c (s)    =  N/A
# eccentricity     =  N/A
# w (rad)          =  N/A
# T_peri           =  N/A
######################################################
   0  233.6039
   1  238.0989
   2  245.8282
   3  249.1721
   4  139.829
   5  135.2466
   6  254.5026
   7  214.0688
   8  -17.62771
   9  88.65669
  10  141.1787
  11  208.2195
  12  332.874
  13  345.8382
  14  287.5936
  15  175.9065
  16  222.6814
  17  296.614
  18  109.3044
  19  42.91877
  20  214.717
  21  119.2382
  22  156.8279
  23  102.006
  24  -16.61244
  25  25.06453
  26  17.32081
  27  322.0816
  28  230.6188
  29  183.4993
  30  237.3911
  31  239.68
  32  177.4927
  33  316.9761
  34  302.96
  35  236.5668
  36  180.4483
  37  182.7534
  38  81.88454
  39  -8.254004
  40  65.65626
  41  72.6488
  42  9.276323
  43  81.51125
  44  340.7206
  45  381.8229
  46  207.7079
  47  169.1384
  48  184.9116
  49  175.1131
  50  103.5014
  51  133.2527
  52  167.5733
  53  186.6077
  54  112.3967
  55  101.9402
  56  117.4576
  57  168.2339
  58  201.9069
  59  56.30226
  60  176.541
  61  240.6929
  62  257.6838
  63  100.4867
  64  48.26373
  65  -115.3241
  66  28.11433
  67  38.08429
  68  69.19639
  69  147.6909
  70  106.1664
  71  113.167
  72  141.7553
  73  211.6077
  74  100.3062
  75  96.36713
  76  229.275
  77  280.3721
  78  213.3487
  79  122.1408
  80  139.3455
  81  210.6814
  82  179.5752
  83  114.6213
  84  9.120274
  85  54.77055
  86  138.894
  87  221.567
  88  204.7336
  89  282.8136
  90  236.6325
  91  160.1848
  92  168.1085
  93  249.0241
  94  219.9043
  95  291.8059
  96  239.6386
  97  117.3179
  98  46.11216
  99  223.5151
 100  220.4094
 101  39.15569
 102  143.9574
 103  77.95049
 104  68.04181
 105  32.78217
 106  48.95616
 107  143.7612
 108  73.52707
 109  110.497
 110  219.3685
 111  196.1175
 112  205.3077
 113  149.0808
 114  22.38582
 115  224.9479
 116  206.5132
 117  107.9453
 118  161.263
 119  167.6043
 120  196.5846
 121  126.0775
 122  98.26033
 123  165.7103
 124  126.7414
 125  173.1649
 126  277.2618
 127  208.4268
 128  232.7046
 129  167.5168
 130  118.6971
 131  7.094635
 132  -1.170051
 133  114.5011
 134  134.6383
 135  168.6257
 136  135.1109
 137  161.5943
 138  118.1837
 139  111.9786
 140  219.4345
 141  336.655
 142  248.6201
 143  296.7829
 144  232.4813
 145  132.9424
 146  186.4724
 147  264.2838
 148  199.2749
 149  184.3198
 150  196.1899
 151  187.2262
 152  217.2377
 153  156.9678
 154  252.8738
 155  246.0541
 156  144.818
 157  195.712
 158  356.6131
 159  390.659
 160  352.4077
 161  294.3634
 162  232.0112
 163  256.0567
 164  218.3064
 165  158.8329
 166  161.2505
 167  247.5944
 168  288.3449
 169  171.6576
 170  294.3597
 171  202.846
 172  124.5718
 173  208.8101
 174  285.9873
 175  209.7522
 176  242.9279
 177  357.2821
 178  307.1734
 179  161.4374
 180  165.3633
 181  206.1048
 182  171.5045
 183  142.6309
 184  193.6954
 185  104.2327
 186  49.13727
 187  74.49456
 188  95.75299
 189  15.5938
 190  23.84397
 191  178.9762
 192  153.1526
 193  193.0417
 194  196.0956
 195  255.7976
 196  165.2291
 197  165.4545
 198  204.3857
 199  172.4633
 200  141.7015
 201  197.3051
 202  119.781
 203  148.9344
 204  276.217
 205  233.5065
 206  226.3068
 207  189.6008
 208  275.6819
 209  351.8888
 210  240.3255
 211  158.5813
 212  110.77
 213  143.6107
 214  169.6395
 215  201.9747
 216  248.3813
 217  39.48283
 218  153.5744
 219  199.6805
 220  77.62674
 221  133.4252
 222  171.0467
 223  165.242
 224  280.5119
 225  222.5213
 226  94.33782
 227  253.4617
 228  339.9909
 229  263.3141
 230  237.0668
 231  259.0341
 232  178.3674
 233  245.7216
 234  241.2809
 235  147.5274
 236  213.681
 237  214.3198
 238  199.3696
 239  135.4168
 240  108.6319
 241  184.869
 242  100.8211
 243  273.1158
 244  395.3374
 245  372.1234
 246  192.675
 247  175.6312
 248  168.0423
 249  189.7187
 250  255.7921
 251  179.2771
 252  284.8537
 253  257.7744
 254  260.2415
 255  227.3187
 256  149.9511
 257  154.163
 258  278.7076
 259  393.4361
 260  278.4449
 261  268.3893
 262  107.7826
 263  -66.72798
 264  86.38879
 265  209.4896
 266  206.2065
 267  248.2599
 268  256.4583
 269  250.9661
 270  199.5737
 271  173.5352
 272  86.76892
 273  228.3359
 274  223.451
 275  203.1296
 276  349.188
 277  366.258
 278  297.293
 279  221.1603
 280  103.4809
 281  83.08708
 282  101.2867
 283  188.471
 284  262.0808
 285  78.3917
 286  154.9454
 287  76.25845
 288  123.1684
 289  154.7583
 290  211.9641
 291  144.3481
 292  226.3273
 293  186.0931
 294  129.3504
 295  99.11139
 296  204.3966
 297  265.3492
 298  240.3742
 299  375.5565
 300  400.2778
 301  194.1525
 302  252.9392
 303  178.5089
 304  128.7421
 305  28.19711
 306  61.72306
 307  125.2088
 308  193.9577
 309  270.2086
 310  200.6837
 311  163.195
 312  173.9536
 313  237.4058
 314  299.484
 315  255.4046
 316  292.5775
 317  184.7348
 318  165.2372
 319  167.2002
 320  121.6857
 321  211.7783
 322  63.34565
 323  152.5524
 324  240.6436
 325  281.7419
 326  260.8235
 327  361.1676
 328  375.2023
 329  223.4142
 330  138.6763
 331  242.4566
 332  241.0202
 333  118.862
 334  119.2134
 335  150.8232
 336  36.0098
 337  135.7187
 338  145.6264
 339  220.1102
 340  224.307
 341  194.2626
 342  268.4176
 343  276.1369
 344  189.5512
 345  221.9534
 346  151.4857
 347  188.163
 348  255.6376
 349  197.4893
 350  255.0498
 351  201.3311
 352  79.88759
 353  258.6445
 354  247.9062
 355  126.616
 356  145.8688
 357  190.5535
 358  206.6156
 359  125.9709
 360  374.4783
 361  318.641
 362  171.0791
 363  84.6692
 364  220.8629
 365  68.48141
 366  70.67165
 367  202.3871
 368  180.4084
 369  229.5404
 370  163.8811
 371  87.71117
 372  83.61332
 373  149.4715
 374  109.2916
 375  227.8003
 376  167.9771
 377  89.5233
 378  49.47975
 379  68.7375
 380  101.7619
 381  68.18211
 382  210.526
 383  166.4891
 384  191.7995
 385  93.67809
 386  112.5325
 387  138.4982
 388  205.6073
 389  234.8242
 390  232.9651
 391  297.4461
 392  263.501
 393  289.4345
 394  342.151
 395  284.2581
 396  204.889
 397  271.7607
 398  98.54036
 399  110.9613
 400  282.8628
 401  292.7494
 402  233.3317
 403  366.4686
 404  481.5599
 405  683.6014
 406  935.4831
 407  1014.239
 408  829.6858
 409  560.223
 410  328.6192
 411  175.8285
 412  281.8746
 413  215.9518
 414  44.72625
 415  165.0117
 416  279.7856
 417  244.7073
 418  311.1774
 419  265.0176
 420  264.6815
 421  187.6865
 422  207.6944
 423  107.4054
 424  134.9276
 425  286.602
 426  318.068
 427  212.7637
 428  25.48603
 429  71.42008
 430  91.39201
 431  31.95087
 432  175.1443
 433  244.5553
 434  166.4651
 435  166.8415
 436  154.9295
 437  26.77147
 438  31.86664
 439  45.03598
 440  177.4951
 441  299.7804
 442  245.5749
 443  186.3046
 444  304.1552
 445  135.4933
 446  118.0352
 447  198.3976
 448  345.9874
 449  224.6364
 450  177.0403
 451  156.3451
 452  165.8449
 453  155.7473
 454  111.6487
 455  180.3039
 456  293.1543
 457  219.2004
 458  205.9733
 459  357.2892
 460  302.3192
 461  216.6634
 462  133.5267
 463  153.9126
 464  269.8865
 465  191.2786
 466  230.4451
 467  234.2556
 468  82.27336
 469  117.3131
 470  139.035
 471  161.0655
 472  296.2347
 473  283.1473
 474  206.1328
 475  250.1183
 476  250.3273
 477  260.8976
 478  227.4547
 479  110.9274
 480  79.45808
 481  59.77608
 482  197.1283
 483  273.2201
 484  234.385
 485  149.5771
 486  125.0243
 487  202.3853
 488  210.3503
 489  192.0079
 490  181.6731
 491  264.2815
 492  282.9656
 493  100.8496
 494  124.4825
 495  127.8822
 496  215.851
 497  371.7478
 498  273.9554
 499  176.9841
 500  166.8889
 501  225.3771
 502  26.93268
 503  6.058849
 504  94.76378
 505  139.4557
 506  170.0484
 507  168.1302
 508  274.8565
 509  152.2199
 510  181.8618
 511  207.7367
