# Input file       =  1201346468.110104_cleaned.dat
# Candidate        =  PSR_0332+5434
# Telescope        =  AR
# Epoch_topo       =  58148.473230441021
# Epoch_bary       =  N/A
# T_sample         =  0.002
# Data Folded      =  7208960
# Data Avg         =  0.13824314908442 
# Data StdDev      =  4.15526850957174 
# Profile Bins     =  256
# Profile Avg      =  3893.04770301325 
# Profile StdDev   =  697.293180697862 
# Reduced chi-sqr  =  1.745
# Prob(Noise)      <  1.76e-12   (~7.0 sigma)
# P_topo (ms)      =  714.575239974913  +/- 5.12e-05
# P'_topo (s/s)    =  -0                +/- 2.75e-11
# P''_topo (s/s^2) =  0                 +/- 1.24e-14
# P_bary (ms)      =  N/A
# P'_bary (s/s)    =  N/A
# P''_bary (s/s^2) =  N/A
# P_orb (s)        =  N/A
# asin(i)/c (s)    =  N/A
# eccentricity     =  N/A
# w (rad)          =  N/A
# T_peri           =  N/A
######################################################
   0  3118.14
   1  2661.034
   2  2740.426
   3  3458.196
   4  4099.315
   5  4782.623
   6  3678.616
   7  3830.643
   8  3580.13
   9  3509.344
  10  1631.064
  11  2333.831
  12  3840.822
  13  5345.105
  14  4194.523
  15  3644.302
  16  4191.386
  17  3810.726
  18  3388.759
  19  3454.523
  20  4331.512
  21  4748.199
  22  5183.842
  23  4328.744
  24  4392.563
  25  4805.418
  26  4225.735
  27  3126.156
  28  3897.229
  29  4590.645
  30  5901.63
  31  4962.653
  32  4583.573
  33  3425.574
  34  3761.066
  35  3277.18
  36  3721.938
  37  4426.711
  38  4806.53
  39  4269.141
  40  4269.502
  41  3748.162
  42  3439.996
  43  3086.726
  44  3252.38
  45  3478.606
  46  4530.108
  47  3831.888
  48  4499.997
  49  3607.012
  50  3121.977
  51  2531.041
  52  2780.874
  53  4243.44
  54  4996.996
  55  3735.627
  56  3634.025
  57  4175.778
  58  3893.411
  59  3916.889
  60  2528.157
  61  4272.442
  62  5367.861
  63  5318.238
  64  3910.651
  65  3649.88
  66  4273.351
  67  3884.671
  68  2133.202
  69  3298.326
  70  4436.427
  71  4721.665
  72  4253.258
  73  4226.181
  74  3811.365
  75  3714.012
  76  2579.367
  77  2844.915
  78  3730.221
  79  4694.919
  80  4073.67
  81  3719.498
  82  3419.12
  83  3558.634
  84  2743.366
  85  2262.35
  86  3123.741
  87  4210.975
  88  3970.871
  89  3519.807
  90  4003.292
  91  3050.225
  92  2615.076
  93  2111.93
  94  3215.661
  95  4433.384
  96  4804.613
  97  3383.897
  98  4107.531
  99  4274.931
 100  3492.07
 101  2973.533
 102  3297.102
 103  4771.197
 104  5494.051
 105  4441.519
 106  4131.697
 107  4884.741
 108  4674.294
 109  3032.079
 110  2604.737
 111  3131.071
 112  5536.941
 113  4638.849
 114  4084.367
 115  4227.015
 116  3797.091
 117  3483.819
 118  2648.23
 119  3346.389
 120  4516.095
 121  4595.814
 122  3909.774
 123  3853.726
 124  3145.97
 125  2726.477
 126  2659.71
 127  2882.539
 128  3886.797
 129  4419.825
 130  3670.961
 131  4080.314
 132  3536.01
 133  3431.338
 134  2446.465
 135  3745.863
 136  4475.273
 137  4938.735
 138  4827.111
 139  4590.521
 140  4217.931
 141  3591.312
 142  3226.094
 143  3469.791
 144  4251.57
 145  4958.208
 146  4687.595
 147  3993.891
 148  4154.194
 149  4327.842
 150  3041.104
 151  3573.285
 152  5073.475
 153  7155.761
 154  7767.932
 155  5685.7
 156  4017.929
 157  3876.436
 158  3435.764
 159  3414.975
 160  3883.417
 161  4220.735
 162  4819.07
 163  4253.65
 164  3862.609
 165  3002.75
 166  3678.746
 167  2842.002
 168  3655.114
 169  4377.238
 170  4697.579
 171  3985.65
 172  3600.631
 173  3539.467
 174  4659.72
 175  3031.813
 176  2619.704
 177  3828.36
 178  4894.57
 179  3862.48
 180  3513.818
 181  4418.363
 182  3884.133
 183  3578.824
 184  3542.053
 185  3832.007
 186  4533.429
 187  4168.908
 188  3724.139
 189  3695.065
 190  3715.82
 191  3485.92
 192  2844.625
 193  3844.106
 194  4118.111
 195  4778.322
 196  3703.63
 197  3484.262
 198  3439.246
 199  4032.406
 200  3788.656
 201  3372.066
 202  3461.485
 203  5266.025
 204  5362.275
 205  4070.559
 206  4248.835
 207  4390.438
 208  3590.633
 209  3283.935
 210  3466.876
 211  5354.49
 212  4808.616
 213  3864.356
 214  3830.934
 215  3293.56
 216  3320.805
 217  3018.922
 218  3582.285
 219  4639.501
 220  4642.554
 221  3908.188
 222  4254.307
 223  3762.088
 224  3550.019
 225  2348.759
 226  3501.875
 227  4413.598
 228  5530.189
 229  3925.087
 230  4066.763
 231  3321.777
 232  3662.363
 233  2541.245
 234  3392.371
 235  3561.098
 236  4569.649
 237  4606.919
 238  3870.204
 239  3702.1
 240  4226.76
 241  3239.343
 242  3476.933
 243  3014.82
 244  4708.306
 245  5096.113
 246  4162.166
 247  3455.72
 248  3813.77
 249  3364.547
 250  2874.295
 251  3261.219
 252  4450.859
 253  4793.673
 254  3399.204
 255  4447.019
