# Input file       =  1201806917.117477-PSRB0329-2ms-sampling-dd.dat
# Candidate        =  PSR_0332+5434
# Telescope        =  AR
# Epoch_topo       =  58153.802501359685
# Epoch_bary       =  N/A
# T_sample         =  0.002
# Data Folded      =  7340032
# Data Avg         =  -6.96528780145782e-10
# Data StdDev      =  6.16596989086658 
# Profile Bins     =  512
# Profile Avg      =  -0.193999002547946
# Profile StdDev   =  738.270297241173 
# Reduced chi-sqr  =  0.490
# Prob(Noise)      <  1   (~0.0 sigma)
# P_topo (ms)      =  714.577688776267  +/- 0.000151
# P'_topo (s/s)    =  -0                +/- 7.98e-11
# P''_topo (s/s^2) =  0                 +/- 3.52e-14
# P_bary (ms)      =  N/A
# P'_bary (s/s)    =  N/A
# P''_bary (s/s^2) =  N/A
# P_orb (s)        =  N/A
# asin(i)/c (s)    =  N/A
# eccentricity     =  N/A
# w (rad)          =  N/A
# T_peri           =  N/A
######################################################
   0  -85.07843
   1  -212.9924
   2  -8.231817
   3  -131.0061
   4  -187.339
   5  -718.1633
   6  -701.647
   7  -557.41
   8  -325.3781
   9  -284.9645
  10  -118.8245
  11  110.9921
  12  -168.8465
  13  -235.7398
  14  -429.3809
  15  -583.1958
  16  -314.6522
  17  -158.7618
  18  -254.4095
  19  -348.635
  20  -124.7823
  21  -41.00809
  22  -189.9565
  23  -461.8728
  24  -547.9932
  25  217.4788
  26  573.7463
  27  21.57494
  28  436.8626
  29  205.994
  30  -78.64077
  31  50.72672
  32  216.2763
  33  296.0684
  34  275.5222
  35  298.7749
  36  95.84195
  37  -133.4174
  38  200.1159
  39  148.508
  40  157.8294
  41  348.8119
  42  -26.79562
  43  -289.3928
  44  -347.4172
  45  -295.7761
  46  -202.6949
  47  38.63321
  48  110.3187
  49  43.02315
  50  133.2969
  51  -186.2838
  52  290.5218
  53  399.4159
  54  252.8315
  55  65.58071
  56  -204.8439
  57  -270.6786
  58  -211.4275
  59  7.782712
  60  248.4751
  61  416.5927
  62  -103.6
  63  -388.7722
  64  -179.407
  65  302.0105
  66  258.726
  67  148.6482
  68  274.9031
  69  -145.18
  70  -147.1087
  71  221.8738
  72  -223.8668
  73  29.73248
  74  73.32925
  75  680.7244
  76  415.587
  77  491.2698
  78  295.2713
  79  264.7647
  80  345.5551
  81  883.1401
  82  1552.906
  83  1739.115
  84  1570.446
  85  1681.675
  86  1316.545
  87  783.3311
  88  144.1697
  89  191.4598
  90  482.111
  91  709.4523
  92  406.821
  93  306.6827
  94  241.3407
  95  371.9802
  96  556.0089
  97  411.4295
  98  -57.55744
  99  307.9875
 100  634.0456
 101  531.8165
 102  436.3594
 103  334.3765
 104  83.33904
 105  -141.7888
 106  -99.32565
 107  -172.4239
 108  331.841
 109  286.6147
 110  91.30939
 111  -87.82704
 112  -130.1864
 113  57.02954
 114  101.6627
 115  311.4069
 116  218.1809
 117  423.9621
 118  127.9744
 119  -315.8509
 120  -80.32513
 121  -41.45791
 122  -328.1909
 123  -68.48521
 124  168.5038
 125  87.33314
 126  19.18131
 127  -451.6883
 128  -472.4442
 129  -618.4129
 130  -470.075
 131  -158.9544
 132  -27.20846
 133  -3.822465
 134  -244.9511
 135  -203.187
 136  -401.0219
 137  -529.7595
 138  -328.9698
 139  -539.0242
 140  -450.0179
 141  -146.4306
 142  52.87829
 143  19.58681
 144  -316.8762
 145  -818.0403
 146  -692.9457
 147  -178.7347
 148  -399.384
 149  75.65442
 150  -131.1004
 151  -482.0918
 152  -636.7446
 153  -155.7925
 154  -407.5946
 155  -512.5637
 156  -466.9471
 157  -109.9476
 158  -392.6684
 159  -633.0995
 160  -805.1315
 161  -799.3313
 162  -395.0314
 163  -663.4344
 164  -422.2781
 165  -43.37356
 166  -416.2936
 167  -681.0382
 168  -829.9808
 169  -282.5149
 170  -148.0995
 171  -360.9914
 172  -479.7071
 173  -271.3538
 174  333.1749
 175  365.6075
 176  80.92007
 177  31.09521
 178  -69.27711
 179  -409.4923
 180  -525.788
 181  -199.5911
 182  -67.8679
 183  -181.5703
 184  -109.3719
 185  -3.292696
 186  47.95694
 187  -73.1736
 188  68.18684
 189  344.2578
 190  285.6501
 191  211.9189
 192  -188.492
 193  -59.82288
 194  295.552
 195  308.5205
 196  220.3464
 197  290.0625
 198  176.2449
 199  176.2235
 200  247.8364
 201  15.05114
 202  274.9056
 203  269.3595
 204  331.9809
 205  54.85013
 206  137.9571
 207  610.9526
 208  385.0429
 209  33.27853
 210  173.7161
 211  403.6057
 212  703.4984
 213  474.5331
 214  413.9036
 215  774.3431
 216  806.1349
 217  -6.801224
 218  -292.736
 219  -105.1604
 220  -29.96081
 221  367.8094
 222  437.6028
 223  46.66785
 224  251.6402
 225  239.3555
 226  44.24628
 227  -125.8629
 228  -59.13102
 229  7.311235
 230  -142.5086
 231  -104.1281
 232  294.8683
 233  261.9082
 234  -91.82089
 235  -353.9229
 236  39.96215
 237  -52.71849
 238  -14.39736
 239  -12.99253
 240  228.6647
 241  49.54667
 242  -75.02734
 243  29.86982
 244  -188.1433
 245  -209.4115
 246  -114.1819
 247  299.3375
 248  407.6562
 249  593.2662
 250  451.2738
 251  172.3999
 252  -425.3101
 253  -354.4396
 254  -182.7896
 255  431.7834
 256  549.5668
 257  326.5282
 258  230.729
 259  -215.4086
 260  269.5076
 261  724.9587
 262  825.7861
 263  725.4449
 264  596.0368
 265  495.6968
 266  23.2033
 267  117.089
 268  560.2002
 269  591.0868
 270  382.4732
 271  70.24629
 272  351.8196
 273  460.5694
 274  391.6588
 275  428.2606
 276  145.5855
 277  -234.5478
 278  27.16449
 279  -96.25854
 280  108.994
 281  556.3758
 282  636.1799
 283  596.6861
 284  277.6226
 285  102.2183
 286  -3.78695
 287  -365.7459
 288  -593.8168
 289  -363.8532
 290  210.4129
 291  -233.9548
 292  32.34228
 293  -247.2569
 294  72.6757
 295  -387.3935
 296  -580.8322
 297  -608.2542
 298  -626.0299
 299  -299.8047
 300  -224.4207
 301  -237.4331
 302  -567.55
 303  -608.2616
 304  -225.3489
 305  -343.103
 306  -299.3924
 307  -196.8172
 308  -113.4197
 309  -382.2752
 310  -477.6256
 311  -529.1479
 312  -208.6172
 313  -266.1597
 314  196.81
 315  66.04192
 316  -822.462
 317  -479.4275
 318  -165.2213
 319  62.65839
 320  49.50828
 321  165.4843
 322  54.20431
 323  -425.1641
 324  -440.5163
 325  -240.1934
 326  -84.78069
 327  -270.6439
 328  -226.3484
 329  -258.3094
 330  -299.4889
 331  -266.1952
 332  -106.5388
 333  29.03204
 334  -142.2039
 335  105.701
 336  -282.9586
 337  -245.6793
 338  -338.6293
 339  550.8679
 340  372.0668
 341  17.57256
 342  148.8706
 343  -68.93913
 344  -390.5517
 345  -582.7201
 346  -209.9573
 347  243.633
 348  100.2751
 349  -144.4567
 350  39.57141
 351  -71.72997
 352  -325.1458
 353  -420.6913
 354  -388.4961
 355  -362.3457
 356  -307.0945
 357  204.1213
 358  64.50086
 359  -112.5211
 360  -272.5593
 361  -132.5657
 362  -96.21896
 363  -16.98391
 364  199.7129
 365  191.1473
 366  359.1416
 367  57.24252
 368  88.19985
 369  -201.5699
 370  -483.1678
 371  -476.7888
 372  -579.2676
 373  -414.793
 374  -162.8849
 375  126.8635
 376  246.7031
 377  -54.86993
 378  -225.8021
 379  165.4475
 380  340.7179
 381  195.3119
 382  -230.5518
 383  253.0174
 384  239.7853
 385  -142.789
 386  104.689
 387  -171.4405
 388  31.54759
 389  -105.5728
 390  -88.96046
 391  -84.64793
 392  -464.1283
 393  -58.08215
 394  -301.3537
 395  -39.12408
 396  -70.23522
 397  -12.82376
 398  340.5882
 399  80.11714
 400  215.9051
 401  -243.4045
 402  -157.604
 403  -325.3605
 404  -455.2632
 405  -107.0294
 406  -111.4918
 407  264.2236
 408  123.7648
 409  337.6672
 410  222.8312
 411  -307.5599
 412  -84.23019
 413  424.7892
 414  381.3153
 415  460.6596
 416  339.8636
 417  307.2507
 418  102.1303
 419  -212.854
 420  -284.0691
 421  444.5613
 422  597.8242
 423  400.7555
 424  562.8578
 425  395.4445
 426  -137.4268
 427  -527.0617
 428  -358.5123
 429  -219.6914
 430  139.8411
 431  722.1185
 432  586.7794
 433  513.8077
 434  538.6317
 435  -34.22922
 436  -353.8706
 437  56.03424
 438  126.8994
 439  577.067
 440  869.813
 441  713.0172
 442  572.4688
 443  17.63441
 444  33.64156
 445  -11.17569
 446  28.18212
 447  515.9101
 448  432.9673
 449  618.5062
 450  499.9685
 451  523.099
 452  214.633
 453  -191.5477
 454  121.3254
 455  8.793514
 456  -94.37553
 457  163.2904
 458  36.75041
 459  363.9416
 460  264.1018
 461  89.72993
 462  27.89855
 463  373.5807
 464  340.2233
 465  -100.7489
 466  -260.3935
 467  -151.3829
 468  -314.2027
 469  -45.96218
 470  -145.3151
 471  -627.5901
 472  -710.7626
 473  -455.8041
 474  -56.11485
 475  -299.537
 476  -565.1733
 477  -464.8808
 478  -74.92546
 479  -72.70883
 480  -214.2877
 481  -291.5526
 482  -252.0727
 483  -352.3765
 484  -209.7838
 485  23.54185
 486  -283.2517
 487  -512.896
 488  -54.74938
 489  -91.06677
 490  -271.0523
 491  -132.6111
 492  -375.6637
 493  -453.062
 494  -787.9151
 495  -90.19159
 496  55.22931
 497  4.445883
 498  131.3378
 499  96.67229
 500  -403.2777
 501  -357.6074
 502  -348.6823
 503  -390.2433
 504  117.5794
 505  482.9653
 506  79.93066
 507  -134.9567
 508  -488.4431
 509  -772.8773
 510  -921.1195
 511  -44.94538
