# Input file       =  1201705856.107870-PSRB0329-2ms-sampling-dd.dat
# Candidate        =  PSR_0332+5434
# Telescope        =  AR
# Epoch_topo       =  58152.632813748496
# Epoch_bary       =  N/A
# T_sample         =  0.002
# Data Folded      =  7340032
# Data Avg         =  -3.71736711491215e-10
# Data StdDev      =  6.58606882110636 
# Profile Bins     =  512
# Profile Avg      =  1.01900901817046 
# Profile StdDev   =  788.570017737414 
# Reduced chi-sqr  =  0.668
# Prob(Noise)      <  1   (~0.0 sigma)
# P_topo (ms)      =  714.576930947764  +/- 0.000231
# P'_topo (s/s)    =  -0                +/- 1.22e-10
# P''_topo (s/s^2) =  0                 +/- 5.37e-14
# P_bary (ms)      =  N/A
# P'_bary (s/s)    =  N/A
# P''_bary (s/s^2) =  N/A
# P_orb (s)        =  N/A
# asin(i)/c (s)    =  N/A
# eccentricity     =  N/A
# w (rad)          =  N/A
# T_peri           =  N/A
######################################################
   0  -171.2677
   1  -214.803
   2  -373.7471
   3  -555.1223
   4  -570.0229
   5  -312.2916
   6  -172.6937
   7  -670.4763
   8  -392.5911
   9  -430.2385
  10  -541.2886
  11  -575.9733
  12  -581.5022
  13  -485.8938
  14  -369.5145
  15  -540.1816
  16  -646.0666
  17  -522.886
  18  -544.2558
  19  -735.0484
  20  -415.6897
  21  -191.1949
  22  -475.8535
  23  -562.145
  24  -818.6839
  25  -940.7717
  26  -886.5406
  27  -915.5612
  28  -565.6216
  29  -416.7747
  30  -537.8276
  31  -719.6631
  32  -489.8746
  33  63.57996
  34  229.9341
  35  435.8707
  36  -47.08049
  37  -706.6257
  38  -844.6663
  39  641.9343
  40  677.2201
  41  739.678
  42  602.9915
  43  -144.8215
  44  -348.2516
  45  -334.5706
  46  -302.3318
  47  -183.0661
  48  -365.5005
  49  -525.9079
  50  -472.4887
  51  -601.5259
  52  -315.1893
  53  -255.3653
  54  -246.2804
  55  -339.1301
  56  -93.80093
  57  -314.928
  58  -498.5856
  59  -360.888
  60  -73.89357
  61  -35.28348
  62  -355.1577
  63  -403.1857
  64  -357.4472
  65  -354.8502
  66  -510.7566
  67  -388.5772
  68  -584.7972
  69  -610.0636
  70  -383.4596
  71  -413.7863
  72  -143.0513
  73  161.0246
  74  -58.1368
  75  -119.493
  76  -73.93371
  77  -161.2704
  78  72.36896
  79  -263.1952
  80  84.73334
  81  263.5136
  82  72.47717
  83  -16.21134
  84  -64.32118
  85  -130.3304
  86  -235.2498
  87  -99.05435
  88  -22.1493
  89  -426.8959
  90  -371.7783
  91  -568.7874
  92  -501.4789
  93  -412.6843
  94  -269.5161
  95  -305.5355
  96  -345.0921
  97  -321.0154
  98  -377.7774
  99  -356.7691
 100  -434.4987
 101  -341.0539
 102  -305.7797
 103  -500.5987
 104  1.203503
 105  103.7453
 106  527.6115
 107  811.0176
 108  678.4702
 109  405.4218
 110  -184.2681
 111  -78.02525
 112  688.3032
 113  843.0356
 114  1119.919
 115  1077.977
 116  765.2326
 117  318.8173
 118  21.74578
 119  223.3084
 120  295.2344
 121  590.3494
 122  714.73
 123  382.1583
 124  131.3305
 125  -233.1125
 126  -167.4756
 127  -226.6423
 128  -280.5428
 129  -9.316936
 130  238.1634
 131  379.3279
 132  -113.0974
 133  -127.795
 134  222.7575
 135  412.0721
 136  254.1411
 137  629.1085
 138  795.3347
 139  665.7949
 140  367.3261
 141  59.97857
 142  346.3682
 143  311.3017
 144  456.3014
 145  286.8541
 146  171.8608
 147  38.43966
 148  -249.8174
 149  -313.6262
 150  -413.1995
 151  -59.87809
 152  389.5
 153  356.3252
 154  101.7102
 155  -80.24164
 156  -153.2333
 157  -184.5972
 158  396.2197
 159  365.4603
 160  -54.53806
 161  -188.6959
 162  -524.4142
 163  -460.6064
 164  -376.1902
 165  77.22517
 166  217.0057
 167  -152.5874
 168  -285.6899
 169  -309.889
 170  7.992671
 171  86.79092
 172  118.0744
 173  73.58344
 174  -307.1973
 175  -303.6574
 176  -334.1998
 177  -404.8633
 178  -129.8541
 179  165.4574
 180  114.0114
 181  -27.44843
 182  42.14788
 183  -576.0456
 184  -427.8979
 185  -144.8639
 186  64.53735
 187  -198.5061
 188  -284.2595
 189  -327.4745
 190  -290.7061
 191  -218.1062
 192  206.8297
 193  282.9665
 194  446.0045
 195  333.3806
 196  150.2543
 197  200.0774
 198  61.23199
 199  141.1808
 200  -120.0724
 201  -273.4938
 202  -185.7458
 203  -102.9884
 204  -186.9793
 205  -233.2566
 206  -108.2067
 207  -153.6799
 208  -396.8085
 209  40.4217
 210  134.4125
 211  123.5309
 212  167.5715
 213  -17.25307
 214  57.72107
 215  70.29089
 216  -3.543619
 217  144.309
 218  -28.70025
 219  -35.4006
 220  -126.443
 221  37.13812
 222  83.9609
 223  -30.49496
 224  26.05396
 225  -279.236
 226  -402.1907
 227  -309.96
 228  -74.27155
 229  -299.5408
 230  -185.2754
 231  -36.48678
 232  -397.5862
 233  -409.3764
 234  -614.8035
 235  -509.3884
 236  -625.1428
 237  -415.0347
 238  59.11652
 239  -61.56856
 240  -363.9176
 241  -412.2011
 242  -677.6139
 243  -434.6656
 244  -397.125
 245  -94.54116
 246  -109.6094
 247  -45.39846
 248  -118.8932
 249  -327.6972
 250  -330.2479
 251  -327.0079
 252  -664.6552
 253  -495.3237
 254  -109.8954
 255  130.5871
 256  -75.34096
 257  -282.1166
 258  -325.9185
 259  -734.3436
 260  -368.0581
 261  -426.7246
 262  -299.827
 263  -287.9807
 264  -263.6846
 265  -327.9328
 266  -158.0351
 267  -53.75642
 268  455.4803
 269  853.3308
 270  750.0389
 271  914.3752
 272  304.5852
 273  19.64081
 274  168.8753
 275  888.4249
 276  1025.459
 277  1238.624
 278  1040.473
 279  29.52693
 280  -304.3713
 281  -169.0818
 282  248.5708
 283  133.0613
 284  5.576073
 285  73.63987
 286  76.6025
 287  180.1086
 288  -51.44981
 289  -115.7141
 290  -11.28413
 291  11.91325
 292  -26.02799
 293  -504.8727
 294  -318.6254
 295  -170.0784
 296  -240.9587
 297  -459.5215
 298  -301.5642
 299  -285.7695
 300  -282.0701
 301  -355.4245
 302  -179.2347
 303  -674.9799
 304  -635.8712
 305  -758.8524
 306  -730.1342
 307  -641.7654
 308  -433.6112
 309  -338.7643
 310  -291.5888
 311  -582.4072
 312  -276.0989
 313  410.576
 314  1044.896
 315  1073.88
 316  211.9264
 317  159.5213
 318  -20.79459
 319  406.9378
 320  782.711
 321  577.3793
 322  439.7256
 323  -18.72082
 324  -164.7669
 325  -400.6771
 326  -344.4488
 327  -97.86111
 328  -135.7852
 329  -263.6632
 330  -124.9068
 331  -392.0559
 332  -291.2243
 333  -174.7445
 334  -293.065
 335  -133.5034
 336  178.0859
 337  385.2829
 338  607.8008
 339  211.2293
 340  276.5866
 341  696.6226
 342  1138.804
 343  1361.722
 344  1666.015
 345  1427.585
 346  653.2855
 347  -125.9569
 348  1646.85
 349  1872.227
 350  1910.566
 351  1803.724
 352  899.2401
 353  202.8675
 354  -572.0062
 355  -484.4658
 356  -270.4288
 357  -255.6217
 358  -287.514
 359  -440.9358
 360  -261.2123
 361  -494.8774
 362  -391.0324
 363  -88.15528
 364  49.38246
 365  140.2053
 366  -15.63433
 367  -208.8925
 368  -440.8657
 369  -294.1982
 370  -270.1203
 371  -407.1048
 372  -323.4384
 373  -460.2268
 374  -663.8572
 375  -612.7405
 376  -332.1917
 377  -359.4002
 378  -388.5928
 379  -141.9381
 380  206.1538
 381  439.7992
 382  479.9663
 383  370.7594
 384  457.3999
 385  833.3417
 386  839.0439
 387  117.9494
 388  -30.70225
 389  -44.75109
 390  160.265
 391  111.7717
 392  21.69978
 393  91.1405
 394  1.35022
 395  -56.30254
 396  -247.6385
 397  -373.6608
 398  -421.3745
 399  -584.752
 400  -482.4818
 401  -182.7489
 402  -100.6745
 403  50.9379
 404  -36.75835
 405  -175.8708
 406  -230.7385
 407  -263.0677
 408  -115.622
 409  169.6358
 410  247.7984
 411  346.7684
 412  172.8946
 413  -0.4086441
 414  382.451
 415  964.963
 416  936.0718
 417  1133.025
 418  1530.58
 419  1643.958
 420  1519.201
 421  1191.882
 422  966.8734
 423  926.7679
 424  727.2231
 425  308.5424
 426  -219.2409
 427  355.6754
 428  638.9974
 429  526.491
 430  478.7436
 431  403.6544
 432  259.1759
 433  19.15838
 434  -175.378
 435  161.5411
 436  391.1839
 437  528.6833
 438  232.4543
 439  421.8994
 440  709.0093
 441  425.211
 442  662.0793
 443  668.5635
 444  84.89822
 445  81.5592
 446  389.4959
 447  208.2057
 448  50.61858
 449  154.4338
 450  480.3577
 451  621.2246
 452  874.1319
 453  549.2194
 454  78.46206
 455  -243.5159
 456  295.8078
 457  577.831
 458  216.2275
 459  345.9545
 460  258.6862
 461  -134.8818
 462  -6.954194
 463  -270.7943
 464  -42.62791
 465  25.44277
 466  -282.6824
 467  -156.2118
 468  321.6558
 469  221.3965
 470  -149.4875
 471  -103.0114
 472  596.7942
 473  629.9177
 474  218.7323
 475  623.7396
 476  509.8513
 477  88.12464
 478  -115.208
 479  91.50333
 480  413.4438
 481  578.5133
 482  733.5428
 483  484.7517
 484  -59.01663
 485  161.7579
 486  213.2482
 487  34.30513
 488  9.33764
 489  69.21912
 490  164.8659
 491  129.5383
 492  -109.8796
 493  -105.0726
 494  -348.8837
 495  -67.05392
 496  -42.11067
 497  -232.9743
 498  -320.2675
 499  -381.5524
 500  -261.0181
 501  -265.1637
 502  -248.7995
 503  -288.4019
 504  -142.5482
 505  -270.7032
 506  -507.0461
 507  -323.0435
 508  -377.3044
 509  -240.9818
 510  135.8079
 511  164.4094
