# Input file       =  1201777429.120752_cleaned.dat
# Candidate        =  PSR_0332+5434
# Telescope        =  AR
# Epoch_topo       =  58153.461205101295
# Epoch_bary       =  N/A
# T_sample         =  0.002
# Data Folded      =  7143424
# Data Avg         =  0.0123737487382793
# Data StdDev      =  1.00002081327441 
# Profile Bins     =  512
# Profile Avg      =  172.671565770516 
# Profile StdDev   =  118.121042916379 
# Reduced chi-sqr  =  1.686
# Prob(Noise)      <  2.4e-20   (~9.2 sigma)
# P_topo (ms)      =  714.577210878284  +/- 6.16e-05
# P'_topo (s/s)    =  -0                +/- 3.34e-11
# P''_topo (s/s^2) =  0                 +/- 1.52e-14
# P_bary (ms)      =  N/A
# P'_bary (s/s)    =  N/A
# P''_bary (s/s^2) =  N/A
# P_orb (s)        =  N/A
# asin(i)/c (s)    =  N/A
# eccentricity     =  N/A
# w (rad)          =  N/A
# T_peri           =  N/A
######################################################
   0  -36.72062
   1  77.0025
   2  151.0397
   3  152.3643
   4  164.0044
   5  162.9844
   6  236.4065
   7  146.7241
   8  102.3076
   9  147.5515
  10  293.3852
  11  293.6112
  12  197.254
  13  225.2202
  14  181.3491
  15  137.0153
  16  102.2524
  17  157.1871
  18  174.9906
  19  9.700933
  20  165.4891
  21  249.4488
  22  217.7275
  23  171.5972
  24  101.4794
  25  59.92424
  26  131.1557
  27  244.9709
  28  264.6748
  29  337.4342
  30  344.8156
  31  292.1035
  32  237.7999
  33  139.7646
  34  138.1281
  35  104.0224
  36  176.2955
  37  208.2751
  38  106.6461
  39  152.2054
  40  225.9696
  41  104.5386
  42  98.6316
  43  188.6753
  44  184.5912
  45  210.5355
  46  314.7943
  47  315.3959
  48  261.8671
  49  248.5402
  50  198.6665
  51  174.8677
  52  207.7817
  53  211.1351
  54  182.1179
  55  136.0071
  56  123.7369
  57  216.4499
  58  114.6373
  59  160.7535
  60  245.7027
  61  441.5063
  62  299.3909
  63  255.2376
  64  328.1689
  65  218.1443
  66  136.3785
  67  72.46953
  68  87.89891
  69  238.2958
  70  292.9288
  71  216.8419
  72  204.472
  73  204.0553
  74  92.45494
  75  -40.35995
  76  114.4395
  77  256.0754
  78  216.0547
  79  227.5487
  80  282.7542
  81  201.7128
  82  9.54401
  83  -44.91078
  84  -13.05085
  85  110.4384
  86  251.6418
  87  158.5482
  88  118.0279
  89  107.689
  90  197.131
  91  160.935
  92  213.8452
  93  268.2467
  94  214.9019
  95  105.3811
  96  107.4349
  97  220.1534
  98  272.411
  99  125.8057
 100  161.8423
 101  84.66899
 102  91.04683
 103  182.2027
 104  204.1266
 105  85.4471
 106  110.1812
 107  180.208
 108  137.1241
 109  160.209
 110  197.8813
 111  160.3285
 112  211.3344
 113  194.3245
 114  105.3356
 115  8.46145
 116  -85.13602
 117  179.3741
 118  330.047
 119  293.3893
 120  304.8275
 121  219.6013
 122  377.2886
 123  247.0498
 124  213.432
 125  136.8158
 126  282.0147
 127  242.918
 128  73.69485
 129  132.3828
 130  143.3657
 131  114.3403
 132  133.4449
 133  115.0095
 134  56.51765
 135  121.8735
 136  127.5388
 137  201.9687
 138  130.7162
 139  12.84196
 140  55.97329
 141  111.1154
 142  168.6744
 143  84.26114
 144  85.183
 145  172.163
 146  232.1493
 147  202.994
 148  149.4872
 149  87.35501
 150  153.4171
 151  154.1715
 152  53.37303
 153  119.4639
 154  83.50344
 155  53.23883
 156  158.9452
 157  76.59824
 158  85.22985
 159  153.5545
 160  165.8739
 161  326.5667
 162  343.9715
 163  201.8183
 164  218.9405
 165  136.0872
 166  44.60547
 167  61.43803
 168  128.2256
 169  124.8711
 170  195.6736
 171  174.0875
 172  22.51738
 173  70.65457
 174  185.7637
 175  176.2084
 176  262.2074
 177  268.6469
 178  397.8406
 179  226.1974
 180  148.747
 181  83.7862
 182  82.42574
 183  132.524
 184  251.4544
 185  193.0835
 186  110.1922
 187  89.60103
 188  177.4674
 189  120.3327
 190  238.5799
 191  319.5771
 192  322.2726
 193  231.825
 194  152.1361
 195  260.5012
 196  321.6332
 197  80.5621
 198  55.78933
 199  133.1218
 200  119.0333
 201  163.9897
 202  202.2891
 203  220.5026
 204  232.0918
 205  43.49358
 206  93.74559
 207  203.0304
 208  216.3249
 209  161.4095
 210  55.75566
 211  164.3105
 212  228.8158
 213  259.2391
 214  236.5542
 215  198.1107
 216  141.3746
 217  170.3015
 218  159.3377
 219  109.0739
 220  126.5051
 221  107.0105
 222  130.332
 223  28.01373
 224  6.737668
 225  126.0102
 226  44.24603
 227  148.0606
 228  110.1312
 229  8.502774
 230  -13.25559
 231  -8.075441
 232  84.87482
 233  74.41344
 234  85.04974
 235  29.94248
 236  151.5208
 237  196.059
 238  113.9544
 239  12.57698
 240  111.6418
 241  86.39673
 242  120.9751
 243  187.1644
 244  199.3716
 245  219.6132
 246  218.3316
 247  118.4075
 248  6.627379
 249  145.3642
 250  270.6831
 251  175.6022
 252  133.5414
 253  238.5203
 254  238.9449
 255  231.0603
 256  244.0723
 257  369.4904
 258  408.4155
 259  724.9095
 260  913.6403
 261  948.7118
 262  857.5045
 263  665.3821
 264  427.2675
 265  262.5427
 266  235.6672
 267  259.6367
 268  229.4312
 269  249.4413
 270  172.4621
 271  175.2015
 272  40.60328
 273  189.4116
 274  288.3058
 275  367.4152
 276  258.5629
 277  192.1662
 278  350.7747
 279  329.4548
 280  306.1627
 281  164.851
 282  59.864
 283  69.22906
 284  196.5491
 285  258.1325
 286  278.1293
 287  216.9061
 288  137.1695
 289  48.71125
 290  140.5563
 291  140.5897
 292  296.8573
 293  334.9471
 294  231.1131
 295  169.6308
 296  115.2785
 297  -10.71058
 298  -7.405139
 299  40.59704
 300  195.649
 301  323.1111
 302  248.9582
 303  238.2931
 304  120.0779
 305  51.4697
 306  29.47066
 307  111.1379
 308  240.6741
 309  157.3945
 310  259.9457
 311  191.9109
 312  109.0588
 313  214.8725
 314  201.5889
 315  268.5742
 316  232.2936
 317  330.1822
 318  369.9782
 319  363.0606
 320  171.4575
 321  77.23383
 322  226.4329
 323  242.7693
 324  205.3337
 325  79.5554
 326  240.3183
 327  135.5257
 328  70.81252
 329  87.29989
 330  199.4541
 331  125.0718
 332  151.2754
 333  190.2553
 334  183.7698
 335  228.095
 336  274.5773
 337  207.7337
 338  98.17449
 339  123.4149
 340  194.0323
 341  173.9984
 342  229.5622
 343  299.2229
 344  343.4868
 345  358.9297
 346  75.68552
 347  14.46239
 348  92.88823
 349  197.1718
 350  237.8271
 351  261.9978
 352  258.9031
 353  233.0491
 354  60.48273
 355  54.24259
 356  75.19475
 357  200.4699
 358  313.8204
 359  216.6846
 360  175.1885
 361  167.0616
 362  21.45419
 363  18.49143
 364  121.3798
 365  148.4165
 366  170.8484
 367  241.8438
 368  190.862
 369  104.2207
 370  179.4729
 371  70.52776
 372  14.12976
 373  169.1417
 374  136.6703
 375  137.4919
 376  212.6405
 377  180.9619
 378  132.1705
 379  67.50307
 380  61.8495
 381  56.12014
 382  119.1796
 383  161.1867
 384  112.7383
 385  278.1942
 386  244.5712
 387  199.9939
 388  98.14145
 389  83.70767
 390  225.6864
 391  152.5551
 392  252.6267
 393  268.9088
 394  179.6294
 395  98.83372
 396  57.03038
 397  198.6783
 398  193.2816
 399  67.18796
 400  93.36301
 401  75.146
 402  69.09951
 403  99.35058
 404  216.2011
 405  150.9283
 406  55.40286
 407  255.3276
 408  247.1136
 409  333.1384
 410  292.0572
 411  301.9552
 412  142.4761
 413  157.7005
 414  214.7782
 415  128.3181
 416  73.86719
 417  248.2126
 418  276.5788
 419  165.3355
 420  178.5374
 421  75.46531
 422  186.1071
 423  406.0684
 424  273.8492
 425  115.4101
 426  100.4275
 427  317.457
 428  278.3285
 429  63.59893
 430  52.70315
 431  174.6193
 432  265.9866
 433  198.0354
 434  237.487
 435  98.77172
 436  193.2708
 437  160.537
 438  203.3133
 439  235.7695
 440  186.3335
 441  273.3752
 442  157.3681
 443  137.4771
 444  239.5569
 445  61.50986
 446  39.48876
 447  -17.12827
 448  -44.66742
 449  -42.98593
 450  232.0256
 451  240.2568
 452  188.2594
 453  85.29765
 454  -101.5241
 455  117.2575
 456  232.4615
 457  119.5219
 458  112.7343
 459  149.7919
 460  127.4066
 461  169.1766
 462  122.5262
 463  81.1039
 464  123.2415
 465  101.4977
 466  68.61116
 467  163.0034
 468  315.8391
 469  266.5986
 470  95.08791
 471  170.0377
 472  48.53856
 473  12.19155
 474  149.2861
 475  78.37304
 476  208.0719
 477  221.946
 478  167.2616
 479  41.62757
 480  23.145
 481  17.07813
 482  49.06969
 483  145.4537
 484  198.2005
 485  319.2777
 486  376.7348
 487  248.4821
 488  124.6099
 489  235.8196
 490  231.6363
 491  64.72172
 492  142.6876
 493  172.1705
 494  124.3459
 495  136.513
 496  9.25601
 497  46.89051
 498  140.4851
 499  142.9076
 500  31.77144
 501  -57.41784
 502  164.1875
 503  287.5067
 504  189.7168
 505  63.21629
 506  113.4132
 507  140.2974
 508  192.6486
 509  229.5626
 510  228.6805
 511  100.2941
