# Input file       =  1201979202.113353_cleaned.dat
# Candidate        =  PSR_0332+5434
# Telescope        =  AR
# Epoch_topo       =  58155.796540663810
# Epoch_bary       =  N/A
# T_sample         =  0.002
# Data Folded      =  7340032
# Data Avg         =  0.0292899888931653
# Data StdDev      =  1.00008083412082 
# Profile Bins     =  512
# Profile Avg      =  419.99504967663  
# Profile StdDev   =  119.742714891495 
# Reduced chi-sqr  =  1.281
# Prob(Noise)      <  1.64e-05   (~4.2 sigma)
# P_topo (ms)      =  714.57835175589   +/- 0.000307
# P'_topo (s/s)    =  -0                +/- 1.62e-10
# P''_topo (s/s^2) =  0                 +/- 7.16e-14
# P_bary (ms)      =  N/A
# P'_bary (s/s)    =  N/A
# P''_bary (s/s^2) =  N/A
# P_orb (s)        =  N/A
# asin(i)/c (s)    =  N/A
# eccentricity     =  N/A
# w (rad)          =  N/A
# T_peri           =  N/A
######################################################
   0  1063.01
   1  859.7841
   2  793.9293
   3  515.0076
   4  405.7833
   5  467.5724
   6  497.6858
   7  486.1938
   8  447.4463
   9  483.9326
  10  524.4982
  11  451.421
  12  481.7898
  13  549.2498
  14  619.0183
  15  434.5086
  16  455.3481
  17  485.0544
  18  538.4348
  19  521.7952
  20  459.9083
  21  613.2551
  22  563.7962
  23  551.563
  24  532.6911
  25  561.0298
  26  530.7465
  27  654.3373
  28  517.3416
  29  401.8117
  30  436.6795
  31  455.8051
  32  465.5574
  33  353.1008
  34  438.2319
  35  365.9086
  36  342.1379
  37  405.0451
  38  490.8513
  39  560.3812
  40  361.2696
  41  466.3347
  42  459.0284
  43  474.9361
  44  372.4506
  45  337.1712
  46  416.9823
  47  519.158
  48  531.5189
  49  504.6322
  50  433.3755
  51  396.2465
  52  443.3673
  53  510.037
  54  493.3492
  55  471.5509
  56  457.9471
  57  406.6087
  58  490.3293
  59  579.7462
  60  576.3633
  61  577.9577
  62  531.5396
  63  525.6187
  64  501.731
  65  543.2278
  66  488.9376
  67  465.5759
  68  508.534
  69  493.1602
  70  498.1672
  71  549.314
  72  522.9118
  73  507.5532
  74  470.3726
  75  378.4015
  76  379.4253
  77  471.9705
  78  489.0938
  79  460.0903
  80  504.8823
  81  491.7013
  82  358.4715
  83  249.2185
  84  352.7851
  85  309.7975
  86  357.4898
  87  410.1068
  88  445.1046
  89  339.5699
  90  316.6034
  91  354.1105
  92  442.1726
  93  462.0767
  94  438.1055
  95  416.1009
  96  389.461
  97  424.2298
  98  372.4066
  99  398.6713
 100  467.4536
 101  423.5301
 102  398.8932
 103  381.8888
 104  444.6743
 105  400.52
 106  496.1396
 107  424.3503
 108  407.9253
 109  420.144
 110  372.5268
 111  427.9901
 112  554.4274
 113  461.1776
 114  355.1142
 115  424.624
 116  476.0621
 117  411.2481
 118  296.881
 119  360.0967
 120  348.2691
 121  348.9506
 122  355.1475
 123  448.2283
 124  459.3904
 125  283.8313
 126  331.8181
 127  405.3309
 128  478.4654
 129  385.1043
 130  325.4876
 131  391.3934
 132  462.9644
 133  520.7837
 134  429.8775
 135  354.9504
 136  312.5641
 137  418.6604
 138  559.4766
 139  391.5511
 140  281.4484
 141  396.6572
 142  442.64
 143  493.8682
 144  432.722
 145  433.3121
 146  358.1176
 147  331.8472
 148  545.6915
 149  458.9764
 150  548.0117
 151  656.4598
 152  531.0978
 153  561.1825
 154  479.1451
 155  496.401
 156  547.6099
 157  634.763
 158  686.2946
 159  576.9382
 160  467.7347
 161  452.5828
 162  403.6504
 163  366.7301
 164  406.4931
 165  614.2673
 166  534.8583
 167  487.9023
 168  553.5541
 169  470.4662
 170  436.1967
 171  420.805
 172  457.4729
 173  396.5394
 174  331.4952
 175  403.0555
 176  435.5934
 177  405.2595
 178  419.6919
 179  387.1974
 180  446.5909
 181  453.1454
 182  381.7438
 183  425.0556
 184  519.0793
 185  437.0885
 186  360.0189
 187  282.8215
 188  340.1814
 189  428.5659
 190  373.3279
 191  462.8618
 192  396.3219
 193  306.4633
 194  305.1355
 195  427.8257
 196  401.5162
 197  370.1721
 198  280.2651
 199  387.5385
 200  480.3309
 201  464.6205
 202  367.6258
 203  335.7217
 204  401.8758
 205  460.1495
 206  503.9582
 207  395.1877
 208  418.5081
 209  457.4145
 210  435.2982
 211  315.0027
 212  315.8757
 213  485.9579
 214  486.1588
 215  409.2655
 216  411.2047
 217  243.0901
 218  413.0394
 219  412.4853
 220  353.7266
 221  351.1635
 222  412.7403
 223  453.3523
 224  454.4734
 225  423.6142
 226  338.6401
 227  325.9726
 228  350.1844
 229  326.0822
 230  373.961
 231  337.9368
 232  336.8295
 233  427.4012
 234  398.7268
 235  320.2382
 236  238.9681
 237  310.8032
 238  500.0563
 239  433.4355
 240  259.2047
 241  318.0644
 242  449.9626
 243  357.9048
 244  423.3385
 245  451.1934
 246  419.4595
 247  403.504
 248  357.7448
 249  349.1376
 250  330.2989
 251  380.0837
 252  424.8156
 253  459.4161
 254  404.7028
 255  357.9377
 256  408.0109
 257  507.3236
 258  358.518
 259  277.2555
 260  306.426
 261  418.7604
 262  401.3665
 263  366.8394
 264  437.5461
 265  410.0284
 266  419.6335
 267  398.2517
 268  520.5546
 269  528.0599
 270  337.9472
 271  315.435
 272  333.7994
 273  392.8953
 274  416.2172
 275  490.7691
 276  429.9059
 277  425.6588
 278  504.7183
 279  386.0177
 280  495.2258
 281  408.1315
 282  442.1812
 283  380.2484
 284  362.31
 285  386.8511
 286  351.8629
 287  311.1712
 288  460.2124
 289  401.0273
 290  376.5309
 291  387.7512
 292  379.4944
 293  344.0495
 294  325.6035
 295  427.1932
 296  352.6263
 297  339.1059
 298  317.1936
 299  329.1293
 300  394.2012
 301  393.0164
 302  379.8695
 303  353.4909
 304  368.5001
 305  376.8195
 306  358.8605
 307  250.4189
 308  357.2165
 309  347.9609
 310  256.0616
 311  398.3762
 312  396.4316
 313  436.3138
 314  484.6568
 315  394.7696
 316  422.0682
 317  372.7526
 318  473.1837
 319  454.7415
 320  433.8389
 321  415.7894
 322  447.7029
 323  377.1136
 324  427.1939
 325  342.3414
 326  381.7984
 327  421.0336
 328  365.0534
 329  303.5787
 330  313.3886
 331  274.4032
 332  318.7446
 333  396.2415
 334  376.0304
 335  352.9044
 336  312.3975
 337  162.2109
 338  197.6411
 339  254.2032
 340  251.1931
 341  280.2705
 342  456.7152
 343  416.3109
 344  327.0973
 345  302.7247
 346  397.2437
 347  480.1307
 348  470.1604
 349  438.8777
 350  273.9046
 351  288.851
 352  425.7132
 353  313.9715
 354  354.0784
 355  501.6197
 356  478.2933
 357  394.0402
 358  327.7428
 359  279.7084
 360  404.1845
 361  397.8232
 362  338.6523
 363  241.72
 364  203.6982
 365  155.0809
 366  171.233
 367  352.7918
 368  322.4208
 369  332.5968
 370  338.1643
 371  357.5012
 372  381.6264
 373  369.1612
 374  369.0825
 375  297.1904
 376  376.1947
 377  429.7025
 378  354.2234
 379  286.5846
 380  270.3626
 381  280.8072
 382  315.2704
 383  321.6161
 384  322.6411
 385  422.9027
 386  447.1346
 387  413.6735
 388  334.3431
 389  349.4517
 390  443.3231
 391  393.892
 392  462.9384
 393  441.1584
 394  494.5099
 395  445.2568
 396  481.5439
 397  374.4057
 398  391.2659
 399  493.3341
 400  461.5517
 401  438.1106
 402  321.7716
 403  376.6559
 404  365.6462
 405  487.4659
 406  462.6771
 407  426.1325
 408  343.7194
 409  361.1928
 410  351.4572
 411  352.0703
 412  388.3624
 413  456.2915
 414  376.3446
 415  380.5672
 416  329.5195
 417  509.7565
 418  433.4327
 419  383.343
 420  349.5867
 421  379.4702
 422  514.4299
 423  563.5203
 424  446.823
 425  349.423
 426  316.3796
 427  320.6916
 428  368.3285
 429  318.2829
 430  365.5073
 431  449.0298
 432  267.0225
 433  290.9487
 434  413.4488
 435  453.4595
 436  475.6702
 437  410.0579
 438  498.7931
 439  554.2433
 440  443.5665
 441  408.8512
 442  404.2016
 443  479.0101
 444  460.5557
 445  429.4728
 446  465.5958
 447  416.5731
 448  439.4196
 449  410.2444
 450  467.3874
 451  423.3201
 452  369.5773
 453  395.214
 454  441.0683
 455  466.8899
 456  373.7645
 457  339.8841
 458  372.2552
 459  410.1349
 460  381.8683
 461  487.8093
 462  478.902
 463  436.0366
 464  518.127
 465  316.8369
 466  217.0675
 467  324.8194
 468  344.5001
 469  397.3893
 470  396.0318
 471  354.5303
 472  400.7376
 473  357.5567
 474  356.0061
 475  360.3833
 476  365.5141
 477  360.2518
 478  467.0223
 479  423.6767
 480  300.1802
 481  346.287
 482  338.5032
 483  386.6968
 484  348.4662
 485  395.4997
 486  353.7795
 487  363.2555
 488  476.5587
 489  482.208
 490  482.614
 491  535.0436
 492  553.5689
 493  531.4433
 494  509.2886
 495  397.465
 496  471.1264
 497  528.9816
 498  619.288
 499  588.5273
 500  485.6153
 501  396.2835
 502  439.3383
 503  576.5938
 504  715.4462
 505  671.2031
 506  545.2316
 507  523.7614
 508  515.6826
 509  726.3738
 510  934.0563
 511  1017.688
