# Input file       =  1201361171.110048_cleaned.dat
# Candidate        =  PSR_0332+5434
# Telescope        =  AR
# Epoch_topo       =  58148.643404051480
# Epoch_bary       =  N/A
# T_sample         =  0.002
# Data Folded      =  7340032
# Data Avg         =  0.031831135758774
# Data StdDev      =  0.999838833699006
# Profile Bins     =  512
# Profile Avg      =  455.869263424958 
# Profile StdDev   =  119.713739446186 
# Reduced chi-sqr  =  0.900
# Prob(Noise)      <  0.948   (~0.0 sigma)
# P_topo (ms)      =  714.575330615255  +/- 0.000365
# P'_topo (s/s)    =  -0                +/- 1.92e-10
# P''_topo (s/s^2) =  0                 +/- 8.49e-14
# P_bary (ms)      =  N/A
# P'_bary (s/s)    =  N/A
# P''_bary (s/s^2) =  N/A
# P_orb (s)        =  N/A
# asin(i)/c (s)    =  N/A
# eccentricity     =  N/A
# w (rad)          =  N/A
# T_peri           =  N/A
######################################################
   0  866.4573
   1  871.1685
   2  674.0182
   3  586.9631
   4  461.0202
   5  365.9886
   6  449.127
   7  459.6778
   8  449.0311
   9  376.6551
  10  314.0034
  11  387.6323
  12  412.1571
  13  412.9182
  14  501.0281
  15  496.2664
  16  365.3869
  17  349.4221
  18  353.2463
  19  424.3779
  20  509.8462
  21  450.4297
  22  427.7242
  23  436.5128
  24  431.0711
  25  475.4652
  26  406.3109
  27  398.5853
  28  447.2674
  29  435.9106
  30  329.9677
  31  282.0466
  32  333.9665
  33  404.1515
  34  477.5614
  35  439.0099
  36  428.1687
  37  416.5739
  38  462.6491
  39  377.3396
  40  315.0835
  41  414.134
  42  494.416
  43  432.3348
  44  435.6547
  45  495.8998
  46  358.8111
  47  313.1007
  48  386.5478
  49  437.1125
  50  392.8069
  51  398.4533
  52  386.5004
  53  414.2257
  54  400.6357
  55  305.0417
  56  287.9905
  57  330.0297
  58  316.7733
  59  409.5024
  60  385.5848
  61  338.8825
  62  412.9965
  63  341.4777
  64  303.7976
  65  334.874
  66  385.8405
  67  348.6167
  68  395.8205
  69  492.1223
  70  585.4186
  71  432.3468
  72  476.5036
  73  386.1909
  74  359.5533
  75  445.3311
  76  352.5792
  77  344.8581
  78  378.0717
  79  367.493
  80  324.4498
  81  354.3645
  82  355.1478
  83  369.4451
  84  495.6541
  85  521.4436
  86  427.1629
  87  375.6469
  88  411.8
  89  304.8343
  90  403.9876
  91  522.6514
  92  502.5146
  93  556.6595
  94  487.3293
  95  409.4055
  96  560.6534
  97  573.6252
  98  492.8787
  99  313.7563
 100  239.9925
 101  310.6165
 102  442.5462
 103  411.4032
 104  430.8044
 105  419.5454
 106  443.9275
 107  529.4473
 108  495.8548
 109  405.2065
 110  418.9479
 111  428.798
 112  432.263
 113  479.1238
 114  375.8955
 115  344.2962
 116  406.4897
 117  446.1302
 118  455.0604
 119  437.32
 120  513.0563
 121  446.5652
 122  485.8651
 123  419.7619
 124  421.8703
 125  450.7713
 126  433.475
 127  446.1298
 128  414.9843
 129  429.3177
 130  411.4193
 131  419.2863
 132  488.3284
 133  424.5726
 134  468.5578
 135  491.3815
 136  450.8141
 137  470.571
 138  513.4606
 139  477.8709
 140  458.4646
 141  563.6293
 142  461.6888
 143  503.3905
 144  460.756
 145  424.9041
 146  360.7062
 147  418.2969
 148  456.5568
 149  490.109
 150  463.0678
 151  365.2614
 152  235.9066
 153  247.155
 154  411.7249
 155  516.2298
 156  418.1552
 157  403.8607
 158  453.0621
 159  464.5446
 160  508.8248
 161  516.8668
 162  497.8145
 163  521.9371
 164  513.949
 165  405.8995
 166  423.3889
 167  379.8493
 168  340.8732
 169  372.9171
 170  437.5329
 171  352.8651
 172  413.9737
 173  434.1939
 174  436.4352
 175  339.0381
 176  368.0221
 177  386.4485
 178  476.0071
 179  485.6595
 180  465.2087
 181  291.6738
 182  345.5346
 183  530.3098
 184  485.4023
 185  455.653
 186  345.9445
 187  518.3304
 188  539.292
 189  479.3752
 190  419.3724
 191  445.3474
 192  470.528
 193  415.2576
 194  423.9053
 195  380.671
 196  386.5113
 197  339.6213
 198  340.419
 199  397.296
 200  427.2053
 201  420.2203
 202  326.6777
 203  353.7458
 204  486.4724
 205  472.1802
 206  416.8596
 207  444.0009
 208  488.8194
 209  475.9278
 210  358.5088
 211  375.1304
 212  441.885
 213  418.8209
 214  439.4377
 215  531.0023
 216  508.5163
 217  469.8167
 218  573.3292
 219  646.3917
 220  551.1929
 221  530.2943
 222  501.0597
 223  510.4106
 224  496.1758
 225  472.5338
 226  426.0768
 227  477.7434
 228  508.5832
 229  452.7114
 230  513.0656
 231  427.0761
 232  535.7515
 233  634.1111
 234  563.4551
 235  478.6627
 236  484.4747
 237  494.4742
 238  490.2902
 239  490.2581
 240  458.5024
 241  473.2461
 242  463.7328
 243  485.2319
 244  466.7764
 245  496.565
 246  482.3957
 247  511.3426
 248  519.2895
 249  576.7768
 250  601.9302
 251  503.4466
 252  523.4515
 253  549.0034
 254  543.0212
 255  586.1171
 256  538.5657
 257  561.5126
 258  599.6796
 259  531.1011
 260  535.4709
 261  510.1321
 262  578.7712
 263  575.4058
 264  509.452
 265  604.5266
 266  574.697
 267  485.7924
 268  508.0777
 269  505.9928
 270  464.0743
 271  505.8962
 272  531.6378
 273  483.5009
 274  578.5154
 275  676.6375
 276  509.9784
 277  374.7535
 278  513.014
 279  536.3305
 280  488.2615
 281  504.9756
 282  563.0449
 283  499.4355
 284  491.0912
 285  547.6239
 286  529.1979
 287  375.948
 288  309.3273
 289  365.4743
 290  484.6179
 291  547.7874
 292  510.7932
 293  530.7659
 294  612.6493
 295  523.4676
 296  471.8795
 297  465.06
 298  539.5113
 299  462.7418
 300  479.4742
 301  492.5152
 302  559.8109
 303  578.7029
 304  450.9381
 305  430.4316
 306  433.3578
 307  424.4498
 308  379.2899
 309  438.4897
 310  456.9532
 311  392.3899
 312  435.8018
 313  426.9579
 314  472.0508
 315  519.7897
 316  386.3868
 317  358.1002
 318  449.0504
 319  490.2911
 320  421.298
 321  411.1187
 322  409.5815
 323  459.2716
 324  553.1795
 325  565.8591
 326  549.0089
 327  516.1736
 328  510.7159
 329  484.7962
 330  462.8275
 331  510.843
 332  464.2745
 333  514.402
 334  514.1146
 335  547.1591
 336  541.7106
 337  519.7082
 338  434.947
 339  403.944
 340  478.7396
 341  523.2141
 342  401.016
 343  343.1109
 344  481.2379
 345  415.9132
 346  390.6671
 347  425.7022
 348  396.3445
 349  472.5919
 350  405.1192
 351  329.7726
 352  461.0363
 353  388.4361
 354  353.7267
 355  461.1866
 356  389.1662
 357  298.2394
 358  266.0459
 359  447.4079
 360  457.756
 361  388.7365
 362  386.399
 363  443.9131
 364  405.4666
 365  457.7489
 366  469.4915
 367  414.935
 368  371.4313
 369  336.1057
 370  360.857
 371  368.836
 372  422.2357
 373  424.48
 374  479.0575
 375  494.1863
 376  476.0848
 377  414.4942
 378  337.6978
 379  357.2211
 380  433.0825
 381  448.879
 382  509.1413
 383  563.7772
 384  452.0707
 385  462.2438
 386  576.7003
 387  452.9312
 388  425.9032
 389  485.0036
 390  496.8027
 391  470.5055
 392  527.0011
 393  485.0967
 394  481.0565
 395  419.3348
 396  498.2332
 397  530.4713
 398  436.1205
 399  540.4686
 400  580.7951
 401  566.5861
 402  491.3672
 403  414.1842
 404  494.1984
 405  418.2917
 406  343.165
 407  429.2909
 408  512.361
 409  584.7019
 410  549.5501
 411  562.7656
 412  499.3264
 413  425.8023
 414  472.8823
 415  559.8608
 416  490.7952
 417  602.5427
 418  578.442
 419  471.1643
 420  464.823
 421  431.9943
 422  450.8539
 423  466.9991
 424  480.4178
 425  439.1198
 426  494.363
 427  503.8242
 428  453.684
 429  506.7282
 430  525.2137
 431  478.437
 432  518.2933
 433  519.6554
 434  393.024
 435  438.5979
 436  481.3835
 437  480.1724
 438  572.1783
 439  506.6663
 440  383.7817
 441  451.4273
 442  461.9355
 443  482.8772
 444  596.1254
 445  574.3917
 446  697.0706
 447  609.1988
 448  554.3032
 449  480.4067
 450  452.7497
 451  461.0466
 452  396.9413
 453  425.36
 454  496.4146
 455  442.7891
 456  430.012
 457  452.1684
 458  377.393
 459  508.3969
 460  490.6731
 461  487.119
 462  490.984
 463  482.7076
 464  459.8316
 465  489.8054
 466  451.8785
 467  493.5728
 468  413.9081
 469  455.7332
 470  347.795
 471  285.458
 472  411.1664
 473  436.2243
 474  355.4177
 475  406.7182
 476  369.5553
 477  354.9814
 478  349.1387
 479  394.1862
 480  447.5491
 481  437.5151
 482  363.8357
 483  352.0824
 484  429.191
 485  473.817
 486  445.2498
 487  392.6623
 488  402.8212
 489  363.4466
 490  408.5083
 491  466.0194
 492  539.5928
 493  510.6483
 494  430.6296
 495  411.5733
 496  370.4282
 497  397.9133
 498  423.7913
 499  394.7472
 500  513.0591
 501  474.682
 502  418.5872
 503  450.4545
 504  581.065
 505  556.6467
 506  449.6118
 507  416.0868
 508  497.807
 509  691.7106
 510  801.0694
 511  962.6909
