# Input file       =  1201117473.116012_cleaned.dat
# Candidate        =  PSR_0332+5434
# Telescope        =  AR
# Epoch_topo       =  58145.822825416806
# Epoch_bary       =  N/A
# T_sample         =  0.002
# Data Folded      =  7340032
# Data Avg         =  0.0210463185604974
# Data StdDev      =  0.999865054535584
# Profile Bins     =  512
# Profile Avg      =  301.670089416997 
# Profile StdDev   =  119.716878946566 
# Reduced chi-sqr  =  0.988
# Prob(Noise)      <  0.569   (~0.0 sigma)
# P_topo (ms)      =  714.574383930909  +/- 0.000506
# P'_topo (s/s)    =  -0                +/- 2.67e-10
# P''_topo (s/s^2) =  0                 +/- 1.18e-13
# P_bary (ms)      =  N/A
# P'_bary (s/s)    =  N/A
# P''_bary (s/s^2) =  N/A
# P_orb (s)        =  N/A
# asin(i)/c (s)    =  N/A
# eccentricity     =  N/A
# w (rad)          =  N/A
# T_peri           =  N/A
######################################################
   0  782.1099
   1  660.851
   2  619.8221
   3  417.539
   4  332.988
   5  323.3679
   6  336.7192
   7  325.1226
   8  298.089
   9  255.0122
  10  297.0177
  11  263.162
  12  378.9028
  13  417.6957
  14  319.854
  15  324.5098
  16  358.2168
  17  366.218
  18  341.0346
  19  419.64
  20  327.3694
  21  205.6079
  22  256.6664
  23  327.6469
  24  331.8455
  25  259.9401
  26  265.6617
  27  246.9811
  28  249.5054
  29  276.4005
  30  322.9291
  31  430.0692
  32  314.6164
  33  166.2621
  34  160.4459
  35  249.0782
  36  238.5276
  37  251.2975
  38  342.2407
  39  257.9826
  40  203.7473
  41  184.1828
  42  122.8157
  43  103.9693
  44  202.6253
  45  203.8262
  46  202.4259
  47  243.9545
  48  214.5018
  49  143.7708
  50  168.1959
  51  192.806
  52  120.3227
  53  87.41711
  54  127.4439
  55  277.6659
  56  298.1544
  57  249.0126
  58  242.6922
  59  250.8565
  60  223.919
  61  274.7043
  62  243.9919
  63  185.1623
  64  279.3746
  65  234.0647
  66  210.2088
  67  115.8403
  68  123.3418
  69  274.881
  70  408.9291
  71  391.9238
  72  221.8197
  73  146.1567
  74  322.0752
  75  453.8561
  76  334.2054
  77  231.5441
  78  239.683
  79  303.3776
  80  264.9802
  81  257.7693
  82  293.4163
  83  288.5589
  84  210.4609
  85  258.9244
  86  290.2621
  87  210.124
  88  273.8641
  89  288.5981
  90  319.411
  91  193.8553
  92  244.2173
  93  368.8569
  94  378.4394
  95  367.7876
  96  369.906
  97  363.3228
  98  300.7761
  99  272.5986
 100  287.887
 101  253.6098
 102  224.6709
 103  300.1583
 104  252.5687
 105  182.9309
 106  162.5259
 107  251.7867
 108  187.5173
 109  308.1038
 110  317.0966
 111  293.8477
 112  293.0294
 113  347.2699
 114  359.0433
 115  222.1377
 116  310.6636
 117  331.4247
 118  349.1259
 119  222.8286
 120  220.6398
 121  236.5956
 122  249.8896
 123  263.8442
 124  393.3922
 125  376.6127
 126  290.2327
 127  235.8419
 128  314.8326
 129  445.9471
 130  329
 131  250.8906
 132  358.4247
 133  323.455
 134  245.9932
 135  256.5275
 136  287.7818
 137  348.0545
 138  295.5323
 139  223.8244
 140  137.2266
 141  170.6606
 142  260.7119
 143  340.1485
 144  227.9071
 145  214.542
 146  91.8065
 147  206.4558
 148  305.4369
 149  270.8448
 150  178.1275
 151  250.0558
 152  331.753
 153  313.1877
 154  309.5304
 155  250.2125
 156  338.5599
 157  345.671
 158  381.0874
 159  393.1809
 160  352.1032
 161  298.8734
 162  273.2549
 163  282.0378
 164  244.8678
 165  268.056
 166  276.5802
 167  289.515
 168  342.6508
 169  326.7142
 170  300.8501
 171  224.6854
 172  250.1568
 173  336.0645
 174  337.4861
 175  387.794
 176  280.6328
 177  302.9637
 178  319.2568
 179  426.7456
 180  347.8736
 181  255.1364
 182  267.3375
 183  286.8284
 184  240.9303
 185  370.7027
 186  293.7862
 187  243.7321
 188  227.1351
 189  331.7497
 190  467.0283
 191  334.5095
 192  306.2083
 193  417.2237
 194  302.6514
 195  367.7364
 196  386.5034
 197  324.8965
 198  181.7574
 199  232.8727
 200  322.122
 201  211.2535
 202  154.0434
 203  268.0182
 204  330.71
 205  215.9461
 206  200.762
 207  282.4648
 208  277.4121
 209  254.3873
 210  315.3336
 211  267.0998
 212  356.0444
 213  376.076
 214  369.2494
 215  247.8834
 216  252.0187
 217  293.4225
 218  392.8282
 219  333.825
 220  329.4152
 221  342.8778
 222  338.2928
 223  266.48
 224  282.1859
 225  190.9102
 226  268.957
 227  397.359
 228  336.8904
 229  289.6352
 230  294.6191
 231  243.3168
 232  241.6658
 233  233.132
 234  362.1004
 235  362.3571
 236  330.9946
 237  408.6318
 238  437.4109
 239  290.1814
 240  248.5123
 241  287.2622
 242  438.0134
 243  430.629
 244  365.3361
 245  239.7915
 246  197.5066
 247  195.0882
 248  301.1148
 249  284.0182
 250  176.9974
 251  241.5635
 252  292.8026
 253  202.749
 254  175.8894
 255  240.7366
 256  329.694
 257  413.7768
 258  446.1414
 259  490.8081
 260  389.34
 261  452.4875
 262  471.6331
 263  386.9421
 264  332.1446
 265  294.2997
 266  286.7375
 267  315.3372
 268  281.0889
 269  265.552
 270  257.0714
 271  202.1238
 272  269.4424
 273  272.0759
 274  412.7019
 275  259.9328
 276  206.5188
 277  360.7303
 278  378.0696
 279  320.3848
 280  329.2558
 281  435.3918
 282  347.8369
 283  430.9424
 284  301.9742
 285  376.9448
 286  432.0604
 287  370.7605
 288  440.3375
 289  390.6973
 290  386.5757
 291  371.9981
 292  410.4947
 293  429.6118
 294  345.4126
 295  233.1155
 296  244.6712
 297  450.8565
 298  446.1012
 299  381.1435
 300  528.8772
 301  578.1839
 302  351.1016
 303  337.4998
 304  421.7578
 305  263.7678
 306  305.286
 307  407.6699
 308  362.53
 309  288.7293
 310  321.0237
 311  298.2166
 312  354.502
 313  380.2122
 314  320.1595
 315  279.6183
 316  408.6529
 317  304.554
 318  200.7666
 319  226.8526
 320  217.6979
 321  327.1046
 322  385.5506
 323  234.5849
 324  193.8003
 325  180.6904
 326  278.6071
 327  261.7443
 328  329.9357
 329  418.5067
 330  336.8155
 331  363.9967
 332  427.7137
 333  373.524
 334  213.5702
 335  275.9942
 336  240.2514
 337  265.3542
 338  374.8825
 339  335.3947
 340  269.5794
 341  239.0935
 342  180.6731
 343  329.3464
 344  281.0068
 345  329.3294
 346  249.8454
 347  205.9723
 348  253.8522
 349  413.119
 350  420.3943
 351  349.073
 352  286.0841
 353  300.8684
 354  276.757
 355  345.3952
 356  362.6403
 357  384.1115
 358  364.457
 359  251.1988
 360  240.0596
 361  221.0106
 362  253.8333
 363  204.6866
 364  172.5823
 365  180.1938
 366  307.9173
 367  311.7473
 368  350.1418
 369  271.6327
 370  216.3714
 371  250.8508
 372  260.7189
 373  301.8984
 374  186.0525
 375  163.1388
 376  255.104
 377  295.7326
 378  436.6746
 379  295.7834
 380  308.108
 381  289.0351
 382  375.8498
 383  366.5475
 384  216.988
 385  301.8657
 386  235.2341
 387  160.5222
 388  208.2486
 389  299.8027
 390  87.16722
 391  186.6937
 392  287.4118
 393  255.9473
 394  272.1539
 395  398.179
 396  406.831
 397  198.0704
 398  231.5221
 399  355.3236
 400  233.6726
 401  223.0435
 402  301.6229
 403  255.5155
 404  334.8733
 405  307.1667
 406  365.7865
 407  350.3187
 408  355.9462
 409  404.8382
 410  373.3408
 411  288.028
 412  287.055
 413  209.8962
 414  255.5129
 415  302.2545
 416  276.5537
 417  257.5927
 418  288.3299
 419  237.6895
 420  146.5562
 421  215.3512
 422  267.6909
 423  303.8076
 424  339.8209
 425  315.3131
 426  356.5298
 427  378.7228
 428  359.5185
 429  322.9417
 430  303.5923
 431  340.7343
 432  483.9843
 433  399.9123
 434  349.0445
 435  336.9488
 436  405.77
 437  366.0151
 438  288.6604
 439  290.1038
 440  289.6499
 441  287.0993
 442  261.4615
 443  218.005
 444  325.9806
 445  312.5059
 446  284.1805
 447  283.9706
 448  262.3252
 449  214.8221
 450  223.8508
 451  265.3391
 452  248.7696
 453  405.8653
 454  448.3693
 455  309.3041
 456  276.3375
 457  267.9049
 458  402.0175
 459  156.0958
 460  142.8709
 461  238.4049
 462  390.1317
 463  413.0594
 464  401.9594
 465  389.0043
 466  384.5262
 467  247.6951
 468  302.6625
 469  330.846
 470  300.5205
 471  392.6017
 472  348.2439
 473  275.78
 474  255.7742
 475  243.4708
 476  259.4112
 477  299.7887
 478  275.157
 479  283.7671
 480  247.2603
 481  142.879
 482  169.8571
 483  260.7151
 484  354.5571
 485  349.3402
 486  333.6694
 487  329.7537
 488  238.1733
 489  281.459
 490  343.5674
 491  267.766
 492  248.963
 493  336.0523
 494  382.0806
 495  233.3226
 496  177.4478
 497  326.2295
 498  379.9927
 499  362.9495
 500  283.4861
 501  363.6811
 502  424.4825
 503  349.2812
 504  442.4772
 505  437.0317
 506  378.8008
 507  424.0434
 508  463.5301
 509  547.0955
 510  650.9425
 511  675.9034
