# Input file       =  1201806917.117477_cleaned.dat
# Candidate        =  PSR_0332+5434
# Telescope        =  AR
# Epoch_topo       =  58153.802501359685
# Epoch_bary       =  N/A
# T_sample         =  0.002
# Data Folded      =  7340032
# Data Avg         =  0.0170963221884193
# Data StdDev      =  1.00001848605559 
# Profile Bins     =  512
# Profile Avg      =  244.999438645831 
# Profile StdDev   =  119.735249768332 
# Reduced chi-sqr  =  1.023
# Prob(Noise)      <  0.349   (~0.4 sigma)
# P_topo (ms)      =  714.577687693837  +/- 0.000407
# P'_topo (s/s)    =  -0                +/- 2.15e-10
# P''_topo (s/s^2) =  0                 +/- 9.48e-14
# P_bary (ms)      =  N/A
# P'_bary (s/s)    =  N/A
# P''_bary (s/s^2) =  N/A
# P_orb (s)        =  N/A
# asin(i)/c (s)    =  N/A
# eccentricity     =  N/A
# w (rad)          =  N/A
# T_peri           =  N/A
######################################################
   0  691.8346
   1  771.9461
   2  634.0676
   3  430.0377
   4  247.9522
   5  311.955
   6  297.1108
   7  307.9771
   8  208.6375
   9  204.2559
  10  224.8122
  11  282.2738
  12  367.9271
  13  225.7362
  14  145.5312
  15  325.6444
  16  336.1929
  17  304.3728
  18  306.333
  19  300.3277
  20  172.6787
  21  137.5917
  22  242.8378
  23  191.394
  24  293.5853
  25  310.7079
  26  320.1676
  27  250.5156
  28  187.8586
  29  284.6441
  30  278.2245
  31  219.0245
  32  176.3596
  33  278.0298
  34  298.2965
  35  164.9818
  36  297.4812
  37  312.2827
  38  188.6867
  39  263.4259
  40  260.0209
  41  293.6524
  42  293.4248
  43  175.1854
  44  191.2151
  45  231.4582
  46  241.4746
  47  293.7256
  48  223.3596
  49  178.323
  50  220.0661
  51  241.405
  52  215.5445
  53  221.5292
  54  304.2672
  55  156.4204
  56  173.9973
  57  224.8739
  58  213.1223
  59  263.5421
  60  193.2491
  61  148.7891
  62  179.9517
  63  304.6824
  64  251.7242
  65  314.6759
  66  189.1845
  67  133.4696
  68  168.7311
  69  317.2116
  70  207.1188
  71  176.7656
  72  158.7234
  73  217.6403
  74  175.2532
  75  218.8483
  76  157.1733
  77  93.61642
  78  202.2171
  79  139.5542
  80  227.8042
  81  317.5202
  82  240.8407
  83  176.8059
  84  114.3954
  85  234.4722
  86  303.8845
  87  228.6876
  88  132.4677
  89  189.1501
  90  270.8924
  91  249.9187
  92  267.4626
  93  306.1635
  94  258.3535
  95  121.7774
  96  118.6379
  97  145.1879
  98  89.50832
  99  102.9165
 100  210.8557
 101  248.7405
 102  202.1198
 103  222.934
 104  246.5687
 105  294.025
 106  240.3411
 107  189.8096
 108  140.849
 109  167.6492
 110  192.916
 111  122.0652
 112  177.1206
 113  173.3711
 114  166.8665
 115  183.1346
 116  207.1566
 117  232.3441
 118  301.0373
 119  307.6472
 120  271.6078
 121  213.6908
 122  266.0956
 123  389.5974
 124  333.1588
 125  229.0885
 126  288.053
 127  351.9112
 128  413.0961
 129  262.2887
 130  226.4081
 131  296.7579
 132  321.7998
 133  206.2128
 134  121.8597
 135  161.2766
 136  205.5885
 137  307.2549
 138  241.775
 139  118.5811
 140  223.2368
 141  176.1496
 142  207.2673
 143  210.2903
 144  227.9364
 145  267.1357
 146  185.683
 147  132.3485
 148  275.4299
 149  314.5014
 150  226.6945
 151  207.3539
 152  255.6063
 153  177.4801
 154  178.89
 155  184.646
 156  216.167
 157  167.1416
 158  213.9259
 159  220.8123
 160  148.1397
 161  203.7378
 162  174.7841
 163  181.9774
 164  155.6084
 165  274.5996
 166  313.2147
 167  303.77
 168  121.1404
 169  64.18963
 170  160.7204
 171  233.7408
 172  285.6464
 173  299.8984
 174  270.5396
 175  295.5151
 176  347.8664
 177  361.0882
 178  367.8422
 179  358.67
 180  401.4798
 181  384.8154
 182  266.236
 183  306.1384
 184  501.2258
 185  381.5618
 186  275.7884
 187  205.9474
 188  292.4247
 189  308.4686
 190  352.8432
 191  321.8449
 192  211.166
 193  180.5723
 194  311.6911
 195  301.0356
 196  276.1869
 197  394.4156
 198  388.203
 199  417.4487
 200  307.6729
 201  250.5383
 202  252.3805
 203  119.1661
 204  111.3396
 205  230.836
 206  281.3431
 207  264.9937
 208  267.3261
 209  195.4258
 210  307.6757
 211  194.1708
 212  168.274
 213  146.1129
 214  202.5816
 215  252.1612
 216  272.8524
 217  302.954
 218  202.9303
 219  212.2333
 220  355.7612
 221  315.8627
 222  327.1743
 223  296.3248
 224  387.7283
 225  209.4878
 226  140.6802
 227  145.0194
 228  176.0667
 229  137.0137
 230  264.7377
 231  232.3975
 232  71.65469
 233  266.9082
 234  384.5913
 235  358.8759
 236  274.7591
 237  248.7389
 238  239.0709
 239  183.3558
 240  278.3161
 241  390.8246
 242  320.0818
 243  253.9324
 244  320.0695
 245  291.4998
 246  285.9096
 247  266.4466
 248  337.3661
 249  305.5201
 250  231.9378
 251  329.4634
 252  239.566
 253  261.0603
 254  215.1924
 255  455.6372
 256  265.0602
 257  184.3456
 258  319.1722
 259  299.4651
 260  272.6977
 261  159.4529
 262  205.6863
 263  305.7764
 264  225.6225
 265  190.5175
 266  303.6595
 267  292.8238
 268  249.5891
 269  244.0622
 270  167.52
 271  192.9547
 272  191.3594
 273  308.8131
 274  250.4284
 275  177.6998
 276  262.8268
 277  246.6987
 278  239.2241
 279  269.0946
 280  245.651
 281  232.8262
 282  263.7856
 283  267.9912
 284  190.7839
 285  202.7601
 286  189.6927
 287  97.14005
 288  138.2241
 289  172.8497
 290  171.8574
 291  266.2311
 292  299.6246
 293  190.1141
 294  161.2183
 295  283.1504
 296  298.1626
 297  241.4444
 298  115.739
 299  322.0347
 300  297.8018
 301  182.5415
 302  244.8021
 303  217.4688
 304  268.7214
 305  261.09
 306  328.5789
 307  262.9134
 308  192.4276
 309  245.4324
 310  171.7051
 311  260.639
 312  201.968
 313  222.8825
 314  204.6765
 315  234.2068
 316  234.1018
 317  188.6926
 318  230.3238
 319  146.6567
 320  158.7449
 321  94.92079
 322  143.4918
 323  201.4123
 324  203.4162
 325  311.7847
 326  318.6297
 327  178.3758
 328  186.4007
 329  255.5696
 330  161.9379
 331  196.1602
 332  231.6407
 333  244.8176
 334  310.2908
 335  193.2955
 336  191.2625
 337  358.6444
 338  265.6208
 339  223.9243
 340  335.2414
 341  336.3012
 342  278.4142
 343  216.5948
 344  216.8698
 345  190.0194
 346  188.3187
 347  346.3121
 348  230.1156
 349  276.3066
 350  291.9901
 351  206.7889
 352  151.6761
 353  174.3287
 354  207.4446
 355  266.9913
 356  342.8972
 357  339.4337
 358  294.0622
 359  188.4576
 360  179.2058
 361  200.0472
 362  180.5914
 363  294.009
 364  240.8965
 365  274.5516
 366  216.4694
 367  259.3911
 368  201.2411
 369  181.4327
 370  216.671
 371  186.0471
 372  207.0125
 373  241.3124
 374  129.4809
 375  164.7193
 376  191.5876
 377  222.7921
 378  238.4774
 379  424.3555
 380  381.4026
 381  200.2729
 382  161.9645
 383  172.7453
 384  197.1687
 385  316.2548
 386  246.3227
 387  68.82896
 388  117.8657
 389  218.4119
 390  320.8602
 391  252.8706
 392  190.2906
 393  187.0426
 394  300.2888
 395  262.2478
 396  177.9422
 397  159.181
 398  232.58
 399  173.1507
 400  220.0636
 401  304.9011
 402  121.1285
 403  210.1168
 404  385.558
 405  274.0246
 406  247.1359
 407  279.647
 408  177.1827
 409  154.2546
 410  104.3927
 411  303.6883
 412  160.9652
 413  191.1008
 414  283.0493
 415  321.4014
 416  201.0495
 417  305.6821
 418  344.6281
 419  198.8083
 420  277.0292
 421  358.7918
 422  303.917
 423  282.4744
 424  199.246
 425  190.953
 426  201.0471
 427  364.9815
 428  244.4577
 429  169.1953
 430  228.4018
 431  260.1035
 432  187.717
 433  115.0246
 434  187.8867
 435  247.9249
 436  240.3961
 437  223.5596
 438  203.1247
 439  336.1386
 440  218.5229
 441  144.8431
 442  167.1055
 443  141.132
 444  256.5394
 445  210.554
 446  39.42162
 447  66.12012
 448  167.7959
 449  141.8902
 450  188.9858
 451  168.3215
 452  145.8903
 453  328.6341
 454  327.9716
 455  231.3701
 456  363.4868
 457  290.3078
 458  319.7334
 459  308.4579
 460  307.6692
 461  246.9485
 462  250.2667
 463  320.567
 464  274.5585
 465  229.7158
 466  272.0483
 467  185.9545
 468  261.7937
 469  324.1743
 470  171.0871
 471  117.1079
 472  200.6606
 473  188.8166
 474  228.7507
 475  279.9603
 476  217.2422
 477  225.5198
 478  229.1607
 479  182.3059
 480  305.4819
 481  301.3231
 482  189.5191
 483  224.4299
 484  265.0593
 485  205.6117
 486  132.5628
 487  208.2807
 488  310.32
 489  270.6828
 490  173.6028
 491  156.5161
 492  327.7831
 493  413.4684
 494  319.3528
 495  231.9027
 496  222.4641
 497  140.5911
 498  179.1731
 499  307.7867
 500  148.3642
 501  276.9047
 502  301.2864
 503  296.7714
 504  238.1125
 505  437.9661
 506  376.4716
 507  309.4224
 508  457.7682
 509  647.3876
 510  782.9268
 511  735.2554
