# Input file       =  1201806917.117477_cleaned.dat
# Candidate        =  PSR_0332+5434
# Telescope        =  AR
# Epoch_topo       =  58153.802501359685
# Epoch_bary       =  N/A
# T_sample         =  0.002
# Data Folded      =  7340032
# Data Avg         =  0.0170963221884193
# Data StdDev      =  1.00001848605559 
# Profile Bins     =  512
# Profile Avg      =  244.999410462113 
# Profile StdDev   =  119.735249768332 
# Reduced chi-sqr  =  1.023
# Prob(Noise)      <  0.352   (~0.4 sigma)
# P_topo (ms)      =  714.577688776267  +/- 0.000402
# P'_topo (s/s)    =  -0                +/- 2.12e-10
# P''_topo (s/s^2) =  0                 +/- 9.37e-14
# P_bary (ms)      =  N/A
# P'_bary (s/s)    =  N/A
# P''_bary (s/s^2) =  N/A
# P_orb (s)        =  N/A
# asin(i)/c (s)    =  N/A
# eccentricity     =  N/A
# w (rad)          =  N/A
# T_peri           =  N/A
######################################################
   0  275.1682
   1  164.3374
   2  221.4038
   3  262.6201
   4  202.1997
   5  113.0028
   6  175.2788
   7  247.9669
   8  243.0607
   9  218.2342
  10  201.8826
  11  322.0953
  12  243.3803
  13  142.882
  14  168.1508
  15  140.1931
  16  243.9653
  17  228.8427
  18  58.16439
  19  46.37153
  20  162.484
  21  149.2847
  22  176.7923
  23  177.823
  24  142.1822
  25  292.7768
  26  361.5949
  27  223.4408
  28  349.9193
  29  305.8383
  30  308.571
  31  308.6544
  32  305.4118
  33  262.0251
  34  241.399
  35  317.1987
  36  286.6237
  37  229.0831
  38  275.1696
  39  192.4492
  40  245.3552
  41  328.1671
  42  181.1169
  43  124.6782
  44  186.1552
  45  199.3835
  46  214.5508
  47  273.5522
  48  231.0659
  49  218.6039
  50  243.4231
  51  171.5691
  52  288.0313
  53  315.1457
  54  199.2814
  55  221.0519
  56  256.2785
  57  216.7267
  58  137.9489
  59  199.6809
  60  297.6087
  61  286.1301
  62  178.207
  63  148.7285
  64  305.714
  65  415.6613
  66  329.5344
  67  244.8561
  68  220.5139
  69  153.0586
  70  158.813
  71  306.606
  72  162.6211
  73  261.6802
  74  296.7402
  75  305.9001
  76  228.5002
  77  419.6944
  78  389.0797
  79  316.6608
  80  425.3924
  81  631.7205
  82  762.4631
  83  758.8472
  84  679.2092
  85  778.8526
  86  656.6014
  87  457.6399
  88  262.1903
  89  298.9117
  90  300.5009
  91  305.391
  92  219.2097
  93  203.3162
  94  225.0371
  95  265.9162
  96  362.6515
  97  256.6955
  98  137.3726
  99  311.0346
 100  334.2643
 101  307.0696
 102  303.5579
 103  306.0494
 104  198.8773
 105  120.1079
 106  245.5277
 107  185.2577
 108  280.0653
 109  317.7108
 110  318.112
 111  265.9236
 112  185.3083
 113  267.7196
 114  292.6972
 115  223.9694
 116  172.5862
 117  268.0447
 118  307.6227
 119  178.7758
 120  267.08
 121  327.12
 122  196.7166
 123  250.5293
 124  270.0411
 125  274.7472
 126  311.2734
 127  176.564
 128  193.731
 129  220.218
 130  248.3636
 131  289.1355
 132  235.6848
 133  176.6155
 134  214.8094
 135  232.841
 136  230.3068
 137  209.5552
 138  299.6926
 139  182.2737
 140  154.1113
 141  233.2219
 142  203.4839
 143  271.1166
 144  211.9566
 145  142.0732
 146  164.371
 147  297.4143
 148  255.2054
 149  312.8313
 150  208.414
 151  141.9516
 152  146.5612
 153  309.1948
 154  209.7606
 155  190.6777
 156  149.3721
 157  224.3585
 158  170.1158
 159  219.9623
 160  171.796
 161  91.84739
 162  190.6719
 163  152.012
 164  201.9169
 165  321.4354
 166  251.9743
 167  185.6011
 168  113.8763
 169  214.6265
 170  310.2814
 171  238.0655
 172  140.9536
 173  171.9548
 174  265.0884
 175  248.0701
 176  271.9649
 177  294.3282
 178  277.1606
 179  141.9653
 180  109.5585
 181  146.1364
 182  99.43964
 183  90.97197
 184  191.171
 185  258.7534
 186  194.6903
 187  221.5918
 188  250.4147
 189  290.2551
 190  250.1259
 191  187.737
 192  158.4365
 193  148.9173
 194  208.8771
 195  116.5934
 196  166.6473
 197  183.5817
 198  167.5047
 199  175.5274
 200  210.0242
 201  221.3296
 202  297.2517
 203  309.8323
 204  275.0102
 205  218.0607
 206  255.5129
 207  378.7031
 208  351.0885
 209  224.4143
 210  279.5132
 211  336.5563
 212  423.6953
 213  279.5427
 214  223.9946
 215  286.7814
 216  325.588
 217  221.1433
 218  128.5941
 219  154.6699
 220  198.5107
 221  290.3031
 222  273.1001
 223  118.1886
 224  213.5986
 225  184.4377
 226  198.7166
 227  213.8976
 228  217.3101
 229  263.0112
 230  213.0754
 231  120.2035
 232  265.9333
 233  307.347
 234  243.4883
 235  196.0359
 236  265.6349
 237  185.7603
 238  171.8361
 239  182.5123
 240  214.0753
 241  174.7256
 242  201.6074
 243  238.1112
 244  143.7066
 245  198.1591
 246  178.5494
 247  186.9908
 248  144.6687
 249  266.7193
 250  307.4854
 251  311.3047
 252  144.496
 253  63.23656
 254  141.1033
 255  235.7411
 256  270.8846
 257  305.4047
 258  274.6294
 259  287.4638
 260  334.5728
 261  369.0174
 262  372.1281
 263  352.7086
 264  402.6038
 265  387.2177
 266  282.7798
 267  279.8718
 268  492.3375
 269  406.6105
 270  283.2852
 271  203.8667
 272  287.4068
 273  302.6231
 274  353.9106
 275  328.7039
 276  235.2761
 277  166.8696
 278  289.5734
 279  313.8822
 280  262.7549
 281  394.9522
 282  390.3411
 283  414.9943
 284  321.6596
 285  254.2825
 286  256.3467
 287  138.7654
 288  102.0206
 289  208.9761
 290  284.6435
 291  264.4453
 292  277.2047
 293  185.7207
 294  307.4617
 295  210.7935
 296  164.349
 297  147.0957
 298  187.1737
 299  255.9434
 300  271.855
 301  303.4191
 302  219.1145
 303  191.5968
 304  345.2528
 305  323.9876
 306  324.5446
 307  295.8582
 308  384.7291
 309  237.6531
 310  142.5596
 311  135.9755
 312  185.4004
 313  126.8148
 314  247.9175
 315  259.2118
 316  75.52745
 317  230.3491
 318  381.5653
 319  366.1829
 320  275.264
 321  263.6665
 322  245.719
 323  183.9068
 324  260.6767
 325  387.2314
 326  323.1191
 327  257.2419
 328  312.7847
 329  308.5574
 330  276.5618
 331  267.9861
 332  321.9452
 333  328.9548
 334  221.728
 335  336.6719
 336  238.5357
 337  268.365
 338  189.875
 339  451.8569
 340  293.0543
 341  177.4316
 342  306.7138
 343  308.8585
 344  277.5225
 345  170.5136
 346  194.9151
 347  293.4617
 348  249.4934
 349  178.5706
 350  289.4272
 351  305.2014
 352  244.3527
 353  246.7536
 354  180.2636
 355  190.763
 356  183.3087
 357  300.1657
 358  268.5356
 359  173.0259
 360  255.6871
 361  250.0906
 362  243.7037
 363  259.0745
 364  252.181
 365  229.5672
 366  258.3174
 367  279.7855
 368  197.42
 369  201.8315
 370  191.3396
 371  102.9725
 372  132.2788
 373  176.697
 374  159.2024
 375  256.9251
 376  302.8059
 377  209.0871
 378  150.3626
 379  266.4886
 380  304.1611
 381  259.4952
 382  115.0462
 383  295.3894
 384  315.7362
 385  187.391
 386  244.3318
 387  208.7765
 388  271.6096
 389  253.5933
 390  325.2272
 391  280.99
 392  186.0209
 393  247.2245
 394  177.5609
 395  250.1296
 396  211.1443
 397  215.1101
 398  216.8161
 399  217.8903
 400  247.1069
 401  176.9621
 402  234.7491
 403  156.5582
 404  156.8781
 405  111.9691
 406  119.8739
 407  205.294
 408  191.5415
 409  303.0759
 410  321.5991
 411  198.1685
 412  171.164
 413  269.8795
 414  162.8738
 415  192.2834
 416  231.0166
 417  228.1714
 418  316.067
 419  206.995
 420  176.2223
 421  346.3958
 422  294.9004
 423  208.6763
 424  331.5201
 425  339.2472
 426  287.8031
 427  216.977
 428  218.3181
 429  190.9356
 430  178.6697
 431  336.52
 432  246.8539
 433  256.3128
 434  314.0282
 435  205.2098
 436  154.0755
 437  178.3495
 438  189.7626
 439  264.964
 440  336.2307
 441  349.4174
 442  295.7569
 443  209.1717
 444  165.7614
 445  207.9643
 446  176.857
 447  280.0268
 448  245.7681
 449  279.5106
 450  213.2605
 451  257.9539
 452  217.498
 453  166.109
 454  223.5291
 455  194.5278
 456  195.2324
 457  249.3878
 458  137.0103
 459  155.4335
 460  189.8457
 461  217.3271
 462  225.2907
 463  405.3032
 464  403.2525
 465  222.0029
 466  148.064
 467  185.4542
 468  178.4336
 469  312.4712
 470  274.4448
 471  81.44061
 472  100.2713
 473  201.4944
 474  311.9355
 475  268.4694
 476  199.5167
 477  168.7495
 478  299.5494
 479  272.1486
 480  190.7225
 481  153.411
 482  228.1966
 483  177.351
 484  210.5706
 485  306.8795
 486  147.3485
 487  179.8849
 488  371.3644
 489  296.8892
 490  229.3389
 491  296.4992
 492  175.3712
 493  166.3745
 494  89.33308
 495  295.0758
 496  181.8096
 497  179.8425
 498  269.8372
 499  327.5217
 500  213.9918
 501  282.1404
 502  355.9741
 503  210.9847
 504  257.9524
 505  360.7365
 506  311.2479
 507  288.9171
 508  203.3446
 509  194.4149
 510  189.6765
 511  346.2819
