# Input file       =  1201017031.099187_cleaned.dat
# Candidate        =  PSR_0332+5434
# Telescope        =  AR
# Epoch_topo       =  58144.660302073920
# Epoch_bary       =  N/A
# T_sample         =  0.002
# Data Folded      =  7340032
# Data Avg         =  0.0185087814115635
# Data StdDev      =  1.00003881345013 
# Profile Bins     =  512
# Profile Avg      =  265.370263770947 
# Profile StdDev   =  119.737683629002 
# Reduced chi-sqr  =  1.204
# Prob(Noise)      <  0.00101   (~3.1 sigma)
# P_topo (ms)      =  714.573493193576  +/- 0.000307
# P'_topo (s/s)    =  -0                +/- 1.62e-10
# P''_topo (s/s^2) =  0                 +/- 7.14e-14
# P_bary (ms)      =  N/A
# P'_bary (s/s)    =  N/A
# P''_bary (s/s^2) =  N/A
# P_orb (s)        =  N/A
# asin(i)/c (s)    =  N/A
# eccentricity     =  N/A
# w (rad)          =  N/A
# T_peri           =  N/A
######################################################
   0  181.003
   1  175.9076
   2  218.9853
   3  307.0276
   4  304.064
   5  198.0482
   6  243.7902
   7  229.175
   8  267.6325
   9  278.472
  10  269.6633
  11  298.8368
  12  207.9529
  13  189.3033
  14  259.4437
  15  196.9441
  16  159.8137
  17  181.1309
  18  283.2562
  19  226.6856
  20  216.5406
  21  302.9348
  22  279.4424
  23  255.775
  24  189.4803
  25  240.4987
  26  240.8825
  27  241.2576
  28  271.0582
  29  295.9929
  30  268.5373
  31  236.7482
  32  269.2907
  33  317.1754
  34  345.6893
  35  248.5633
  36  224.836
  37  229.1863
  38  283.2286
  39  225.4352
  40  305.0362
  41  363.0133
  42  356.697
  43  353.0305
  44  328.3441
  45  277.0871
  46  144.058
  47  176.1604
  48  316.6131
  49  330.8304
  50  306.8568
  51  151.4788
  52  132.3781
  53  349.4036
  54  323.5478
  55  288.5694
  56  257.3344
  57  203.0336
  58  110.3216
  59  165.5167
  60  124.5959
  61  283.4735
  62  320.439
  63  322.9272
  64  429.6525
  65  305.2176
  66  349.6944
  67  352.5467
  68  192.6733
  69  84.34406
  70  188.4328
  71  272.4579
  72  201.8827
  73  189.0979
  74  232.3639
  75  272.8064
  76  319.1378
  77  349.9247
  78  287.1021
  79  305.5942
  80  231.478
  81  239.9052
  82  277.9976
  83  376.6102
  84  386.6536
  85  326.3999
  86  310.3331
  87  366.0872
  88  204.0221
  89  228.0224
  90  229.2709
  91  312.8933
  92  377.5915
  93  410.7068
  94  306.3841
  95  274.8235
  96  234.2862
  97  379.2855
  98  334.8798
  99  187.7157
 100  193.013
 101  273.3684
 102  137.4465
 103  260.1182
 104  397.9407
 105  366.0515
 106  310.5192
 107  236.8687
 108  191.3115
 109  239.8752
 110  275.1581
 111  320.3083
 112  366.3172
 113  317.2669
 114  295.8523
 115  321.7116
 116  336.9464
 117  239.6976
 118  245.3092
 119  294.9282
 120  275.5648
 121  278.0976
 122  292.9677
 123  316.253
 124  287.2418
 125  304.2212
 126  432.9637
 127  403.6037
 128  292.6858
 129  301.4639
 130  249.6074
 131  181.2563
 132  371.7627
 133  269.434
 134  189.3976
 135  74.42914
 136  192.9726
 137  204.6724
 138  154.7778
 139  151.8648
 140  142.1785
 141  66.97707
 142  96.51865
 143  114.7923
 144  224.5724
 145  323.6531
 146  118.5465
 147  90.80786
 148  211.9249
 149  256.9714
 150  268.7639
 151  331.5776
 152  276.8775
 153  240.1436
 154  235.0378
 155  289.3506
 156  187.9264
 157  240.5654
 158  352.9591
 159  228.0508
 160  233.5666
 161  180.5915
 162  158.1543
 163  122.3572
 164  104.5471
 165  202.5607
 166  290.5246
 167  386.1295
 168  190.0573
 169  237.1814
 170  180.7915
 171  209.4554
 172  207.9933
 173  238.0166
 174  197.6155
 175  292.1595
 176  362.8198
 177  271.91
 178  174.0098
 179  156.728
 180  227.6756
 181  225.3757
 182  170.2862
 183  151.8266
 184  180.0657
 185  134.8856
 186  193.1631
 187  190.9972
 188  130.6452
 189  160.0754
 190  213.5627
 191  223.8139
 192  121.1229
 193  202.3113
 194  143.9768
 195  78.33998
 196  39.29272
 197  141.9442
 198  178.3531
 199  201.1975
 200  283.3163
 201  313.2681
 202  347.7686
 203  265.2162
 204  319.6496
 205  307.5092
 206  292.5138
 207  270.6269
 208  272.885
 209  275.6006
 210  190.99
 211  288.2421
 212  230.7654
 213  232.0498
 214  93.0483
 215  197.093
 216  198.8247
 217  108.634
 218  218.1145
 219  252.8599
 220  343.0651
 221  293.9171
 222  216.8692
 223  174.5542
 224  167.2557
 225  166.2899
 226  265.774
 227  267.7516
 228  226.963
 229  128.4556
 230  180.7139
 231  252.736
 232  312.5262
 233  262.684
 234  304.2621
 235  294.8002
 236  275.4199
 237  186.6675
 238  86.56015
 239  207.9386
 240  274.2006
 241  247.8318
 242  363.3375
 243  332.0422
 244  199.0686
 245  289.5405
 246  342.2097
 247  343.9365
 248  278.6706
 249  282.2532
 250  375.1687
 251  376.9811
 252  274.4097
 253  261.8764
 254  247.5708
 255  254.8398
 256  306.6725
 257  378.2452
 258  239.9326
 259  204.6902
 260  278.1776
 261  235.4155
 262  143.5279
 263  258.4867
 264  400.2293
 265  204.6863
 266  186.9575
 267  299.9857
 268  346.4589
 269  314.1552
 270  296.743
 271  439.6056
 272  419.9571
 273  231.6136
 274  232.351
 275  273.8455
 276  301.4728
 277  254.9704
 278  168.7907
 279  194.9867
 280  283.5252
 281  242.5828
 282  165.4334
 283  216.5742
 284  194.8179
 285  254.5587
 286  188.0058
 287  167.8432
 288  222.2239
 289  267.2115
 290  152.1995
 291  172.6579
 292  172.6013
 293  288.056
 294  240.2993
 295  194.6134
 296  241.3536
 297  420.2837
 298  319.9853
 299  309.2272
 300  428.2315
 301  465.9363
 302  289.26
 303  53.89994
 304  202.7374
 305  252.2383
 306  290.1855
 307  174.5458
 308  276.7584
 309  295.2667
 310  309.6687
 311  369.9308
 312  388.2904
 313  395.2504
 314  387.69
 315  323.5886
 316  273.4771
 317  325.1311
 318  541.0119
 319  558.4682
 320  699.0724
 321  779.4471
 322  858.9587
 323  794.0786
 324  628.9329
 325  382.6169
 326  272.611
 327  289.0716
 328  256.6243
 329  263.8892
 330  265.751
 331  212.5221
 332  313.8448
 333  396.0951
 334  419.0352
 335  352.4181
 336  368.5445
 337  314.8154
 338  314.1492
 339  346.4304
 340  332.0447
 341  305.826
 342  127.1554
 343  208.1679
 344  223.6343
 345  145.1993
 346  121.3198
 347  183.8471
 348  224.4997
 349  284.2943
 350  356.794
 351  333.2137
 352  339.5874
 353  216.2775
 354  280.7884
 355  136.9505
 356  170.1063
 357  146.5168
 358  227.0107
 359  281.364
 360  279.9095
 361  176.96
 362  58.76074
 363  275.6473
 364  284.5864
 365  272.8315
 366  255.2947
 367  290.5278
 368  420.7133
 369  285.0715
 370  136.3605
 371  149.9348
 372  195.2216
 373  213.5417
 374  227.1926
 375  197.2907
 376  225.6507
 377  109.3482
 378  217.6752
 379  303.5247
 380  219.2964
 381  177.7907
 382  291.4701
 383  286.6132
 384  237.7731
 385  262.3345
 386  314.7392
 387  291.9794
 388  217.6398
 389  268.3312
 390  325.6265
 391  393.7724
 392  433.6485
 393  415.993
 394  400.9134
 395  354.8738
 396  212.1621
 397  136.1663
 398  228.4355
 399  290.2458
 400  335.8318
 401  307.5457
 402  321.3959
 403  248.3038
 404  206.1302
 405  299.1024
 406  305.5726
 407  289.6353
 408  171.8746
 409  128.3649
 410  214.3851
 411  265.7799
 412  192.6437
 413  168.1906
 414  253.6823
 415  253.5565
 416  269.353
 417  350.0872
 418  277.1832
 419  153.8834
 420  294.3192
 421  356.0689
 422  460.1347
 423  456.7044
 424  301.8162
 425  178.0192
 426  322.2268
 427  282.2955
 428  145.3034
 429  227.0101
 430  365.7151
 431  404.4211
 432  375.1718
 433  417.7627
 434  285.1243
 435  122.1606
 436  180.5022
 437  312.5886
 438  292.5491
 439  223.2988
 440  252.4633
 441  206.267
 442  287.0444
 443  198.1828
 444  181.7946
 445  159.8165
 446  209.2576
 447  306.5474
 448  370.882
 449  366.9736
 450  265.0094
 451  232.1001
 452  346.7601
 453  276.7002
 454  252.9154
 455  400.4141
 456  289.951
 457  175.602
 458  164.3264
 459  253.4652
 460  335.2509
 461  364.6927
 462  373.0118
 463  443.433
 464  358.6197
 465  302.5965
 466  329.1686
 467  355.9483
 468  297.8893
 469  371.3652
 470  360.2975
 471  376.5173
 472  459.9887
 473  521.0623
 474  332.7139
 475  359.9561
 476  373.2126
 477  249.8757
 478  284.9592
 479  378.4407
 480  305.8864
 481  266.4716
 482  318.0992
 483  348.2355
 484  165.1964
 485  115.4532
 486  134.8465
 487  178.1654
 488  263.1646
 489  278.2237
 490  323.2353
 491  230.3957
 492  202.7727
 493  269.9077
 494  217.9026
 495  120.1598
 496  169.3302
 497  313.1415
 498  204.5028
 499  188.7177
 500  313.1477
 501  262.1002
 502  196.8327
 503  233.6582
 504  169.4105
 505  176.7617
 506  208.1653
 507  242.7939
 508  247.5461
 509  249.048
 510  191.2125
 511  240.6367
