# Input file       =  1201203673.107899-PSRB0329-2ms-sampling-dd.dat
# Candidate        =  PSR_0332+5434
# Telescope        =  AR
# Epoch_topo       =  58146.820510508092
# Epoch_bary       =  N/A
# T_sample         =  0.002
# Data Folded      =  7340032
# Data Avg         =  4.54575802392434e-10
# Data StdDev      =  5.1968718209935  
# Profile Bins     =  512
# Profile Avg      =  0.391325682308128
# Profile StdDev   =  622.237242788405 
# Reduced chi-sqr  =  0.578
# Prob(Noise)      <  1   (~0.0 sigma)
# P_topo (ms)      =  714.574853589575  +/- 0.000132
# P'_topo (s/s)    =  -0                +/- 6.95e-11
# P''_topo (s/s^2) =  0                 +/- 3.07e-14
# P_bary (ms)      =  N/A
# P'_bary (s/s)    =  N/A
# P''_bary (s/s^2) =  N/A
# P_orb (s)        =  N/A
# asin(i)/c (s)    =  N/A
# eccentricity     =  N/A
# w (rad)          =  N/A
# T_peri           =  N/A
######################################################
   0  -245.8132
   1  -95.4127
   2  -120.0626
   3  -127.6051
   4  276.8968
   5  272.9964
   6  -103.4877
   7  -19.0113
   8  -158.6839
   9  -435.354
  10  -545.7581
  11  -116.7888
  12  -430.8569
  13  -315.0656
  14  -15.10824
  15  -69.45759
  16  -132.0929
  17  -416.2246
  18  -517.1996
  19  -108.8455
  20  26.30861
  21  -47.33308
  22  171.3567
  23  465.3399
  24  78.76308
  25  -201.25
  26  -133.6861
  27  -214.9817
  28  -307.6006
  29  -265.9222
  30  189.8917
  31  -91.1751
  32  -61.24632
  33  -47.08982
  34  72.49525
  35  229.3582
  36  376.2398
  37  778.8838
  38  762.0471
  39  798.1031
  40  755.1503
  41  809.5659
  42  240.057
  43  94.47617
  44  277.7832
  45  283.2949
  46  128.3993
  47  429.5112
  48  644.5891
  49  446.5931
  50  191.3584
  51  19.35756
  52  3.181453
  53  -185.8468
  54  -241.336
  55  308.9629
  56  316.0368
  57  63.27185
  58  68.02345
  59  325.2319
  60  360.2904
  61  234.0847
  62  112.2589
  63  164.5857
  64  431.2206
  65  197.6181
  66  11.98547
  67  257.2816
  68  574.7128
  69  546.9514
  70  -4.121471
  71  -206.7879
  72  -71.29439
  73  -133.7537
  74  150.6842
  75  354.8269
  76  171.3548
  77  138.969
  78  150.089
  79  408.1979
  80  15.38545
  81  -125.1017
  82  180.5875
  83  161.5656
  84  26.10667
  85  139.3643
  86  187.0236
  87  -85.07409
  88  109.1692
  89  305.7773
  90  128.1918
  91  152.0451
  92  213.3586
  93  30.40917
  94  -48.05349
  95  167.5326
  96  229.3683
  97  436.3216
  98  -12.02329
  99  74.77469
 100  -118.0048
 101  20.54809
 102  22.37334
 103  33.94996
 104  228.549
 105  232.3014
 106  232.4834
 107  130.0972
 108  497.458
 109  483.6609
 110  265.2092
 111  137.1753
 112  387.3601
 113  471.2952
 114  44.85462
 115  92.80367
 116  -20.17594
 117  -329.5938
 118  -265.4423
 119  45.80115
 120  338.0593
 121  -163.7487
 122  48.752
 123  208.2997
 124  -64.74866
 125  -81.11646
 126  -130.6629
 127  -22.27375
 128  200.8108
 129  129.0669
 130  34.06358
 131  17.21578
 132  86.29306
 133  141.5539
 134  455.88
 135  214.4013
 136  -190.5689
 137  -51.03763
 138  199.0665
 139  227.0778
 140  652.885
 141  710.6648
 142  625.3517
 143  670.1975
 144  27.82965
 145  -235.8923
 146  -151.0986
 147  41.16084
 148  393.9175
 149  -19.98538
 150  6.622416
 151  56.48043
 152  -233.2366
 153  -311.6316
 154  -80.90897
 155  377.7952
 156  152.2916
 157  -36.93453
 158  242.8272
 159  86.64397
 160  -258.8194
 161  -140.0872
 162  -44.80566
 163  118.4001
 164  48.8612
 165  -199.589
 166  16.353
 167  146.1251
 168  -87.12695
 169  250.2375
 170  438.6496
 171  680.5263
 172  892.8058
 173  1187.878
 174  1745.333
 175  1883.856
 176  1996.757
 177  1573.136
 178  1062.806
 179  638.2612
 180  287.0037
 181  221.3619
 182  295.7554
 183  828.0995
 184  496.6248
 185  79.27832
 186  -20.20384
 187  89.45789
 188  299.0205
 189  104.5771
 190  345.2531
 191  472.7526
 192  256.7356
 193  373.1346
 194  186.9446
 195  -85.46358
 196  176.5162
 197  483.3294
 198  249.2122
 199  186.9332
 200  -33.56366
 201  356.1593
 202  267.0056
 203  52.33025
 204  444.9371
 205  -21.9347
 206  207.7334
 207  84.88953
 208  484.1229
 209  761.5098
 210  293.215
 211  43.70892
 212  -8.510971
 213  228.3544
 214  81.47163
 215  61.38766
 216  357.1007
 217  86.34894
 218  -24.88871
 219  -311.1389
 220  -150.6298
 221  289.1112
 222  322.5479
 223  717.6665
 224  367.9045
 225  16.00517
 226  -77.00134
 227  -50.822
 228  -212.3571
 229  -233.4481
 230  -68.76178
 231  -196.7961
 232  -435.9272
 233  -226.3463
 234  -68.99463
 235  -301.5581
 236  -105.3314
 237  65.31867
 238  53.45119
 239  -99.41694
 240  50.25195
 241  207.276
 242  -399.289
 243  -299.8998
 244  -231.6824
 245  -189.8935
 246  -424.265
 247  -549.0886
 248  -277.7456
 249  -375.4749
 250  -169.5656
 251  -170.937
 252  69.68936
 253  -131.8355
 254  -192.9365
 255  -75.14449
 256  -360.1702
 257  -415.8422
 258  -358.0916
 259  -104.8259
 260  -468.7835
 261  -379.457
 262  -118.8979
 263  -45.73003
 264  123.1516
 265  177.8916
 266  274.3827
 267  85.12798
 268  -24.40152
 269  88.21812
 270  -27.87011
 271  109.1604
 272  -39.82754
 273  143.2395
 274  132.5035
 275  281.7777
 276  62.4062
 277  -228.3778
 278  -135.907
 279  -355.9679
 280  -126.6992
 281  -240.7021
 282  -154.6609
 283  57.86179
 284  -199.6803
 285  0.4916584
 286  -164.6819
 287  -239.9389
 288  -203.1115
 289  -309.2366
 290  50.78275
 291  -222.5902
 292  160.678
 293  250.1928
 294  -90.42073
 295  -20.61356
 296  64.26138
 297  -189.9129
 298  266.1502
 299  470.0323
 300  132.0865
 301  79.64787
 302  -79.51099
 303  48.56138
 304  83.22489
 305  278.041
 306  -84.76018
 307  1.090106
 308  -31.77443
 309  -105.1916
 310  -104.4663
 311  -254.9709
 312  -122.3234
 313  -106.9102
 314  -399.2639
 315  -102.4463
 316  -114.9879
 317  158.2857
 318  -202.5406
 319  -231.0966
 320  -160.8407
 321  61.18005
 322  -148.9033
 323  -53.93388
 324  -30.47404
 325  -665.0727
 326  -506.6323
 327  -446.9933
 328  -285.1131
 329  -442.9018
 330  -428.6525
 331  -335.2878
 332  -177.857
 333  -305.0641
 334  -564.6227
 335  -691.1877
 336  -180.3589
 337  -237.5756
 338  88.65125
 339  -202.5428
 340  -506.3616
 341  -525.7974
 342  -642.7178
 343  -630.9619
 344  -425.0876
 345  -41.14315
 346  -372.4582
 347  -621.665
 348  -507.5631
 349  -323.4435
 350  -230.1392
 351  48.03627
 352  145.4826
 353  -275.9726
 354  -500.9185
 355  -387.4517
 356  71.71364
 357  -256.3562
 358  -238.2796
 359  -76.73095
 360  -170.8535
 361  -222.949
 362  -665.0432
 363  -663.0275
 364  -306.7278
 365  53.88883
 366  76.8028
 367  -7.79951
 368  119.2595
 369  -296.3035
 370  -458.651
 371  -634.024
 372  -681.3108
 373  -339.5926
 374  -144.2124
 375  -45.88645
 376  3.048552
 377  8.438208
 378  -77.92085
 379  -352.325
 380  -271.1364
 381  -297.1995
 382  -724.8715
 383  -219.5139
 384  234.687
 385  193.2087
 386  -87.54023
 387  -128.1673
 388  -212.5177
 389  -438.4361
 390  -341.6847
 391  -294.5191
 392  76.34398
 393  365.0494
 394  415.9895
 395  -127.9624
 396  -357.6475
 397  -457.149
 398  -67.70288
 399  -35.54103
 400  17.00893
 401  152.694
 402  399.449
 403  -23.61927
 404  -358.7981
 405  -228.4833
 406  -554.1133
 407  -633.6079
 408  43.35312
 409  234.7791
 410  397.4551
 411  -101.9322
 412  -135.7449
 413  -477.46
 414  -371.6899
 415  -293.3798
 416  -132.7762
 417  83.97319
 418  -11.25757
 419  -273.5794
 420  -335.1351
 421  -414.0534
 422  -421.4656
 423  -283.3718
 424  27.01047
 425  -6.172124
 426  54.17514
 427  -84.52184
 428  -349.8293
 429  -728.7759
 430  -507.0439
 431  32.79042
 432  44.17805
 433  35.55227
 434  -70.2059
 435  11.55076
 436  -131.0534
 437  8.508702
 438  518.1101
 439  283.1301
 440  21.04413
 441  -115.2071
 442  -67.07111
 443  21.93824
 444  283.2733
 445  233.7365
 446  169.4269
 447  -174.0695
 448  -188.7746
 449  193.1245
 450  112.5522
 451  416.034
 452  373.3224
 453  182.8514
 454  -153.4935
 455  -341.611
 456  -665.595
 457  -612.5223
 458  -238.7627
 459  130.6558
 460  247.213
 461  198.1999
 462  -76.12876
 463  -537.8605
 464  -497.2871
 465  -463.7421
 466  43.5866
 467  454.8661
 468  264.2799
 469  138.8262
 470  -381.3363
 471  -449.403
 472  -308.8625
 473  -468.3314
 474  -495.1832
 475  -408.1229
 476  -95.74544
 477  72.9472
 478  -176.7352
 479  -570.4813
 480  -455.0158
 481  -267.1156
 482  13.18413
 483  84.9367
 484  373.9579
 485  320.9545
 486  19.30817
 487  -354.3024
 488  -40.07296
 489  64.14466
 490  26.45678
 491  288.6928
 492  124.6907
 493  351.8514
 494  125.1169
 495  -444.1594
 496  -491.6868
 497  -249.8143
 498  16.29739
 499  33.69266
 500  -54.50791
 501  88.28987
 502  -471.3843
 503  -544.9362
 504  -196.0367
 505  -130.6332
 506  -104.5822
 507  73.38854
 508  -140.9999
 509  -82.63429
 510  -312.1887
 511  -334.2137
