# Input file       =  1201548423.108379_cleaned.dat
# Candidate        =  PSR_0332+5434
# Telescope        =  AR
# Epoch_topo       =  58150.810672550680
# Epoch_bary       =  N/A
# T_sample         =  0.002
# Data Folded      =  7340032
# Data Avg         =  0.0175788709067476
# Data StdDev      =  1.00004448793489 
# Profile Bins     =  512
# Profile Avg      =  251.905189663348 
# Profile StdDev   =  119.738363052293 
# Reduced chi-sqr  =  1.120
# Prob(Noise)      <  0.0306   (~1.9 sigma)
# P_topo (ms)      =  714.576567477883  +/- 0.00015
# P'_topo (s/s)    =  -0                +/- 7.92e-11
# P''_topo (s/s^2) =  0                 +/- 3.5e-14
# P_bary (ms)      =  N/A
# P'_bary (s/s)    =  N/A
# P''_bary (s/s^2) =  N/A
# P_orb (s)        =  N/A
# asin(i)/c (s)    =  N/A
# eccentricity     =  N/A
# w (rad)          =  N/A
# T_peri           =  N/A
######################################################
   0  711.1135
   1  758.1103
   2  506.0672
   3  354.0172
   4  264.4064
   5  266.7516
   6  287.4434
   7  182.4336
   8  165.3527
   9  181.4897
  10  133.4707
  11  308.9983
  12  297.0233
  13  285.8257
  14  206.9211
  15  232.3945
  16  238.5615
  17  336.1206
  18  401.0012
  19  364.2803
  20  380.2363
  21  372.0059
  22  310.0292
  23  191.0693
  24  290.9649
  25  371.4519
  26  181.5251
  27  339.1335
  28  439.0021
  29  292.1419
  30  168.4839
  31  227.2044
  32  160.4121
  33  257.0516
  34  410.0976
  35  243.7245
  36  241.9715
  37  112.2101
  38  289.7812
  39  353.5899
  40  321.4457
  41  324.9051
  42  262.549
  43  231.7691
  44  281.0937
  45  258.7
  46  238.9274
  47  242.422
  48  216.2165
  49  140.1594
  50  166.9297
  51  168.0128
  52  248.8017
  53  218.4048
  54  294.554
  55  287.2802
  56  227.5276
  57  155.8735
  58  240.7715
  59  337.3464
  60  459.355
  61  379.8048
  62  241.002
  63  336.0362
  64  167.2717
  65  -44.2573
  66  106.8916
  67  235.6364
  68  351.4316
  69  304.9629
  70  390.5774
  71  223.563
  72  140.726
  73  221.9756
  74  195.3732
  75  148.1801
  76  248.9235
  77  269.8783
  78  268.3308
  79  145.8631
  80  243.1186
  81  352.7948
  82  302.4423
  83  376.5331
  84  378.2142
  85  298.6731
  86  307.5829
  87  223.6482
  88  133.4368
  89  160.7134
  90  249.8235
  91  365.3506
  92  274.5305
  93  209.2605
  94  270.7016
  95  148.1043
  96  142.6627
  97  195.1611
  98  258.092
  99  365.5519
 100  453.2684
 101  324.2646
 102  330.727
 103  215.5239
 104  254.5076
 105  186.0395
 106  167.2897
 107  111.1867
 108  199.5168
 109  185.7342
 110  79.73842
 111  262.4077
 112  311.5825
 113  206.8716
 114  355.5596
 115  370.1057
 116  264.4236
 117  278.7249
 118  309.4354
 119  359.6005
 120  432.8121
 121  329.047
 122  243.0933
 123  249.5307
 124  203.46
 125  271.3141
 126  261.6296
 127  231.7389
 128  151.6904
 129  278.3579
 130  227.5266
 131  211.9588
 132  246.5497
 133  207.0167
 134  123.4351
 135  196.7322
 136  258.7179
 137  319.3809
 138  271.3023
 139  290.6982
 140  291.9008
 141  196.8792
 142  178.117
 143  233.5842
 144  238.8819
 145  233.1783
 146  244.2679
 147  264.1538
 148  236.16
 149  184.6383
 150  289.2079
 151  245.9596
 152  73.34806
 153  194.8334
 154  249.9938
 155  291.4649
 156  235.5448
 157  237.1545
 158  316.7371
 159  339.8876
 160  303.0211
 161  173.6781
 162  242.5634
 163  292.5199
 164  291.9572
 165  319.0225
 166  359.3397
 167  260.999
 168  289.0038
 169  337.0988
 170  335.6447
 171  136.7371
 172  192.5781
 173  348.0012
 174  199.0597
 175  340.2561
 176  320.7054
 177  241.8308
 178  260.5861
 179  250.9163
 180  281.3896
 181  206.2832
 182  187.2537
 183  356.7654
 184  239.2334
 185  264.1296
 186  297.804
 187  178.8707
 188  113.913
 189  266.3152
 190  163.4357
 191  182.6798
 192  162.4778
 193  243.2502
 194  291.0825
 195  243.4462
 196  200.0148
 197  226.3983
 198  287.8101
 199  175.7473
 200  202.8004
 201  150.4492
 202  237.7288
 203  351.823
 204  250.5705
 205  210.714
 206  212.7236
 207  190.8142
 208  206.7009
 209  106.0248
 210  198.5672
 211  278.1136
 212  333.7238
 213  273.223
 214  101.9654
 215  100.7264
 216  280.69
 217  223.5389
 218  157.5757
 219  112.5527
 220  187.4299
 221  231.2586
 222  103.7403
 223  169.2131
 224  111.7946
 225  252.1995
 226  253.3271
 227  304.1762
 228  289.0203
 229  188.4881
 230  283.7642
 231  220.8192
 232  238.9554
 233  190.706
 234  253.8058
 235  264.6799
 236  171.869
 237  238.9978
 238  186.1434
 239  259.1443
 240  292.4271
 241  226.8712
 242  165.0648
 243  219.2088
 244  234.8389
 245  264.3491
 246  167.1461
 247  267.47
 248  308.2762
 249  212.6821
 250  225.487
 251  208.5076
 252  154.0827
 253  169.4129
 254  293.9564
 255  374.0685
 256  334.5894
 257  269.7329
 258  343.5222
 259  259.2736
 260  224.7496
 261  310.5974
 262  244.3843
 263  265.6728
 264  268.2876
 265  229.7278
 266  203.1579
 267  359.1428
 268  376.7351
 269  274.5306
 270  300.9961
 271  373.5623
 272  273.9317
 273  215.352
 274  259.4998
 275  140.6391
 276  118.1761
 277  69.85863
 278  226.1158
 279  242.9434
 280  106.2828
 281  146.7718
 282  181.0477
 283  197.1717
 284  279.5008
 285  155.4896
 286  253.371
 287  322.5311
 288  303.9122
 289  266.5291
 290  280.7446
 291  385.7743
 292  404.2394
 293  108.6412
 294  162.5106
 295  325.9207
 296  331.4715
 297  262.6108
 298  144.2793
 299  144.6817
 300  248.8109
 301  222.4661
 302  128.4475
 303  322.5685
 304  347.6492
 305  151.207
 306  149.9167
 307  278.8248
 308  320.261
 309  241.7226
 310  161.9147
 311  155.9609
 312  223.0905
 313  321.8743
 314  147.8243
 315  281.4218
 316  279.1898
 317  273.7664
 318  362.065
 319  285.9913
 320  246.8344
 321  170.7034
 322  332.8169
 323  318.9793
 324  219.6203
 325  230.7388
 326  230.6584
 327  298.9717
 328  398.1166
 329  302.967
 330  190.514
 331  231.0642
 332  161.631
 333  195.0237
 334  329.6848
 335  327.9933
 336  191.0558
 337  214.293
 338  319.704
 339  284.1574
 340  253.9742
 341  272.5816
 342  314.1601
 343  192.2753
 344  102.2416
 345  177.6077
 346  280.7357
 347  168.0014
 348  66.01027
 349  54.66113
 350  171.3774
 351  198.5265
 352  209.0764
 353  151.8691
 354  113.2382
 355  180.8337
 356  262.3433
 357  148.7568
 358  186.4912
 359  163.2351
 360  258.3619
 361  347.2597
 362  382.5405
 363  343.5337
 364  352.6285
 365  177.2756
 366  170.7871
 367  191.8124
 368  241.5121
 369  181.7975
 370  268.1467
 371  375.3335
 372  319.7783
 373  200.5307
 374  132.6803
 375  117.8987
 376  274.2706
 377  275.7875
 378  176.1051
 379  319.4597
 380  334.8708
 381  261.9756
 382  211.4509
 383  178.7354
 384  243.2017
 385  303.771
 386  243.5037
 387  140.1661
 388  174.9111
 389  337.3722
 390  430.8
 391  113.7828
 392  219.8536
 393  221.9544
 394  219.6489
 395  106.8672
 396  155.351
 397  305.8189
 398  402.3685
 399  367.3238
 400  266.2574
 401  294.7845
 402  249.1334
 403  147.608
 404  192.1996
 405  119.6637
 406  181.4857
 407  399.1081
 408  335.517
 409  232.3203
 410  223.845
 411  295.709
 412  187.6874
 413  276.7855
 414  313.4111
 415  198.7162
 416  205.0938
 417  147.2972
 418  154.8854
 419  193.7709
 420  334.2834
 421  340.7343
 422  326.2866
 423  383.7731
 424  390.3012
 425  255.8611
 426  238.4218
 427  287.5848
 428  177.103
 429  212.0844
 430  325.1347
 431  317.1021
 432  329.7352
 433  279.9227
 434  240.103
 435  170.31
 436  273.0772
 437  222.3312
 438  176.4765
 439  303.9924
 440  287.9462
 441  235.3494
 442  70.24799
 443  154.9437
 444  208.5446
 445  280.0962
 446  314.7635
 447  430.485
 448  282.4031
 449  214.4337
 450  282.8448
 451  265.3243
 452  265.6357
 453  192.5642
 454  217.2327
 455  359.6528
 456  314.7017
 457  299.1589
 458  227.1178
 459  226.6635
 460  306.6262
 461  375.2465
 462  323.4072
 463  318.3831
 464  157.8815
 465  164.0691
 466  157.0714
 467  151.3781
 468  341.2881
 469  321.3775
 470  256.4265
 471  138.8785
 472  217.0586
 473  167.2509
 474  102.2256
 475  228.5929
 476  223.733
 477  126.416
 478  208.4699
 479  195.9447
 480  199.9742
 481  285.7772
 482  329.1523
 483  233.2578
 484  148.7114
 485  111.7842
 486  24.64961
 487  129.9827
 488  280.2771
 489  360.9911
 490  304.5604
 491  266.4862
 492  271.518
 493  209.791
 494  157.9822
 495  358.5804
 496  447.7737
 497  403.2982
 498  368.3381
 499  280.4082
 500  257.9616
 501  324.8497
 502  314.4292
 503  445.834
 504  260.7996
 505  132.0972
 506  242.0907
 507  359.4008
 508  342.9147
 509  471.2639
 510  777.9067
 511  800.3914
