# Input file       =  1201117473.116012_cleaned.dat
# Candidate        =  PSR_0332+5434
# Telescope        =  AR
# Epoch_topo       =  58145.822825416806
# Epoch_bary       =  N/A
# T_sample         =  0.002
# Data Folded      =  7340032
# Data Avg         =  0.0210463185604974
# Data StdDev      =  0.999865054535584
# Profile Bins     =  512
# Profile Avg      =  301.670092298236 
# Profile StdDev   =  119.716878946566 
# Reduced chi-sqr  =  0.985
# Prob(Noise)      <  0.586   (~0.0 sigma)
# P_topo (ms)      =  714.574384778773  +/- 0.000501
# P'_topo (s/s)    =  -0                +/- 2.64e-10
# P''_topo (s/s^2) =  0                 +/- 1.17e-13
# P_bary (ms)      =  N/A
# P'_bary (s/s)    =  N/A
# P''_bary (s/s^2) =  N/A
# P_orb (s)        =  N/A
# asin(i)/c (s)    =  N/A
# eccentricity     =  N/A
# w (rad)          =  N/A
# T_peri           =  N/A
######################################################
   0  237.9644
   1  247.3485
   2  387.8659
   3  337.2224
   4  350.0999
   5  430.1789
   6  406.1553
   7  262.4965
   8  259.4643
   9  324.6656
  10  463.6661
  11  408.1629
  12  322.6864
  13  227.1589
  14  185.4027
  15  212.1331
  16  324.7309
  17  244.3273
  18  190.1982
  19  255.8936
  20  286.646
  21  176.4874
  22  197.2938
  23  252.7331
  24  364.2202
  25  411.7893
  26  477.9294
  27  462.7779
  28  380.2809
  29  481.8727
  30  448.8388
  31  373.8919
  32  318.1838
  33  296.0005
  34  282.4074
  35  318.5206
  36  255.3551
  37  285.9412
  38  230.072
  39  227.8171
  40  256.4387
  41  323.6171
  42  386.4768
  43  226.2123
  44  234.2999
  45  383.7315
  46  370.6389
  47  301.3035
  48  377.135
  49  404.0925
  50  366.9836
  51  409.9698
  52  296.1118
  53  415.688
  54  393.1064
  55  393.2836
  56  430.9182
  57  395.938
  58  374.25
  59  378.1975
  60  425.511
  61  417.3186
  62  312.8065
  63  225.7306
  64  280.2264
  65  494.1022
  66  391.3613
  67  421.218
  68  551.8665
  69  550.7397
  70  305.4969
  71  379.9226
  72  378.4104
  73  254.9428
  74  347.4261
  75  398.9623
  76  334.0629
  77  294.0902
  78  326.7468
  79  294.5559
  80  385.831
  81  356.2987
  82  316.9472
  83  287.6171
  84  418.4208
  85  256.4
  86  206.8658
  87  222.4455
  88  234.7301
  89  361.0977
  90  360.3012
  91  203.8815
  92  193.5177
  93  195.3736
  94  296.405
  95  255.4742
  96  375.0828
  97  410.6067
  98  315.3461
  99  392.1897
 100  419.4984
 101  337.3328
 102  193.0632
 103  297.3874
 104  213.4129
 105  310.7728
 106  380.4808
 107  300.7633
 108  278.5943
 109  195.6722
 110  234.5672
 111  335.2325
 112  275.5335
 113  317.7037
 114  222.6779
 115  220.6999
 116  284.2554
 117  427.3598
 118  407.5016
 119  329.0721
 120  300.1384
 121  285.601
 122  289.4275
 123  343.7574
 124  374.7891
 125  396.6605
 126  336.461
 127  229.9907
 128  233.7254
 129  236.5448
 130  242.0603
 131  201.0815
 132  164.4985
 133  214.3682
 134  323.6183
 135  308.2088
 136  338.2148
 137  252.7858
 138  217.8835
 139  259.4796
 140  266.9129
 141  285.1752
 142  155.6203
 143  191.0443
 144  272.1268
 145  333.3184
 146  425.0611
 147  276.3624
 148  307.9615
 149  299.0248
 150  385.8522
 151  328.3277
 152  215.4352
 153  315.2174
 154  205.0022
 155  154.4011
 156  266.8972
 157  234.3957
 158  89.82677
 159  227.9522
 160  294.7618
 161  239.0486
 162  312.1451
 163  403.5284
 164  379.1126
 165  158.3029
 166  280.2817
 167  336.5653
 168  210.8703
 169  242.3652
 170  298.4229
 171  276.929
 172  330.5102
 173  314.0919
 174  364.5225
 175  348.3708
 176  374.9344
 177  417.437
 178  337.5058
 179  288.5074
 180  266.321
 181  198.9396
 182  284.1201
 183  291.1878
 184  279.4796
 185  262.7251
 186  294.7805
 187  189.1695
 188  162.314
 189  222.5649
 190  287.7525
 191  315.1962
 192  335.7215
 193  311.0233
 194  374.0838
 195  380.0904
 196  339.927
 197  321.8592
 198  298.2909
 199  394.1391
 200  479.9834
 201  382.8785
 202  329.0266
 203  363.9218
 204  390.9198
 205  352.2576
 206  268.647
 207  306.7972
 208  277.8371
 209  292.8036
 210  234.991
 211  251.5184
 212  328.134
 213  304.7316
 214  279.1911
 215  291.3402
 216  240.5493
 217  208.0186
 218  242.1724
 219  265.0165
 220  277.717
 221  455.6992
 222  389.4602
 223  310.2195
 224  235.5045
 225  331.0532
 226  355.699
 227  116.6085
 228  170.9571
 229  281.2097
 230  411.8157
 231  407.9454
 232  386.5317
 233  403.6574
 234  350.0573
 235  227.7981
 236  335.1694
 237  312.7253
 238  340.3484
 239  376.6981
 240  340.3983
 241  235.8385
 242  281.778
 243  208.9264
 244  314.8714
 245  271.8078
 246  295.7256
 247  263.6233
 248  225.6723
 249  119.4791
 250  207.6709
 251  275.951
 252  370.6119
 253  346.5995
 254  345.3591
 255  304.0228
 256  226.9611
 257  314.4631
 258  333.7745
 259  256.9793
 260  258.1059
 261  362.2799
 262  337.0109
 263  217.0356
 264  189.0814
 265  364.0293
 266  375.6716
 267  352.1152
 268  279.5123
 269  411.4086
 270  394.2287
 271  366.7136
 272  443.9993
 273  429.436
 274  377.5845
 275  440.2303
 276  475.3563
 277  581.5547
 278  664.8531
 279  693.7317
 280  775.9902
 281  628.6579
 282  591.796
 283  366.5209
 284  346.094
 285  310.4181
 286  332.6564
 287  323.3415
 288  282.0547
 289  271.1949
 290  284.1575
 291  284.445
 292  409.3542
 293  388.3378
 294  309.9338
 295  327.9787
 296  376.0226
 297  346.0824
 298  369.8552
 299  415.9581
 300  284.0982
 301  201.3335
 302  286.4122
 303  323.8276
 304  321.9433
 305  248.0539
 306  271.2868
 307  236.6225
 308  267.5229
 309  275.5222
 310  354.1486
 311  416.2498
 312  267.5107
 313  143.3173
 314  200.6087
 315  252.8341
 316  231.7682
 317  274.8972
 318  339.7983
 319  233.5936
 320  203.1162
 321  170.2203
 322  92.71835
 323  140.5126
 324  195.7555
 325  215.0149
 326  204.5754
 327  257.7784
 328  183.9805
 329  140.3887
 330  184.6047
 331  180.8974
 332  111.5827
 333  79.95305
 334  172.3143
 335  293.8424
 336  287.2971
 337  237.9084
 338  233.8299
 339  258.8698
 340  220.5544
 341  294.447
 342  199.0435
 343  225.3181
 344  278.7747
 345  221.7791
 346  189.0682
 347  91.57186
 348  161.0474
 349  314.3528
 350  427.5519
 351  349.2679
 352  188.6907
 353  184.3315
 354  365.7869
 355  441.6564
 356  309.3064
 357  209.0968
 358  268.5898
 359  286.4697
 360  258.6974
 361  273.3039
 362  302.6244
 363  263.0055
 364  203.1162
 365  291.2466
 366  257.8381
 367  232.4234
 368  272.6669
 369  296.5431
 370  302.4134
 371  168.8607
 372  293.0465
 373  381.8381
 374  369.2146
 375  373.3065
 376  359.247
 377  357.461
 378  282.0005
 379  284.2682
 380  276.4894
 381  236.246
 382  252.8291
 383  301.2036
 384  236.6413
 385  151.2033
 386  189.3015
 387  246.0796
 388  209.2965
 389  333.5633
 390  296.1639
 391  306.0908
 392  292.904
 393  373.183
 394  315.0738
 395  221.99
 396  329.7878
 397  340.1238
 398  318.77
 399  212.3571
 400  228.5447
 401  236.4461
 402  244.3626
 403  292.9111
 404  412.3407
 405  359.8033
 406  260.2766
 407  244.3896
 408  353.6922
 409  450.7962
 410  270.0255
 411  281.9837
 412  357.0375
 413  301.0069
 414  240.9024
 415  272.3134
 416  307.8506
 417  345.193
 418  287.1728
 419  184.4128
 420  134.8591
 421  191.2495
 422  303.3645
 423  309.7439
 424  209.4403
 425  192.4982
 426  98.03244
 427  255.4866
 428  305.9807
 429  249.1437
 430  163.5712
 431  298.5257
 432  308.1592
 433  323.6927
 434  290.9788
 435  268.0764
 436  359.1643
 437  324.7201
 438  421.2599
 439  374.3575
 440  352.9014
 441  260.1786
 442  287.1965
 443  268.9037
 444  252.5233
 445  273.108
 446  266.8683
 447  310.8992
 448  345.1781
 449  320.2224
 450  272.906
 451  215.4637
 452  277.4777
 453  339.0693
 454  353.826
 455  368.5021
 456  277.49
 457  301.0573
 458  354.186
 459  428.6165
 460  314.5653
 461  247.659
 462  284.3
 463  253.0822
 464  282.2339
 465  372.7875
 466  263.8314
 467  225.6815
 468  243.3269
 469  392.3623
 470  450.0391
 471  295.0891
 472  345.5107
 473  406.4694
 474  298.9944
 475  372.1998
 476  397.8605
 477  263.9347
 478  187.2928
 479  255.4219
 480  317.8093
 481  169.9339
 482  188.583
 483  296.8801
 484  309.4744
 485  179.8022
 486  219.0756
 487  306.5443
 488  242.9445
 489  298.3472
 490  283.2417
 491  307.2902
 492  359.4202
 493  384.995
 494  340.9813
 495  225.3075
 496  265.8991
 497  316.5986
 498  397.8288
 499  312.5382
 500  340.3157
 501  343.0803
 502  316.3159
 503  267.236
 504  270.4531
 505  187.655
 506  310.327
 507  408.5182
 508  309.3652
 509  295.3748
 510  281.2629
 511  239.8617
