# Input file       =  1201705856.10787_cleaned.dat
# Candidate        =  PSR_0332+5434
# Telescope        =  AR
# Epoch_topo       =  58152.632813748496
# Epoch_bary       =  N/A
# T_sample         =  0.002
# Data Folded      =  7340032
# Data Avg         =  0.0299990982886123
# Data StdDev      =  1.00011254511466 
# Profile Bins     =  512
# Profile Avg      =  430.638199773113 
# Profile StdDev   =  119.746511745073 
# Reduced chi-sqr  =  1.131
# Prob(Noise)      <  0.021   (~2.0 sigma)
# P_topo (ms)      =  714.576929760541  +/- 0.000321
# P'_topo (s/s)    =  -0                +/- 1.7e-10
# P''_topo (s/s^2) =  0                 +/- 7.49e-14
# P_bary (ms)      =  N/A
# P'_bary (s/s)    =  N/A
# P''_bary (s/s^2) =  N/A
# P_orb (s)        =  N/A
# asin(i)/c (s)    =  N/A
# eccentricity     =  N/A
# w (rad)          =  N/A
# T_peri           =  N/A
######################################################
   0  1006.887
   1  907.4047
   2  796.4606
   3  751.2275
   4  708.5541
   5  579.8193
   6  435.4737
   7  614.2809
   8  642.2334
   9  498.498
  10  444.1428
  11  517.8309
  12  499.9355
  13  404.7604
  14  392.6659
  15  477.5338
  16  482.4888
  17  496.8836
  18  472.1357
  19  436.2612
  20  510.3676
  21  477.8225
  22  441.958
  23  446.0721
  24  375.988
  25  459.649
  26  459.5758
  27  394.5613
  28  380.3861
  29  342.8882
  30  375.3984
  31  506.6549
  32  584.3645
  33  423.4139
  34  429.7855
  35  370.6786
  36  503.132
  37  394.1231
  38  281.0883
  39  395.3091
  40  389.8295
  41  450.581
  42  545.912
  43  483.0099
  44  482.3786
  45  472.4526
  46  273.6292
  47  279.8637
  48  451.3678
  49  441.8605
  50  342.749
  51  282.0212
  52  459.3995
  53  372.5428
  54  231.7821
  55  284.3659
  56  293.878
  57  312.9462
  58  353.0478
  59  385.5729
  60  339.2811
  61  297.9269
  62  388.4223
  63  382.9106
  64  376.0892
  65  468.5325
  66  525.5858
  67  465.3764
  68  420.2759
  69  435.8962
  70  469.0522
  71  389.7337
  72  364.0532
  73  407.5266
  74  399.015
  75  477.2928
  76  486.4794
  77  419.1833
  78  410.1322
  79  441.2242
  80  491.8493
  81  534.4918
  82  487.7143
  83  432.1636
  84  511.6012
  85  449.1097
  86  422.7621
  87  518.9786
  88  470.2882
  89  452.445
  90  581.7219
  91  600.8969
  92  547.1568
  93  520.7599
  94  481.2347
  95  406.6739
  96  398.2654
  97  424.7034
  98  480.934
  99  356.709
 100  432.2858
 101  483.8967
 102  459.2513
 103  390.3805
 104  338.3167
 105  387.892
 106  432.8865
 107  312.8737
 108  329.5479
 109  387.2522
 110  401.4647
 111  367.7151
 112  436.782
 113  529.3549
 114  463.2693
 115  459.4614
 116  357.5081
 117  301.1558
 118  308.0821
 119  309.8305
 120  426.6758
 121  435.0326
 122  428.7764
 123  357.5162
 124  233.789
 125  325.1194
 126  329.364
 127  291.2096
 128  345.544
 129  330.7466
 130  364.4991
 131  465.5054
 132  415.1432
 133  394.2385
 134  414.1581
 135  332.5322
 136  355.4145
 137  385.5319
 138  427.3072
 139  510.3291
 140  420.5363
 141  348.3477
 142  358.9037
 143  350.6371
 144  455.4254
 145  419.9159
 146  372.0255
 147  364.9764
 148  506.9795
 149  415.1335
 150  331.5345
 151  448.0019
 152  495.5269
 153  489.3092
 154  375.9546
 155  371.7893
 156  465.3149
 157  425.9394
 158  350.5261
 159  407.8264
 160  342.9855
 161  259.5792
 162  320.0003
 163  315.5042
 164  349.1296
 165  486.7991
 166  377.6551
 167  395.5148
 168  406.0847
 169  369.1399
 170  387.8942
 171  297.236
 172  362.9955
 173  511.5341
 174  413.9529
 175  471.4648
 176  464.4037
 177  398.8998
 178  335.9966
 179  347.2603
 180  394.2058
 181  283.5978
 182  319.4588
 183  270.8236
 184  257.8989
 185  280.7979
 186  358.2322
 187  413.808
 188  426.4359
 189  429.9164
 190  426.9042
 191  334.7694
 192  253.7511
 193  347.7196
 194  435.5285
 195  371.3992
 196  339.9382
 197  333.6785
 198  487.7991
 199  499.1154
 200  439.5832
 201  407.3547
 202  380.4802
 203  308.641
 204  435.6941
 205  449.6726
 206  492.8618
 207  551.0083
 208  539.0474
 209  464.1317
 210  365.7711
 211  420.5105
 212  365.7092
 213  508.3008
 214  580.4496
 215  455.8142
 216  463.6117
 217  367.9012
 218  500.6442
 219  464.2577
 220  350.6935
 221  393.2697
 222  452.8536
 223  413.5708
 224  308.8566
 225  305.4329
 226  466.7583
 227  414.6823
 228  333.3106
 229  407.4041
 230  488.7835
 231  475.5651
 232  407.0186
 233  373.4739
 234  426.598
 235  375.0163
 236  322.3939
 237  350.9626
 238  333.2897
 239  397.3958
 240  384.6782
 241  362.1866
 242  276.5311
 243  375.0985
 244  515.0341
 245  519.1719
 246  390.9783
 247  320.4459
 248  319.7567
 249  392.6677
 250  514.0438
 251  511.7281
 252  469.024
 253  397.394
 254  274.3595
 255  265.9966
 256  288.7539
 257  433.2078
 258  504.8066
 259  450.8104
 260  346.2007
 261  356.0898
 262  462.0934
 263  420.5739
 264  426.9323
 265  455.1625
 266  371.5226
 267  388.0168
 268  398.6511
 269  362.602
 270  413.3274
 271  501.9
 272  470.2696
 273  405.3029
 274  469.9082
 275  304.1736
 276  347.0418
 277  423.0114
 278  463.2816
 279  405.4752
 280  387.3239
 281  381.5161
 282  390.2942
 283  362.3063
 284  419.4738
 285  383.2543
 286  419.2548
 287  459.6642
 288  497.2117
 289  523.5013
 290  494.463
 291  508.6532
 292  386.3589
 293  357.3438
 294  357.9117
 295  460.7811
 296  452.1213
 297  407.0541
 298  528.0862
 299  511.6675
 300  465.7483
 301  627.0804
 302  535.3352
 303  418.0172
 304  363.424
 305  416.3284
 306  425.1884
 307  412.7101
 308  483.6122
 309  391.1082
 310  335.5307
 311  362.4577
 312  413.7502
 313  419.5036
 314  377.5637
 315  349.8183
 316  437.5072
 317  360.2166
 318  322.1028
 319  345.4649
 320  409.3361
 321  360.0853
 322  398.0276
 323  479.6746
 324  469.7221
 325  505.0232
 326  420.2471
 327  359.6111
 328  313.5761
 329  380.8725
 330  496.9124
 331  450.4792
 332  354.6942
 333  347.4731
 334  344.1359
 335  392.4301
 336  384.9974
 337  391.3009
 338  412.6262
 339  382.0211
 340  428.5088
 341  404.2095
 342  415.777
 343  406.2422
 344  255.1814
 345  295.9125
 346  481.2961
 347  502.9915
 348  404.8485
 349  386.8812
 350  429.0762
 351  343.5751
 352  429.2567
 353  434.8074
 354  441.643
 355  456.1441
 356  371.1357
 357  328.4713
 358  376.2209
 359  354.6489
 360  485.1038
 361  534.1882
 362  460.1242
 363  432.0724
 364  385.5097
 365  362.6391
 366  360.8655
 367  434.5468
 368  393.7729
 369  336.847
 370  337.7306
 371  365.1934
 372  418.6367
 373  438.7122
 374  497.717
 375  346.6428
 376  267.9833
 377  360.117
 378  523.2697
 379  506.2224
 380  417.0885
 381  441.7894
 382  527.0632
 383  462.1961
 384  451.607
 385  332.1198
 386  340.3487
 387  476.9821
 388  490.8043
 389  376.8181
 390  430.0958
 391  467.7369
 392  424.8339
 393  405.6134
 394  520.8655
 395  442.2855
 396  412.8548
 397  300.5434
 398  337.3622
 399  357.3682
 400  423.6414
 401  424.8444
 402  400.5355
 403  379.2566
 404  358.3325
 405  475.9306
 406  549.6618
 407  533.4908
 408  492.6162
 409  554.7289
 410  490.1412
 411  393.1838
 412  509.6505
 413  513.5752
 414  529.9027
 415  481.1866
 416  542.5902
 417  495.8193
 418  401.9802
 419  500.7313
 420  558.8795
 421  570.6854
 422  579.8214
 423  413.2054
 424  420.788
 425  499.68
 426  433.6556
 427  478.0962
 428  527.9327
 429  529.2596
 430  597.6137
 431  584.3051
 432  547.1736
 433  452.7102
 434  406.6461
 435  449.9306
 436  537.3768
 437  455.6553
 438  425.3675
 439  445.1612
 440  591.0983
 441  588.6863
 442  531.3364
 443  433.837
 444  405.7952
 445  435.3725
 446  485.1081
 447  391.9136
 448  493.9362
 449  527.5818
 450  477.3746
 451  483.9845
 452  483.9715
 453  383.6451
 454  376.7915
 455  518.1616
 456  583.212
 457  584.9532
 458  509.8593
 459  491.7402
 460  399.7569
 461  453.3068
 462  470.7062
 463  434.9858
 464  485.6213
 465  447.5243
 466  421.8993
 467  397.2887
 468  394.8489
 469  355.5359
 470  285.161
 471  388.7026
 472  454.1466
 473  526.067
 474  535.0474
 475  414.2221
 476  303.9933
 477  408.7953
 478  501.5076
 479  391.6129
 480  372.7253
 481  411.9022
 482  420.1094
 483  417.5962
 484  416.0575
 485  419.2845
 486  404.2652
 487  423.1221
 488  459.8524
 489  424.7549
 490  350.5684
 491  324.3456
 492  316.0903
 493  459.0431
 494  522.5235
 495  580.2562
 496  510.0515
 497  531.5772
 498  557.8815
 499  508.5351
 500  441.2318
 501  465.4036
 502  528.7263
 503  464.8742
 504  513.9481
 505  526.4847
 506  573.551
 507  674.193
 508  607.2668
 509  695.2384
 510  854.6249
 511  1009.413
