# Input file       =  1201087940.12175_cleaned.dat
# Candidate        =  PSR_0332+5434
# Telescope        =  AR
# Epoch_topo       =  58145.481008353592
# Epoch_bary       =  N/A
# T_sample         =  0.002
# Data Folded      =  7143424
# Data Avg         =  0.0102427636848012
# Data StdDev      =  1.00003457065352 
# Profile Bins     =  512
# Profile Avg      =  142.944388074756 
# Profile StdDev   =  118.122667918525 
# Reduced chi-sqr  =  1.586
# Prob(Noise)      <  6.12e-16   (~8.0 sigma)
# P_topo (ms)      =  714.573868043888  +/- 0.000288
# P'_topo (s/s)    =  -0                +/- 1.56e-10
# P''_topo (s/s^2) =  0                 +/- 7.09e-14
# P_bary (ms)      =  N/A
# P'_bary (s/s)    =  N/A
# P''_bary (s/s^2) =  N/A
# P_orb (s)        =  N/A
# asin(i)/c (s)    =  N/A
# eccentricity     =  N/A
# w (rad)          =  N/A
# T_peri           =  N/A
######################################################
   0  1014.957
   1  803.4858
   2  504.5244
   3  362.8275
   4  302.003
   5  282.2227
   6  321.2498
   7  224.2991
   8  241.0769
   9  153.9009
  10  174.3796
  11  255.3089
  12  288.9998
  13  361.2726
  14  260.6452
  15  156.7849
  16  168.2334
  17  89.50962
  18  58.02356
  19  52.4024
  20  67.35881
  21  80.39198
  22  152.1041
  23  90.34023
  24  268.6601
  25  202.1325
  26  114.7665
  27  41.30022
  28  35.663
  29  68.58997
  30  45.43389
  31  120.1092
  32  99.50514
  33  216.2567
  34  221.0162
  35  171.0795
  36  102.8155
  37  161.0923
  38  212.108
  39  199.8461
  40  109.5918
  41  -1.042277
  42  71.95099
  43  226.3711
  44  240.2532
  45  157.4808
  46  122.3952
  47  181.2925
  48  213.6517
  49  212.6985
  50  79.34543
  51  95.06744
  52  178.9091
  53  -14.63738
  54  129.8649
  55  228.9168
  56  134.6996
  57  151.3562
  58  209.5675
  59  155.136
  60  169.7305
  61  148.241
  62  211.1005
  63  191.8345
  64  77.88097
  65  155.8467
  66  269.8578
  67  276.0836
  68  349.1863
  69  230.0766
  70  125.6396
  71  177.563
  72  184.1032
  73  151.9668
  74  97.98914
  75  209.4541
  76  285.5662
  77  45.98251
  78  67.24288
  79  224.3234
  80  92.38077
  81  23.0311
  82  -11.77045
  83  94.39709
  84  137.2252
  85  81.94402
  86  86.05527
  87  69.29245
  88  -41.48753
  89  5.685285
  90  132.466
  91  140.7984
  92  131.7061
  93  204.7589
  94  216.7016
  95  195.6261
  96  119.7122
  97  245.1653
  98  243.9028
  99  153.7524
 100  314.543
 101  372.1023
 102  255.6641
 103  228.7033
 104  69.22625
 105  72.90978
 106  249.066
 107  205.3243
 108  52.6211
 109  -6.61761
 110  66.58944
 111  27.67851
 112  19.71244
 113  128.8069
 114  118.9493
 115  -8.466547
 116  138.2144
 117  116.8535
 118  96.43301
 119  171.653
 120  165.8767
 121  101.182
 122  226.1512
 123  363.297
 124  417.5348
 125  149.6058
 126  148.7678
 127  204.5554
 128  98.01284
 129  252.2478
 130  263.1348
 131  221.8775
 132  117.5766
 133  -53.3973
 134  47.76823
 135  128.2225
 136  101.7225
 137  221.8116
 138  157.4228
 139  67.11086
 140  69.99963
 141  136.9894
 142  277.3249
 143  82.70699
 144  92.53938
 145  84.73265
 146  64.88773
 147  151.7578
 148  135.0757
 149  117.7781
 150  191.3645
 151  134.5739
 152  86.1959
 153  160.4247
 154  205.2741
 155  64.39091
 156  131.3302
 157  221.9264
 158  187.034
 159  92.77487
 160  236.422
 161  245.0699
 162  94.37655
 163  36.99009
 164  169.8831
 165  59.876
 166  -5.205605
 167  116.4397
 168  146.6041
 169  109.4547
 170  83.75833
 171  186.4856
 172  47.46231
 173  -59.05847
 174  55.53754
 175  9.187575
 176  78.54605
 177  72.24847
 178  64.23833
 179  28.13305
 180  21.1987
 181  68.52697
 182  61.75765
 183  66.99055
 184  228.5192
 185  255.8014
 186  117.4186
 187  144.8778
 188  96.60928
 189  165.206
 190  169.581
 191  99.32627
 192  149.5681
 193  79.55817
 194  139.1745
 195  159.5797
 196  48.20179
 197  -26.48761
 198  184.3362
 199  69.08801
 200  163.2992
 201  26.01119
 202  -18.53211
 203  225.8126
 204  171.4966
 205  161.9056
 206  22.72352
 207  216.4763
 208  244.2497
 209  174.8879
 210  115.8423
 211  34.97664
 212  57.89182
 213  187.7894
 214  277.9229
 215  241.498
 216  159.7553
 217  163.7507
 218  114.2907
 219  59.25452
 220  77.70311
 221  163.792
 222  171.2413
 223  166.1113
 224  162.399
 225  186.7059
 226  163.2726
 227  197.9302
 228  64.55629
 229  48.96848
 230  134.8015
 231  108.072
 232  125.1353
 233  148.5586
 234  119.719
 235  9.527625
 236  123.2749
 237  57.63432
 238  39.03965
 239  162.7434
 240  110.1214
 241  160.0836
 242  60.39631
 243  141.2649
 244  185.5813
 245  16.24648
 246  -31.56473
 247  171.1587
 248  97.93144
 249  192.4335
 250  191.3345
 251  172.8736
 252  109.632
 253  100.031
 254  275.2889
 255  259.554
 256  74.81301
 257  75.86572
 258  100.4112
 259  132.9358
 260  241.7619
 261  196.0676
 262  190.1318
 263  255.4249
 264  179.4265
 265  135.3425
 266  214.5776
 267  152.4845
 268  140.8367
 269  330.2438
 270  403.3702
 271  165.7448
 272  85.39635
 273  187.8036
 274  273.493
 275  131.3833
 276  102.0104
 277  -64.87855
 278  168.1527
 279  277.7346
 280  102.2654
 281  57.76968
 282  193.1521
 283  63.16383
 284  65.30803
 285  191.0972
 286  207.435
 287  -11.51831
 288  25.54113
 289  199.2063
 290  222.9048
 291  97.28854
 292  134.4991
 293  144.1872
 294  83.61867
 295  143.1615
 296  157.9858
 297  74.42441
 298  112.6838
 299  151.8896
 300  -24.27092
 301  132.5998
 302  118.9631
 303  188.6359
 304  195.1411
 305  48.16309
 306  104.9878
 307  232.5905
 308  244.3733
 309  226.4674
 310  107.5631
 311  133.1454
 312  217.5436
 313  158.3408
 314  136.7503
 315  162.1029
 316  50.96256
 317  -19.33634
 318  94.46037
 319  50.13459
 320  165.2582
 321  260.1646
 322  249.6213
 323  98.09454
 324  37.24308
 325  201.6965
 326  104.846
 327  108.9632
 328  150.8298
 329  106.3478
 330  44.56577
 331  91.67023
 332  122.8648
 333  49.62206
 334  157.4632
 335  135.9565
 336  108.0728
 337  156.6725
 338  111.9719
 339  25.60089
 340  227.8852
 341  153.6246
 342  179.2209
 343  68.9734
 344  102.576
 345  121.5184
 346  24.72465
 347  66.92648
 348  218.2873
 349  96.75638
 350  24.13292
 351  66.21327
 352  117.4966
 353  166.1077
 354  144.8584
 355  134.6243
 356  165.7504
 357  229.6975
 358  168.3063
 359  111.9409
 360  -3.068138
 361  213.5768
 362  383.4932
 363  211.813
 364  138.8189
 365  207.0633
 366  267.804
 367  143.7688
 368  83.42003
 369  220.5922
 370  190.9652
 371  172.5288
 372  223.681
 373  97.99526
 374  98.07134
 375  39.44797
 376  108.2799
 377  148.4257
 378  245.6272
 379  117.0643
 380  95.82767
 381  154.7537
 382  139.4211
 383  74.25166
 384  149.8542
 385  223.4796
 386  236.1629
 387  157.7468
 388  227.755
 389  117.414
 390  137.7431
 391  69.14335
 392  22.09244
 393  -0.7802244
 394  33.20624
 395  14.40703
 396  -29.33433
 397  32.74865
 398  51.44114
 399  103.7397
 400  135.5496
 401  3.88942
 402  -40.12936
 403  -31.46308
 404  21.3841
 405  123.0091
 406  176.556
 407  241.2291
 408  174.6373
 409  107.5649
 410  187.2601
 411  96.62754
 412  92.20161
 413  184.3819
 414  136.6967
 415  -12.15493
 416  110.3961
 417  105.7357
 418  -17.19153
 419  -112.0139
 420  14.0303
 421  199.6887
 422  86.26785
 423  50.96509
 424  3.364114
 425  -43.26651
 426  -5.934339
 427  -30.3634
 428  81.84163
 429  228.0292
 430  246.4088
 431  178.343
 432  -10.57161
 433  10.56943
 434  110.0956
 435  147.0922
 436  -29.67081
 437  192.5368
 438  296.2407
 439  185.5362
 440  215.0342
 441  54.66019
 442  57.15294
 443  102.4309
 444  181.4551
 445  52.74593
 446  -20.43813
 447  163.7672
 448  162.5629
 449  97.23111
 450  191.8616
 451  281.8974
 452  242.7932
 453  138.0816
 454  131.3452
 455  61.8776
 456  11.37699
 457  157.64
 458  181.59
 459  191.6747
 460  85.70119
 461  183.6169
 462  281.5134
 463  157.1466
 464  292.3921
 465  220.1064
 466  102.3962
 467  1.155579
 468  39.57334
 469  87.68169
 470  114.0645
 471  111.7925
 472  281.603
 473  312.1684
 474  61.23816
 475  -16.84279
 476  89.52426
 477  48.32629
 478  -34.58642
 479  68.49607
 480  211.0297
 481  147.0811
 482  -7.562499
 483  10.69178
 484  146.2395
 485  146.076
 486  134.6277
 487  60.19976
 488  -21.90217
 489  5.92375
 490  270.1661
 491  280.446
 492  240.151
 493  272.3564
 494  275.168
 495  251.9322
 496  294.6088
 497  249.4648
 498  223.9841
 499  114.622
 500  155.1397
 501  136.5177
 502  112.4474
 503  216.5235
 504  211.7466
 505  206.7706
 506  261.223
 507  290.7956
 508  282.5645
 509  414.2847
 510  557.0423
 511  874.2579
