# Input file       =  1201031938.106413_cleaned.dat
# Candidate        =  PSR_0332+5434
# Telescope        =  AR
# Epoch_topo       =  58144.832836879781
# Epoch_bary       =  N/A
# T_sample         =  0.002
# Data Folded      =  7340032
# Data Avg         =  0.0454361139917247
# Data StdDev      =  3.55686606378185 
# Profile Bins     =  512
# Profile Avg      =  651.450738850464 
# Profile StdDev   =  425.874373802077 
# Reduced chi-sqr  =  0.703
# Prob(Noise)      <  1   (~0.0 sigma)
# P_topo (ms)      =  714.573921230902  +/- 0.000215
# P'_topo (s/s)    =  -0                +/- 1.13e-10
# P''_topo (s/s^2) =  0                 +/- 5.01e-14
# P_bary (ms)      =  N/A
# P'_bary (s/s)    =  N/A
# P''_bary (s/s^2) =  N/A
# P_orb (s)        =  N/A
# asin(i)/c (s)    =  N/A
# eccentricity     =  N/A
# w (rad)          =  N/A
# T_peri           =  N/A
######################################################
   0  819.0086
   1  868.2095
   2  735.9901
   3  862.1631
   4  1058.347
   5  1147.284
   6  893.7046
   7  749.8724
   8  989.2275
   9  1291.774
  10  841.3442
  11  674.8431
  12  904.1786
  13  938.2941
  14  678.2402
  15  719.3177
  16  1079.123
  17  1253.649
  18  779.1324
  19  634.5693
  20  730.0639
  21  881.5066
  22  932.2573
  23  877.4414
  24  709.6905
  25  685.1443
  26  683.5934
  27  524.0334
  28  589.5408
  29  526.241
  30  888.3397
  31  777.805
  32  620.6926
  33  758.7949
  34  831.9369
  35  611.4695
  36  541.9279
  37  459.1064
  38  700.294
  39  824.4252
  40  838.7258
  41  1018.048
  42  651.7322
  43  837.8122
  44  629.889
  45  592.0211
  46  698.4523
  47  825.5412
  48  1090.133
  49  694.5637
  50  546.3109
  51  857.4308
  52  893.9812
  53  772.299
  54  719.6567
  55  676.5565
  56  424.7253
  57  457.903
  58  654.4132
  59  424.1462
  60  1074.965
  61  966.9371
  62  630.4321
  63  688.1512
  64  699.1959
  65  213.1654
  66  544.3628
  67  692.5607
  68  637.7615
  69  416.1792
  70  166.0344
  71  349.3652
  72  134.2372
  73  116.6199
  74  532.4088
  75  463.4811
  76  494.7084
  77  296.5857
  78  452.5345
  79  794.1376
  80  822.5486
  81  938.1219
  82  863.7541
  83  787.6735
  84  970.844
  85  720.3113
  86  80.28827
  87  452.3266
  88  476.9625
  89  522.6443
  90  424.2481
  91  410.2246
  92  531.8975
  93  547.3658
  94  498.8421
  95  484.226
  96  248.7349
  97  295.4792
  98  405.1689
  99  449.5335
 100  495.0951
 101  489.8607
 102  323.0142
 103  165.6288
 104  406.7128
 105  626.4523
 106  205.5294
 107  296.2395
 108  755.0247
 109  521.2455
 110  737.0892
 111  722.9424
 112  795.6332
 113  484.2684
 114  316.5098
 115  483.2501
 116  574.9501
 117  623.0305
 118  618.3676
 119  554.8215
 120  672.3353
 121  496.0549
 122  758.2333
 123  691.1771
 124  517.4055
 125  613.3793
 126  336.4202
 127  524.0199
 128  419.1602
 129  586.2196
 130  795.9907
 131  637.708
 132  432.8489
 133  348.7544
 134  415.3284
 135  305.6039
 136  368.1392
 137  550.475
 138  847.6858
 139  852.364
 140  835.2254
 141  793.1236
 142  649.9412
 143  775.0107
 144  922.1406
 145  609.2393
 146  537.7509
 147  500.1772
 148  896.43
 149  974.4637
 150  806.0456
 151  771.5353
 152  795.2401
 153  913.915
 154  669.2554
 155  563.5095
 156  464.4329
 157  518.8234
 158  849.1734
 159  1069.251
 160  964.3151
 161  993.6368
 162  992.8397
 163  792.9286
 164  371.5301
 165  299.4998
 166  551.4496
 167  541.4166
 168  549.2865
 169  577.6948
 170  450.3417
 171  194.9155
 172  222.469
 173  281.1154
 174  756.3264
 175  555.3363
 176  390.2042
 177  735.4095
 178  716.3401
 179  797.973
 180  858.7576
 181  666.1796
 182  779.2239
 183  758.7386
 184  830.5313
 185  331.7944
 186  506.6758
 187  675.9431
 188  733.9541
 189  636.167
 190  782.1055
 191  894.486
 192  998.2845
 193  755.4212
 194  648.4675
 195  809.5167
 196  772.4533
 197  805.8047
 198  1117.736
 199  1057.889
 200  957.6972
 201  814.8671
 202  416.4882
 203  647.1662
 204  725.2443
 205  840.1876
 206  823.5477
 207  1146.812
 208  1155.514
 209  866.3333
 210  795.217
 211  840.3964
 212  988.5737
 213  982.5739
 214  866.2831
 215  723.1822
 216  809.2567
 217  1008.023
 218  644.3353
 219  418.9748
 220  634.3091
 221  517.4842
 222  588.6035
 223  623.2335
 224  212.0596
 225  461.1422
 226  382.0114
 227  427.7848
 228  598.1094
 229  799.2507
 230  712.382
 231  478.8802
 232  753.9457
 233  482.9026
 234  624.6176
 235  888.5923
 236  519.319
 237  658.8869
 238  522.4955
 239  420.4502
 240  418.6907
 241  837.6328
 242  857.3179
 243  681.2249
 244  825.6909
 245  814.4347
 246  817.5947
 247  641.7294
 248  591.7985
 249  649.3782
 250  678.9347
 251  690.5049
 252  483.2893
 253  388.1629
 254  618.436
 255  551.2585
 256  635.8013
 257  920.4333
 258  998.4179
 259  743.3732
 260  467.262
 261  591.7212
 262  483.5095
 263  516.2094
 264  380.3779
 265  420.2279
 266  499.3865
 267  292.1525
 268  424.7227
 269  346.5688
 270  415.1557
 271  360.8039
 272  429.2995
 273  514.4376
 274  416.0956
 275  216.3163
 276  540.893
 277  790.0301
 278  732.8292
 279  533.5541
 280  1107.594
 281  609.509
 282  491.788
 283  512.321
 284  565.5773
 285  538.4293
 286  526.7293
 287  919.142
 288  722.6022
 289  813.1237
 290  1141.351
 291  885.7415
 292  635.1716
 293  652.3821
 294  857.2017
 295  718.1669
 296  690.7224
 297  695.5113
 298  317.3807
 299  528.6659
 300  815.0431
 301  738.2339
 302  524.3694
 303  908.3962
 304  1027.932
 305  580.3284
 306  1313.454
 307  2075.638
 308  1764.694
 309  1727.346
 310  1434.657
 311  1059.309
 312  472.8232
 313  481.4829
 314  590.8633
 315  363.7379
 316  434.717
 317  239.7432
 318  228.0012
 319  203.641
 320  372.848
 321  440.4027
 322  459.8786
 323  947.3889
 324  976.9368
 325  687.9324
 326  701.9148
 327  639.8846
 328  630.437
 329  567.309
 330  802.8267
 331  564.3386
 332  475.7354
 333  490.7571
 334  414.483
 335  585.3356
 336  653.8365
 337  541.5439
 338  421.8101
 339  477.1974
 340  494.6723
 341  565.0885
 342  860.4966
 343  562.5211
 344  380.4798
 345  576.6833
 346  1010.95
 347  931.4571
 348  904.7714
 349  744.4456
 350  796.9889
 351  948.3596
 352  823.4083
 353  222.1658
 354  457.6569
 355  402.4935
 356  463.8471
 357  347.5164
 358  303.4182
 359  399.5528
 360  468.4261
 361  552.3506
 362  598.2831
 363  439.6599
 364  515.4364
 365  695.4379
 366  748.426
 367  766.7894
 368  700.5922
 369  458.3552
 370  720.1517
 371  786.1407
 372  631.0137
 373  545.1543
 374  406.7298
 375  766.9138
 376  934.0154
 377  865.0814
 378  485.2593
 379  755.0377
 380  1071.124
 381  918.0822
 382  744.4698
 383  271.1401
 384  677.882
 385  1103.039
 386  1154.371
 387  831.0316
 388  1081.682
 389  1091.157
 390  1023.024
 391  713.7092
 392  658.7949
 393  811.0505
 394  597.4135
 395  499.3566
 396  416.183
 397  598.2992
 398  640.9866
 399  708.5092
 400  573.2369
 401  468.4896
 402  1114.103
 403  951.9806
 404  692.8224
 405  630.0068
 406  565.099
 407  612.5691
 408  701.9313
 409  712.9178
 410  855.2785
 411  716.9125
 412  830.6061
 413  819.1138
 414  830.5583
 415  1037.194
 416  889.499
 417  927.6359
 418  915.5823
 419  772.7442
 420  783.2452
 421  527.0244
 422  510.7836
 423  648.4977
 424  803.7434
 425  838.6814
 426  689.8284
 427  631.1298
 428  796.5225
 429  522.215
 430  533.872
 431  329.7387
 432  464.6557
 433  480.3133
 434  643.8977
 435  391.7348
 436  147.0972
 437  591.9329
 438  789.7294
 439  826.6915
 440  421.7894
 441  113.81
 442  -240.8682
 443  -330.2507
 444  333.783
 445  795.8917
 446  858.4791
 447  870.7127
 448  890.9641
 449  521.8772
 450  101.7516
 451  180.4914
 452  710.1607
 453  648.6401
 454  556.7226
 455  889.3474
 456  911.9883
 457  818.3036
 458  569.1717
 459  548.9855
 460  521.3643
 461  565.5129
 462  541.9613
 463  244.1129
 464  396.1865
 465  514.2051
 466  588.8946
 467  559.3781
 468  465.0883
 469  564.6546
 470  631.8557
 471  161.4077
 472  323.6036
 473  238.8573
 474  90.26085
 475  -124.1374
 476  311.2479
 477  743.2016
 478  688.3039
 479  583.3162
 480  523.7358
 481  789.1718
 482  390.6709
 483  38.05492
 484  351.4816
 485  334.3266
 486  406.4152
 487  862.4056
 488  668.3491
 489  312.2978
 490  233.8641
 491  624.4232
 492  661.941
 493  919.1124
 494  1004.514
 495  838.8747
 496  424.3164
 497  399.5733
 498  697.5176
 499  792.3583
 500  472.8615
 501  455.4098
 502  838.2052
 503  1113.665
 504  1252.617
 505  927.1758
 506  965.0329
 507  712.5538
 508  781.6472
 509  913.763
 510  952.2684
 511  1020.137
