# Input file       =  1201001850.126311_cleaned.dat
# Candidate        =  PSR_0332+5434
# Telescope        =  AR
# Epoch_topo       =  58144.484596369344
# Epoch_bary       =  N/A
# T_sample         =  0.002
# Data Folded      =  7471104
# Data Avg         =  0.134044742185149
# Data StdDev      =  4.63030510816353 
# Profile Bins     =  512
# Profile Avg      =  1955.81387740945 
# Profile StdDev   =  559.32859122277  
# Reduced chi-sqr  =  1.755
# Prob(Noise)      <  1.44e-23   (~9.9 sigma)
# P_topo (ms)      =  714.573379444516  +/- 1.94e-05
# P'_topo (s/s)    =  -0                +/- 1.01e-11
# P''_topo (s/s^2) =  0                 +/- 4.37e-15
# P_bary (ms)      =  N/A
# P'_bary (s/s)    =  N/A
# P''_bary (s/s^2) =  N/A
# P_orb (s)        =  N/A
# asin(i)/c (s)    =  N/A
# eccentricity     =  N/A
# w (rad)          =  N/A
# T_peri           =  N/A
######################################################
   0  2645.061
   1  2953.258
   2  2262.206
   3  1637.459
   4  1467.767
   5  1206.899
   6  997.4245
   7  1505.416
   8  1971.082
   9  2636.374
  10  2330.418
  11  1540.294
  12  1066.671
  13  1095.627
  14  1458.884
  15  1683.695
  16  2214.72
  17  2382.389
  18  2919.366
  19  2458.425
  20  2056.589
  21  1706.816
  22  1707.905
  23  1691.187
  24  1500.045
  25  1782.81
  26  2080.725
  27  2359.863
  28  1751.396
  29  1545.94
  30  1456.707
  31  1359.162
  32  1597.106
  33  2680.966
  34  3098.524
  35  2664.829
  36  1730.417
  37  1240.781
  38  1674.787
  39  1529.852
  40  1343.976
  41  2112.889
  42  2114.093
  43  1898.902
  44  1697.829
  45  1491.514
  46  1472.339
  47  1288.706
  48  1688.455
  49  2332.421
  50  2871.702
  51  2838.722
  52  2611.488
  53  1450.153
  54  1036.2
  55  1297.39
  56  1566.285
  57  1638.094
  58  1876.151
  59  1982.649
  60  2079.83
  61  1674.317
  62  1179.833
  63  1394.968
  64  1407.299
  65  1552.849
  66  2088.189
  67  3158.36
  68  2758.184
  69  2167.343
  70  1889.375
  71  1774.415
  72  1576.053
  73  1512.243
  74  1641.817
  75  2216.237
  76  1827.624
  77  1109.607
  78  1062.589
  79  1426.893
  80  1608.006
  81  1856.127
  82  1669.463
  83  2170.216
  84  2936.135
  85  2355.365
  86  1612.82
  87  1373.159
  88  1214.117
  89  1267.651
  90  1612.978
  91  2304.141
  92  2442.198
  93  2090.469
  94  1638.594
  95  1477.42
  96  1263.873
  97  1201.639
  98  1859.275
  99  2413.814
 100  3126.906
 101  2741.044
 102  1829.384
 103  1700.889
 104  2107.323
 105  2150.577
 106  1889.314
 107  2101.033
 108  2302.836
 109  2126.364
 110  1448.162
 111  1663.595
 112  1456.793
 113  1422.43
 114  1667.138
 115  2016.195
 116  3135.108
 117  3201.301
 118  2263.44
 119  1624.274
 120  1828.71
 121  1536.268
 122  1518.767
 123  1926.559
 124  2437.844
 125  2331.86
 126  1885.563
 127  1689.352
 128  1444.271
 129  1508.585
 130  1358.333
 131  1532.536
 132  2481.017
 133  2963.612
 134  2856.291
 135  2117.144
 136  1836.253
 137  1670.151
 138  1380.188
 139  1636.627
 140  2203.639
 141  2175.605
 142  2174.459
 143  1950.446
 144  1532.365
 145  1414.398
 146  1432.179
 147  2011.753
 148  2390.955
 149  3043.046
 150  3066.025
 151  2463.978
 152  2163.031
 153  1686.428
 154  1471.114
 155  1479.202
 156  1693.849
 157  2337.386
 158  2664.388
 159  2440.24
 160  1847.739
 161  1817.181
 162  2040.16
 163  2332.217
 164  2384.839
 165  2358.758
 166  3062.878
 167  2783.094
 168  2178.797
 169  1906.327
 170  1841.426
 171  1984.609
 172  1860.598
 173  1963.797
 174  2611.28
 175  2412.116
 176  1814.472
 177  1323.439
 178  1255.538
 179  1303.641
 180  1494.418
 181  1746.564
 182  2218.841
 183  2868.543
 184  2565.3
 185  2189.214
 186  1460.542
 187  1609.793
 188  1771.033
 189  1900.075
 190  2565.963
 191  2723.498
 192  1967.329
 193  1168.921
 194  1015.834
 195  1122.497
 196  1496.071
 197  1535.01
 198  2410.035
 199  3097.605
 200  2520.097
 201  2012.827
 202  1928.763
 203  1923.468
 204  1703.444
 205  1387.443
 206  1723.634
 207  2129.049
 208  2236.912
 209  1938.03
 210  1523.032
 211  1586.127
 212  1750.428
 213  1332.226
 214  1705.378
 215  2922.107
 216  3405.08
 217  3265.858
 218  2279.811
 219  1763.247
 220  2178.669
 221  2735.121
 222  3160.744
 223  3621.301
 224  3377.079
 225  2753.156
 226  1794.579
 227  1677.592
 228  1373.222
 229  1646.021
 230  1890.81
 231  2484.611
 232  3082.055
 233  2896.526
 234  2858.984
 235  2296.68
 236  1837.999
 237  1839.274
 238  1623.444
 239  1782.166
 240  2068.752
 241  2369.124
 242  1614.319
 243  1477.597
 244  1034.326
 245  1315.546
 246  1734.158
 247  1971.292
 248  2678.679
 249  2887.442
 250  2550.929
 251  1529.314
 252  1519.663
 253  1473.764
 254  1268.167
 255  1600.546
 256  2236.131
 257  2830.645
 258  2277.519
 259  1216.983
 260  1179.228
 261  1541.771
 262  1604.875
 263  1993.108
 264  2769.64
 265  3162.34
 266  2682.932
 267  1947.054
 268  1898.839
 269  1795.921
 270  1375.291
 271  1271.715
 272  1830.485
 273  2723.376
 274  2434.715
 275  2006.259
 276  1619.099
 277  1390.995
 278  1438.763
 279  1730.094
 280  1675.327
 281  2615.683
 282  3084.152
 283  2390.344
 284  2058.762
 285  2221.369
 286  1693.33
 287  1465.073
 288  1676.688
 289  2081.158
 290  2370.88
 291  2470.501
 292  1610.01
 293  1336.985
 294  1643.523
 295  1880.491
 296  1780.911
 297  2227.914
 298  3116.136
 299  3008.329
 300  2037.933
 301  1762.754
 302  1538.869
 303  1189.209
 304  1363.599
 305  1880.851
 306  2394.344
 307  2253.191
 308  1885.7
 309  1313.888
 310  1103.374
 311  1484.09
 312  1898.729
 313  2118.173
 314  2585.556
 315  2693.409
 316  2427.791
 317  1863.285
 318  1530.275
 319  1879.475
 320  2086.152
 321  2220.411
 322  2285.59
 323  2365.211
 324  2118.81
 325  1628.564
 326  1773.664
 327  1881.841
 328  1751.332
 329  2114.075
 330  2402.302
 331  2889.032
 332  2790.786
 333  2025.237
 334  1611.001
 335  1500.596
 336  1972.288
 337  1861.312
 338  2280.692
 339  2680.138
 340  2154.802
 341  1491.071
 342  946.6052
 343  1235.621
 344  1192.198
 345  1289.231
 346  1958.218
 347  2527.155
 348  2759.325
 349  2323.545
 350  1646.577
 351  1637.689
 352  1819.952
 353  1975.588
 354  1827.222
 355  2491.387
 356  2697.329
 357  1616.078
 358  1139.032
 359  1181.055
 360  1311.95
 361  1586.104
 362  1362.744
 363  2437.823
 364  3469.261
 365  3034.225
 366  2078.262
 367  1576.976
 368  1637.845
 369  1494.895
 370  1263.516
 371  1554.348
 372  1815.022
 373  2149.704
 374  1909.375
 375  1227.902
 376  1603.528
 377  1665.276
 378  1708.43
 379  1982.785
 380  2835.682
 381  3047.107
 382  2619.135
 383  2299.501
 384  1949.53
 385  1976.497
 386  1764.952
 387  1541.895
 388  2123.605
 389  2594.49
 390  2413.285
 391  1847.763
 392  1335.836
 393  1724.978
 394  2116.074
 395  1545.562
 396  1663.395
 397  2491.371
 398  2595.227
 399  2283.751
 400  1959.625
 401  1578.021
 402  1484.702
 403  1503.615
 404  1832.942
 405  2229.652
 406  2041.919
 407  1846.003
 408  1787.645
 409  1586.392
 410  1456.709
 411  2014.115
 412  2264.848
 413  2565.293
 414  2973.114
 415  2861.309
 416  2061.402
 417  1968.317
 418  1540.813
 419  986.9927
 420  1682.677
 421  2248.078
 422  2456.802
 423  2346.765
 424  1635.607
 425  1359.255
 426  1794.209
 427  1648.711
 428  1630.064
 429  2154.637
 430  3085.662
 431  3048.02
 432  2381.664
 433  1703.604
 434  1727.985
 435  1852.478
 436  1769.925
 437  1939.256
 438  2464.751
 439  2470.322
 440  2029.665
 441  1638.741
 442  1276.225
 443  1297.047
 444  1609.196
 445  2093.639
 446  2751.335
 447  2998.094
 448  2771.825
 449  1842.687
 450  1308.115
 451  1458.631
 452  1171.33
 453  1681.942
 454  2507.992
 455  2941.887
 456  2326.517
 457  1609.943
 458  1212.826
 459  1536.291
 460  1268.48
 461  1513.059
 462  2168.126
 463  2749.052
 464  2894.18
 465  2435.927
 466  1842.886
 467  1573.209
 468  1950.974
 469  1873.876
 470  1784.655
 471  2171.028
 472  2247.659
 473  1833.505
 474  1454.752
 475  1344.315
 476  1427.619
 477  1312.297
 478  1515.654
 479  2311.41
 480  2973.085
 481  2451.212
 482  1787.627
 483  1497.117
 484  1445.833
 485  1387.107
 486  1491.257
 487  2298.873
 488  2353.808
 489  1727.795
 490  1370.781
 491  1054.091
 492  1172.504
 493  1948.337
 494  2266.171
 495  2259.976
 496  2697.331
 497  2822.277
 498  2411.103
 499  1558.141
 500  1342.536
 501  1834.561
 502  1559.88
 503  1662.392
 504  2300.314
 505  2161.058
 506  2079.324
 507  1787.142
 508  1313.235
 509  1054.416
 510  798.7011
 511  1585.655
