# Input file       =  1201634619.110260-PSRB0329-2ms-sampling-dd.dat
# Candidate        =  PSR_0332+5434
# Telescope        =  AR
# Epoch_topo       =  58151.808311461340
# Epoch_bary       =  N/A
# T_sample         =  0.002
# Data Folded      =  7340032
# Data Avg         =  4.11755471496919e-10
# Data StdDev      =  6.13304976133431 
# Profile Bins     =  512
# Profile Avg      =  0.0421445289290741
# Profile StdDev   =  734.328670174358 
# Reduced chi-sqr  =  0.581
# Prob(Noise)      <  1   (~0.0 sigma)
# P_topo (ms)      =  714.576958735083  +/- 0.000203
# P'_topo (s/s)    =  -0                +/- 1.07e-10
# P''_topo (s/s^2) =  0                 +/- 4.72e-14
# P_bary (ms)      =  N/A
# P'_bary (s/s)    =  N/A
# P''_bary (s/s^2) =  N/A
# P_orb (s)        =  N/A
# asin(i)/c (s)    =  N/A
# eccentricity     =  N/A
# w (rad)          =  N/A
# T_peri           =  N/A
######################################################
   0  -489.8751
   1  -445.6871
   2  -296.355
   3  -293.2507
   4  159.3075
   5  -96.07082
   6  -696.6752
   7  -1189.362
   8  -1263.034
   9  -722.3126
  10  -366.4071
  11  -27.46678
  12  -257.57
  13  -325.4702
  14  -718.0679
  15  -920.3276
  16  -430.8941
  17  -183.2367
  18  -335.3272
  19  -320.9166
  20  -266.3637
  21  -395.2076
  22  -404.4823
  23  -694.7664
  24  -649.0657
  25  -738.6215
  26  -748.2413
  27  -333.6013
  28  -697.245
  29  -159.7526
  30  299.6326
  31  321.3366
  32  -265.2585
  33  -260.5093
  34  -504.1269
  35  -657.6329
  36  -269.2691
  37  143.319
  38  461.1817
  39  168.8704
  40  -223.2499
  41  56.41664
  42  192.1461
  43  170.0321
  44  -4.182523
  45  397.8275
  46  512.4127
  47  424.4974
  48  500.8365
  49  222.3853
  50  -18.02413
  51  -78.53827
  52  228.4409
  53  -184.7207
  54  -142.1647
  55  -19.31452
  56  -73.55746
  57  10.95739
  58  -475.0746
  59  -65.90726
  60  -346.0559
  61  -328.1576
  62  -286.2449
  63  -146.3443
  64  34.86694
  65  -130.4877
  66  27.50349
  67  217.1953
  68  -233.2065
  69  -34.15268
  70  -241.5116
  71  37.47828
  72  -256.0673
  73  -206.6456
  74  60.89969
  75  -61.39576
  76  170.6343
  77  52.18956
  78  142.0882
  79  -276.3777
  80  -321.0463
  81  333.5377
  82  588.6649
  83  893.3758
  84  638.9453
  85  413.6234
  86  -243.3582
  87  -256.4883
  88  -107.8859
  89  112.5063
  90  44.96705
  91  -161.2777
  92  -213.7114
  93  -280.1932
  94  63.15211
  95  157.9794
  96  239.4247
  97  91.54069
  98  -46.1056
  99  -96.06651
 100  -221.4545
 101  146.1881
 102  207.3338
 103  485.8045
 104  736.3918
 105  367.0603
 106  -81.39673
 107  87.84727
 108  115.3806
 109  -288.493
 110  103.6533
 111  654.3879
 112  702.1424
 113  417.6217
 114  290.8922
 115  492.0106
 116  233.0581
 117  113.2519
 118  364.6479
 119  431.9678
 120  769.0698
 121  787.2478
 122  646.8253
 123  325.3693
 124  330.6574
 125  133.4561
 126  394.261
 127  255.1501
 128  387.4088
 129  393.3601
 130  295.2034
 131  310.2985
 132  -275.1132
 133  -2.222271
 134  -133.9861
 135  -241.324
 136  -245.3378
 137  -125.7532
 138  25.76149
 139  -224.8506
 140  50.54459
 141  -281.4077
 142  -16.61587
 143  -150.8627
 144  -29.53157
 145  163.5791
 146  -319.2146
 147  -379.7007
 148  -337.6333
 149  -485.3167
 150  -303.0699
 151  -134.1514
 152  489.1266
 153  461.5018
 154  564.9511
 155  122.868
 156  -101.8907
 157  -89.65244
 158  -231.9938
 159  -215.5313
 160  -188.2079
 161  156.5774
 162  135.0211
 163  288.4691
 164  497.7566
 165  397.6975
 166  149.8328
 167  -349.4772
 168  -529.8417
 169  -312.5306
 170  82.86584
 171  143.3813
 172  568.1337
 173  189.3867
 174  -241.3717
 175  -503.1918
 176  -404.9367
 177  -470.3561
 178  -432.0648
 179  -68.24148
 180  -9.172562
 181  -510.7163
 182  -602.2905
 183  -425.7217
 184  -584.7336
 185  -409.4636
 186  -106.3679
 187  139.0202
 188  -207.1376
 189  -551.6187
 190  -332.5995
 191  -242.3271
 192  -373.9456
 193  37.88416
 194  534.6486
 195  544.2748
 196  -81.19796
 197  -250.9691
 198  -99.15269
 199  -287.2964
 200  -359.4001
 201  -21.08793
 202  311.2946
 203  -9.38885
 204  -160.7471
 205  281.0099
 206  -22.4457
 207  369.7658
 208  275.4415
 209  178.1272
 210  52.35551
 211  506.8674
 212  486.1124
 213  517.2954
 214  457.937
 215  64.30293
 216  -133.172
 217  217.7675
 218  -41.00531
 219  -191.6363
 220  251.4268
 221  444.5083
 222  68.16219
 223  141.9764
 224  160.4871
 225  196.5767
 226  345.7346
 227  824.5731
 228  611.5732
 229  291.6644
 230  388.4784
 231  205.5403
 232  72.72974
 233  199.154
 234  26.46022
 235  -185.7979
 236  75.14967
 237  159.5215
 238  -26.58354
 239  -561.4465
 240  -816.306
 241  -564.9824
 242  -96.7784
 243  369.0546
 244  257.8367
 245  159.9644
 246  96.01271
 247  202.5089
 248  -18.38181
 249  -203.186
 250  -201.0668
 251  616.3489
 252  554.6082
 253  629.4015
 254  863.4703
 255  506.1405
 256  118.932
 257  -260.7477
 258  -325.6573
 259  349.1709
 260  719.4313
 261  703.4869
 262  493.58
 263  846.2471
 264  39.88997
 265  -130.5941
 266  275.7409
 267  239.9902
 268  92.51083
 269  -58.68509
 270  263.3091
 271  24.77109
 272  -359.1483
 273  101.9937
 274  -42.57657
 275  -266.1317
 276  -46.09137
 277  347.2522
 278  273.0806
 279  182.2392
 280  -371.9344
 281  -424.0302
 282  -626.2123
 283  217.7929
 284  178.2123
 285  485.2637
 286  543.5894
 287  725.1507
 288  414.5733
 289  0.168716
 290  90.76743
 291  238.1669
 292  782.5706
 293  1064.59
 294  527.2748
 295  749.2104
 296  427.0374
 297  153.2423
 298  363.9176
 299  274.3414
 300  607.4658
 301  186.4695
 302  437.1181
 303  348.5205
 304  -295.2121
 305  -330.2678
 306  -186.3863
 307  -138.4373
 308  -229.9312
 309  -322.5322
 310  186.2645
 311  -22.07418
 312  -426.5857
 313  -248.8379
 314  -388.178
 315  -338.0579
 316  -673.7408
 317  -392.1691
 318  -204.2899
 319  -239.0697
 320  -88.16658
 321  -173.1258
 322  -380.0148
 323  -478.1194
 324  -210.7383
 325  -73.1603
 326  -427.3633
 327  -183.1167
 328  38.68753
 329  51.72139
 330  13.5566
 331  -549.9562
 332  -653.3726
 333  -711.4028
 334  -536.4948
 335  -507.6819
 336  -138.8327
 337  79.33521
 338  -413.268
 339  -614.0589
 340  -616.7614
 341  -1117.764
 342  -898.7525
 343  -400.7968
 344  -353.9236
 345  -326.4697
 346  -744.6119
 347  -614.192
 348  -890.1959
 349  -582.4339
 350  -398.6527
 351  -218.1424
 352  163.3765
 353  -206.217
 354  -343.6419
 355  -612.5488
 356  -626.8979
 357  -380.2935
 358  -36.46955
 359  334.9869
 360  129.8837
 361  -469.2224
 362  -514.8826
 363  -621.8204
 364  -553.032
 365  -308.5634
 366  99.80789
 367  261.0675
 368  -252.9088
 369  -309.1185
 370  -536.3761
 371  -640.3167
 372  -524.3911
 373  -503.8343
 374  -332.8074
 375  -206.9592
 376  -122.9951
 377  -81.08965
 378  -303.6153
 379  -319.1663
 380  -460.0501
 381  -375.8099
 382  -702.8149
 383  -653.8203
 384  -177.5974
 385  94.38223
 386  340.1974
 387  -75.30167
 388  141.7744
 389  250.8388
 390  143.9595
 391  555.7239
 392  255.546
 393  53.43389
 394  48.04059
 395  -38.02135
 396  307.1612
 397  520.9188
 398  636.9026
 399  241.4578
 400  -198.1356
 401  -419.5974
 402  -687.9211
 403  -353.5986
 404  -332.4285
 405  9.058404
 406  129.6542
 407  -138.3696
 408  -54.33113
 409  -481.1202
 410  -340.1385
 411  -305.835
 412  46.56814
 413  206.5025
 414  240.2518
 415  34.76034
 416  -86.35265
 417  -79.3678
 418  570.1166
 419  221.8463
 420  78.33575
 421  117.2896
 422  452.3617
 423  587.9595
 424  44.57993
 425  208.2183
 426  543.8148
 427  209.6471
 428  226.9834
 429  125.7433
 430  90.57782
 431  -43.95529
 432  208.613
 433  -32.90541
 434  -179.6927
 435  -343.0573
 436  -649.3027
 437  -651.3414
 438  -672.1159
 439  -227.6692
 440  -200.4113
 441  -102.0324
 442  335.8403
 443  294.93
 444  -115.061
 445  -428.6744
 446  -82.26183
 447  216.2036
 448  335.7119
 449  473.534
 450  372.7667
 451  378.5975
 452  0.8743906
 453  57.81029
 454  167.3904
 455  600.5528
 456  686.2405
 457  428.8927
 458  935.5394
 459  413.137
 460  532.2689
 461  903.4356
 462  1102.407
 463  1067.245
 464  762.5419
 465  759.0334
 466  173.3714
 467  148.6074
 468  377.4681
 469  557.4082
 470  414.6393
 471  287.4794
 472  478.1175
 473  544.4147
 474  196.9512
 475  -99.01611
 476  214.5099
 477  207.3382
 478  -25.70028
 479  -356.6028
 480  53.48639
 481  323.4539
 482  506.4836
 483  925.4841
 484  1541.682
 485  1531.198
 486  885.635
 487  462.3483
 488  513.9235
 489  69.03604
 490  -171.5946
 491  -57.58242
 492  164.2665
 493  -1.31862
 494  74.18049
 495  430.2846
 496  201.3969
 497  211.145
 498  86.88775
 499  43.52685
 500  -249.373
 501  -62.89839
 502  -77.81575
 503  -235.2742
 504  -445.492
 505  -412.4147
 506  -496.5142
 507  -554.6533
 508  -537.9329
 509  12.9702
 510  -571.1871
 511  -793.1974
