# Input file       =  1201518865.108206-PSRB0329-2ms-sampling-dd.dat
# Candidate        =  PSR_0332+5434
# Telescope        =  AR
# Epoch_topo       =  58150.468566067197
# Epoch_bary       =  N/A
# T_sample         =  0.002
# Data Folded      =  7208960
# Data Avg         =  -7.01273121785406e-10
# Data StdDev      =  7.06900458512322 
# Profile Bins     =  512
# Profile Avg      =  0.131668605509668
# Profile StdDev   =  838.80225775141  
# Reduced chi-sqr  =  0.887
# Prob(Noise)      <  0.969   (~0.0 sigma)
# P_topo (ms)      =  714.576075059822  +/- 9.49e-05
# P'_topo (s/s)    =  -0                +/- 5.1e-11
# P''_topo (s/s^2) =  0                 +/- 2.29e-14
# P_bary (ms)      =  N/A
# P'_bary (s/s)    =  N/A
# P''_bary (s/s^2) =  N/A
# P_orb (s)        =  N/A
# asin(i)/c (s)    =  N/A
# eccentricity     =  N/A
# w (rad)          =  N/A
# T_peri           =  N/A
######################################################
   0  -463.9512
   1  -710.6306
   2  -637.8611
   3  -727.6774
   4  -1020.31
   5  -603.4017
   6  120.0847
   7  600.0139
   8  337.092
   9  -33.93132
  10  382.2731
  11  82.54155
  12  109.9873
  13  -6.000638
  14  142.8338
  15  -429.0535
  16  -910.3522
  17  -1139.115
  18  -1118.719
  19  -1063.598
  20  -1028.582
  21  -295.4138
  22  292.0667
  23  460.978
  24  50.34346
  25  -112.812
  26  -71.08471
  27  -562.8818
  28  -833.8741
  29  -139.4842
  30  259.344
  31  93.25594
  32  -314.9306
  33  -550.5076
  34  -877.4679
  35  -825.439
  36  -918.6557
  37  -779.3203
  38  -586.1744
  39  -276.4843
  40  -37.3683
  41  119.5328
  42  33.03126
  43  -36.49005
  44  -253.493
  45  -754.7808
  46  -820.2
  47  -617.1432
  48  -523.9662
  49  -450.3513
  50  -241.8129
  51  -155.0573
  52  -292.3709
  53  -439.8692
  54  -128.9996
  55  523.6046
  56  696.4661
  57  282.8148
  58  -345.1838
  59  471.9572
  60  549.8067
  61  647.322
  62  939.3232
  63  527.904
  64  -57.90105
  65  -662.0236
  66  -833.394
  67  -811.9203
  68  -753.1582
  69  -546.7875
  70  -470.3207
  71  -208.1759
  72  89.18726
  73  501.7389
  74  486.1189
  75  393.5747
  76  297.4696
  77  216.7277
  78  -139.3557
  79  -390.8515
  80  327.3269
  81  348.4644
  82  36.52506
  83  86.51842
  84  -101.2712
  85  102.0039
  86  34.90524
  87  -207.8062
  88  -185.2539
  89  -167.3988
  90  95.58193
  91  150.8835
  92  25.19463
  93  -99.83307
  94  -750.5206
  95  -651.2338
  96  -166.1726
  97  -449.4486
  98  -420.6732
  99  -571.8525
 100  -459.9768
 101  -498.0843
 102  -409.365
 103  229.5326
 104  233.3114
 105  404.8155
 106  579.1335
 107  698.3034
 108  368.2272
 109  341.743
 110  592.1647
 111  330.8099
 112  -43.16162
 113  106.5879
 114  255.4889
 115  -13.99423
 116  -48.39108
 117  -48.25555
 118  -7.615131
 119  -433.8004
 120  -309.9543
 121  311.7928
 122  415.5576
 123  539.6352
 124  126.5215
 125  -110.6142
 126  -11.72799
 127  -317.0504
 128  -325.2908
 129  -307.3547
 130  -256.4144
 131  -248.96
 132  -287.145
 133  -468.483
 134  -756.9042
 135  -788.4747
 136  -540.8765
 137  -332.0381
 138  310.0549
 139  1086.865
 140  1308.537
 141  1704.647
 142  1790.905
 143  106.019
 144  -321.7989
 145  -289.2006
 146  960.1996
 147  1567.893
 148  1760.562
 149  1446.328
 150  428.5971
 151  -127.8158
 152  -645.9203
 153  -657.8679
 154  -317.9436
 155  458.6389
 156  1116.574
 157  1338.932
 158  1300.155
 159  1033.143
 160  514.4899
 161  -39.69905
 162  -704.5583
 163  346.6248
 164  485.7875
 165  627.0954
 166  875.4493
 167  638.7841
 168  -48.48486
 169  -114.3795
 170  -123.2125
 171  -43.05859
 172  124.4031
 173  433.6451
 174  647.5244
 175  555.179
 176  438.2015
 177  557.1439
 178  461.784
 179  275.6063
 180  -302.9626
 181  -87.42189
 182  -234.0234
 183  -443.0195
 184  -405.8829
 185  -300.7022
 186  -197.1619
 187  -378.3626
 188  -388.6985
 189  -290.0611
 190  -236.2221
 191  12.04247
 192  40.65929
 193  152.4519
 194  100.2212
 195  -36.68833
 196  83.47126
 197  -201.8318
 198  -480.8853
 199  -689.4938
 200  -803.1451
 201  -787.3419
 202  -917.8061
 203  -140.3543
 204  492.6545
 205  1048.619
 206  1375.956
 207  988.0034
 208  371.01
 209  -404.3404
 210  -73.93759
 211  289.8517
 212  880.8735
 213  767.5844
 214  439.6014
 215  11.13374
 216  -310.2704
 217  -832.1492
 218  -1335.696
 219  -596.1189
 220  -220.8518
 221  204.784
 222  456.1851
 223  486.9645
 224  443.7829
 225  -115.9834
 226  -224.5035
 227  -212.604
 228  -113.3147
 229  -251.2177
 230  -341.3304
 231  104.9494
 232  70.2891
 233  -539.9437
 234  -718.7779
 235  -868.0899
 236  -416.6378
 237  -365.7751
 238  -207.0923
 239  -15.69073
 240  -175.0583
 241  -49.34214
 242  -165.3478
 243  -45.00486
 244  171.6092
 245  147.4235
 246  -301.6593
 247  -734.8068
 248  -877.9844
 249  -579.9593
 250  -465.8655
 251  57.54494
 252  481.2752
 253  188.0567
 254  256.0819
 255  354.9268
 256  475.0385
 257  902.932
 258  1123.307
 259  1155.074
 260  1050.315
 261  1337.965
 262  848.614
 263  -394.1035
 264  -126.9527
 265  82.13754
 266  363.6752
 267  166.3887
 268  183.5725
 269  41.26258
 270  -116.0045
 271  -18.85807
 272  243.5331
 273  190.4539
 274  355.7919
 275  110.8251
 276  -256.9835
 277  252.8552
 278  296.3619
 279  33.92669
 280  -159.1501
 281  -109.3279
 282  -261.4604
 283  -1030.691
 284  -1030.488
 285  -630.0156
 286  176.5632
 287  429.5547
 288  430.8579
 289  593.7655
 290  70.92812
 291  338.102
 292  -119.1709
 293  88.25492
 294  181.5834
 295  450.8113
 296  834.1896
 297  1479.033
 298  1598.782
 299  1114.633
 300  579.5853
 301  464.5348
 302  548.2307
 303  428.5534
 304  393.8513
 305  817.0879
 306  1215.57
 307  967.0262
 308  1039.708
 309  599.8969
 310  217.478
 311  596.6098
 312  614.0883
 313  906.5219
 314  163.2041
 315  -193.3867
 316  -556.8049
 317  -590.8719
 318  -463.7707
 319  -34.34798
 320  40.66302
 321  13.28869
 322  -44.88186
 323  114.6826
 324  -224.4289
 325  -607.5363
 326  -518.7562
 327  193.1046
 328  231.6448
 329  -46.49095
 330  10.27158
 331  48.83211
 332  -299.3743
 333  -522.2621
 334  -334.3939
 335  -312.0803
 336  -318.8193
 337  -150.9746
 338  540.1059
 339  454.2971
 340  549.8203
 341  123.2507
 342  -225.0325
 343  -218.3308
 344  -35.78287
 345  -277.9977
 346  -208.2146
 347  -247.3403
 348  -495.4389
 349  -874.1105
 350  -794.8119
 351  -479.2616
 352  -106.3437
 353  108.192
 354  188.334
 355  346.9274
 356  -4.973523
 357  -161.3874
 358  -475.8373
 359  -303.4003
 360  158.7268
 361  16.20007
 362  -75.84329
 363  20.80175
 364  -211.7944
 365  -189.2233
 366  -474.4296
 367  -690.2881
 368  -158.7934
 369  541.5765
 370  1162.783
 371  1163.127
 372  1477.387
 373  1576.963
 374  916.4849
 375  485.0046
 376  151.5204
 377  449.3969
 378  455.8937
 379  887.5512
 380  1005.132
 381  589.1744
 382  59.04871
 383  -572.7065
 384  -150.213
 385  348.9435
 386  869.8036
 387  1219.087
 388  1128.452
 389  752.9916
 390  -30.66184
 391  145.31
 392  501.127
 393  973.0843
 394  1165.011
 395  813.2998
 396  805.7689
 397  62.81558
 398  -271.7264
 399  -977.3991
 400  -573.5685
 401  233.0345
 402  803.9722
 403  772.419
 404  700.7612
 405  913.1266
 406  640.4492
 407  575.439
 408  169.3936
 409  64.85892
 410  266.6837
 411  -13.70083
 412  -48.81073
 413  -191.0977
 414  -49.99789
 415  -337.5856
 416  -701.1219
 417  -685.6833
 418  -287.2626
 419  310.2025
 420  80.93223
 421  224.4103
 422  285.7422
 423  -489.382
 424  -238.6458
 425  -8.417864
 426  624.43
 427  493.2939
 428  30.8856
 429  -553.1823
 430  -522.1088
 431  -322.5907
 432  -487.1039
 433  -497.7779
 434  50.92057
 435  30.0763
 436  -133.7604
 437  110.2851
 438  1006.411
 439  953.908
 440  755.4396
 441  308.3671
 442  182.9715
 443  166.6865
 444  -229.4949
 445  -330.5943
 446  -414.4718
 447  -590.4975
 448  -1010.788
 449  -954.0713
 450  -484.8735
 451  -380.1882
 452  -415.2804
 453  -596.0536
 454  -671.7696
 455  -829.8282
 456  -587.0172
 457  -697.8692
 458  -1021.591
 459  -429.5969
 460  -278.6489
 461  -908.6977
 462  -1064.379
 463  -1269.677
 464  -1469.201
 465  -1405.508
 466  -1486.101
 467  -773.552
 468  -417.6105
 469  -258.3449
 470  -343.3655
 471  -199.684
 472  -267.8954
 473  -426.4457
 474  -740.5831
 475  -300.7516
 476  -158.9378
 477  215.3926
 478  548.6857
 479  591.2551
 480  351.9896
 481  -471.3463
 482  -663.9965
 483  -866.7104
 484  -409.4445
 485  -5.956576
 486  497.8899
 487  757.6846
 488  251.7755
 489  104.0571
 490  -145.6217
 491  -244.4694
 492  -10.33969
 493  -120.1123
 494  -538.9727
 495  -555.3133
 496  -881.3769
 497  -742.5768
 498  -817.3189
 499  -506.5339
 500  -283.6558
 501  -210.1999
 502  -21.64379
 503  -260.6399
 504  -377.0018
 505  -149.1727
 506  -277.0035
 507  -222.056
 508  -260.3305
 509  300.1372
 510  -91.00639
 511  -360.5231
