# Input file       =  1201188759.107331-PSRB0329-2ms-sampling-dd.dat
# Candidate        =  PSR_0332+5434
# Telescope        =  AR
# Epoch_topo       =  58146.647894760776
# Epoch_bary       =  N/A
# T_sample         =  0.002
# Data Folded      =  7340032
# Data Avg         =  2.64368571736456e-10
# Data StdDev      =  8.68465348261769 
# Profile Bins     =  512
# Profile Avg      =  0.0454747512261626
# Profile StdDev   =  1039.83993135387 
# Reduced chi-sqr  =  0.785
# Prob(Noise)      <  1   (~0.0 sigma)
# P_topo (ms)      =  714.574437499655  +/- 2.25e-05
# P'_topo (s/s)    =  -0                +/- 1.19e-11
# P''_topo (s/s^2) =  0                 +/- 5.24e-15
# P_bary (ms)      =  N/A
# P'_bary (s/s)    =  N/A
# P''_bary (s/s^2) =  N/A
# P_orb (s)        =  N/A
# asin(i)/c (s)    =  N/A
# eccentricity     =  N/A
# w (rad)          =  N/A
# T_peri           =  N/A
######################################################
   0  231.4467
   1  533.8456
   2  443.9968
   3  254.1142
   4  956.2736
   5  899.625
   6  1724.706
   7  1214.585
   8  1958.649
   9  661.0382
  10  840.0523
  11  592.1266
  12  -182.3561
  13  543.2252
  14  292.6954
  15  875.025
  16  228.5857
  17  223.1807
  18  -481.966
  19  273.2842
  20  472.1275
  21  27.14907
  22  297.9621
  23  -230.1703
  24  636.8536
  25  -55.34308
  26  678.9565
  27  672.1602
  28  255.2875
  29  565.6545
  30  374.4971
  31  403.5515
  32  -633.1072
  33  178.8503
  34  388.9529
  35  977.8347
  36  801.3121
  37  163.5842
  38  109.4871
  39  231.0432
  40  925.6584
  41  255.3528
  42  813.1471
  43  59.44271
  44  70.26147
  45  95.52128
  46  -505.4782
  47  -447.4962
  48  -330.4475
  49  426.2035
  50  544.8233
  51  769.6573
  52  111.7187
  53  -482.4434
  54  -340.6641
  55  215.7671
  56  705.1293
  57  217.1492
  58  712.4761
  59  -115.5843
  60  22.82973
  61  -581.8897
  62  -726.6122
  63  38.46354
  64  896.2603
  65  855.4454
  66  -731.468
  67  -533.1572
  68  -1186.407
  69  -842.9708
  70  -112.7775
  71  602.8322
  72  397.4933
  73  -614.9665
  74  -390.4949
  75  -1320.508
  76  -612.3149
  77  -785.9601
  78  -128.1085
  79  201.3529
  80  -660.7025
  81  -621.293
  82  -1323.115
  83  -482.6284
  84  -370.1165
  85  536.0611
  86  201.0328
  87  555.8563
  88  442.3855
  89  470.2471
  90  901.4523
  91  -93.54788
  92  1357.906
  93  907.6204
  94  1244.824
  95  968.9326
  96  1588.524
  97  1482.226
  98  682.0966
  99  636.9109
 100  -340.0497
 101  575.7258
 102  400.7878
 103  645.0732
 104  311.5399
 105  204.0076
 106  230.9894
 107  -337.0136
 108  569.0982
 109  -20.36537
 110  -160.628
 111  -750.0071
 112  -444.6165
 113  -194.7494
 114  -221.1806
 115  -73.53795
 116  -319.3554
 117  -11.33266
 118  -736.3793
 119  -101.7846
 120  -657.1344
 121  -143.2115
 122  156.2175
 123  -198.0729
 124  59.38815
 125  28.58345
 126  75.91344
 127  -402.0717
 128  226.5273
 129  211.0977
 130  296.3759
 131  143.8221
 132  32.1281
 133  522.6628
 134  344.5282
 135  1312.288
 136  1106.542
 137  1049.848
 138  941.5027
 139  784.6391
 140  1248.199
 141  416.0549
 142  1136.126
 143  775.3231
 144  810.4965
 145  261.9423
 146  554.1826
 147  366.8018
 148  75.29077
 149  593.9982
 150  728.1561
 151  1351.685
 152  629.9855
 153  1244.181
 154  589.0513
 155  1120.59
 156  1797.17
 157  1784.954
 158  1874.087
 159  1086.97
 160  1517.174
 161  771.008
 162  1510.161
 163  1278.931
 164  1497.651
 165  1176.503
 166  698.4737
 167  574.8588
 168  -16.43488
 169  1100.497
 170  854.8788
 171  1343.49
 172  828.3795
 173  446.8422
 174  638.0739
 175  17.09739
 176  330.5123
 177  11.31203
 178  343.3382
 179  104.8083
 180  108.9885
 181  -294.2357
 182  -385.7726
 183  245.8854
 184  -101.9692
 185  87.91116
 186  -240.8569
 187  40.59832
 188  -190.4509
 189  -279.2259
 190  -566.1136
 191  -965.8397
 192  -582.2579
 193  -596.3351
 194  177.4117
 195  -657.0773
 196  -238.728
 197  -993.0219
 198  -757.4726
 199  -686.3488
 200  -902.7224
 201  342.4362
 202  -452.4762
 203  -20.9422
 204  -871.3068
 205  -625.8084
 206  -325.0854
 207  604.1771
 208  848.7456
 209  279.0183
 210  353.7912
 211  -413.7453
 212  471.8532
 213  342.9565
 214  843.1393
 215  530.1843
 216  464.0522
 217  695.7321
 218  431.9609
 219  651.0005
 220  1.615262
 221  664.7789
 222  475.9809
 223  503.8993
 224  353.1493
 225  352.9944
 226  -77.9678
 227  -778.9905
 228  -194.2254
 229  -365.8619
 230  -354.2014
 231  -833.8733
 232  -746.8745
 233  -956.1006
 234  -1038.45
 235  -348.0531
 236  -659.3195
 237  -183.8479
 238  -434.9186
 239  58.47788
 240  6.305415
 241  -111.564
 242  128.1492
 243  -134.4226
 244  60.93406
 245  -357.8037
 246  -363.8333
 247  -1359.038
 248  -717.5579
 249  -872.714
 250  -366.4806
 251  210.0155
 252  -0.8287778
 253  58.6128
 254  -514.3486
 255  -4.093438
 256  -156.7543
 257  477.3066
 258  813.498
 259  707.8831
 260  429.5413
 261  -178.0491
 262  -43.41237
 263  -850.7668
 264  -172.7638
 265  358.7507
 266  916.2979
 267  633.5731
 268  16.94512
 269  267.3147
 270  -29.42117
 271  454.7834
 272  17.78506
 273  597.9713
 274  139.2435
 275  -14.27388
 276  127.8611
 277  203.5472
 278  563.8337
 279  -294.463
 280  130.2634
 281  14.49105
 282  401.3311
 283  555.2921
 284  1126.194
 285  689.4118
 286  31.90934
 287  -226.0341
 288  -903.7835
 289  -307.3218
 290  -662.008
 291  -162.635
 292  84.67003
 293  518.7759
 294  858.2332
 295  20.51009
 296  201.9688
 297  -745.0452
 298  -553.2548
 299  -1000.474
 300  -628.0102
 301  -555.4431
 302  -371.7485
 303  -140.6049
 304  -730.6099
 305  -479.0424
 306  -1060.438
 307  -713.7701
 308  -246.9125
 309  503.668
 310  -7.117104
 311  -561.3885
 312  -56.65289
 313  -675.1743
 314  -218.4292
 315  -756.1593
 316  -191.2702
 317  -299.7412
 318  -602.3289
 319  -211.9084
 320  -146.9382
 321  290.3158
 322  22.5927
 323  75.43349
 324  -552.4858
 325  -50.87312
 326  96.11346
 327  -149.2428
 328  -46.7597
 329  -1064.797
 330  -208.2716
 331  -464.5318
 332  -277.3539
 333  -592.5629
 334  -548.7062
 335  -711.6724
 336  -1235.581
 337  -1007.814
 338  -1273.374
 339  -1029.951
 340  -1608.255
 341  -1186.092
 342  -1153.995
 343  -1020.442
 344  -763.5645
 345  -1179.36
 346  -859.5477
 347  -1366.654
 348  -914.7442
 349  -1127.454
 350  -465.0941
 351  -797.9645
 352  -454.1507
 353  -372.8784
 354  -682.0563
 355  129.6641
 356  -83.53407
 357  393.2334
 358  -500.4454
 359  -434.2494
 360  -24.1241
 361  326.7803
 362  335.3326
 363  -225.7122
 364  398.1825
 365  -599.7317
 366  -540.7726
 367  -834.6022
 368  -469.7343
 369  -384.8519
 370  -801.0559
 371  -562.4598
 372  -1000.536
 373  -656.2942
 374  -788.0685
 375  -575.8916
 376  -942.3105
 377  -1010.033
 378  -1224.418
 379  -1510.033
 380  -1142.14
 381  -1754.105
 382  -1186.087
 383  -1590.891
 384  -1398.861
 385  -1007.176
 386  -1031.498
 387  -504.4579
 388  -1240.08
 389  -967.2515
 390  -1083.545
 391  -558.0993
 392  -698.5045
 393  -232.1218
 394  -59.34126
 395  1.575217
 396  -283.0585
 397  -172.0612
 398  150.4846
 399  -462.7959
 400  -9.702967
 401  -1066.857
 402  -239.4796
 403  -424.6149
 404  -443.3507
 405  -201.021
 406  -933.2373
 407  -315.6612
 408  -1022.623
 409  -411.1036
 410  -856.3831
 411  -1029.312
 412  -1041.04
 413  -1379.147
 414  -1032.836
 415  -1282.401
 416  -464.43
 417  -563.7842
 418  216.5392
 419  -403.629
 420  -599.4741
 421  -727.2475
 422  -703.5402
 423  54.02394
 424  -239.0888
 425  346.4603
 426  264.8855
 427  629.6302
 428  185.5485
 429  109.6205
 430  -161.193
 431  -152.3123
 432  632.7213
 433  659.6569
 434  1226.016
 435  527.28
 436  1655.345
 437  676.4795
 438  612.3698
 439  794.2916
 440  14.59851
 441  -79.27585
 442  -493.979
 443  -380.5174
 444  -516.7276
 445  -28.46151
 446  -238.5712
 447  -478.8998
 448  -126.4281
 449  -528.4733
 450  164.159
 451  -386.5459
 452  133.0404
 453  -388.1092
 454  340.1286
 455  345.8522
 456  443.9727
 457  1002.655
 458  -131.7139
 459  194.6426
 460  93.51241
 461  448.4295
 462  142.576
 463  525.0959
 464  764.5389
 465  561.7986
 466  794.0715
 467  -277.9669
 468  385.6859
 469  -557.6208
 470  502.3695
 471  1214.428
 472  1268.725
 473  1206.858
 474  273.0994
 475  1314.022
 476  503.3965
 477  832.8931
 478  626.1926
 479  -135.8627
 480  -24.04448
 481  140.6633
 482  718.4041
 483  57.20551
 484  795.1667
 485  -197.4127
 486  -355.3915
 487  -857.6323
 488  -480.8448
 489  -231.3045
 490  -221.2106
 491  -194.6792
 492  -895.8885
 493  82.26897
 494  -402.7708
 495  123.2087
 496  -142.2762
 497  -13.38857
 498  -158.2334
 499  -509.8699
 500  426.5302
 501  154.2944
 502  982.277
 503  -53.23822
 504  217.3387
 505  -464.6782
 506  -659.402
 507  -332.3289
 508  -685.9891
 509  744.0454
 510  726.3435
 511  1047.006
