# Input file       =  1202582396.27699_cleaned.dat
# Candidate        =  PSR_0332+5434
# Telescope        =  AR
# Epoch_topo       =  58162.777954594792
# Epoch_bary       =  N/A
# T_sample         =  0.002
# Data Folded      =  7340032
# Data Avg         =  0.179984509169507
# Data StdDev      =  3.52854908861911 
# Profile Bins     =  512
# Profile Avg      =  2580.030266595   
# Profile StdDev   =  422.483896384836 
# Reduced chi-sqr  =  1.003
# Prob(Noise)      <  0.474   (~0.1 sigma)
# P_topo (ms)      =  714.58013024625   +/- 0.000624
# P'_topo (s/s)    =  -0                +/- 3.29e-10
# P''_topo (s/s^2) =  0                 +/- 1.45e-13
# P_bary (ms)      =  N/A
# P'_bary (s/s)    =  N/A
# P''_bary (s/s^2) =  N/A
# P_orb (s)        =  N/A
# asin(i)/c (s)    =  N/A
# eccentricity     =  N/A
# w (rad)          =  N/A
# T_peri           =  N/A
######################################################
   0  2370.9
   1  2336.541
   2  2441.02
   3  2303.962
   4  2490.167
   5  2502.9
   6  2699.916
   7  2421.548
   8  2238.43
   9  2589.755
  10  2655.586
  11  2256.772
  12  2345.96
  13  2712.817
  14  2794.213
  15  2570.17
  16  2520.312
  17  2515.357
  18  2132.165
  19  2336.219
  20  2259.956
  21  2306.435
  22  2460.496
  23  2359.226
  24  2441.574
  25  2537.332
  26  2544.084
  27  2657.603
  28  2505.991
  29  2618.127
  30  2525.635
  31  2053.764
  32  2268.494
  33  2389.479
  34  2564.14
  35  2540.9
  36  2675.389
  37  2510.758
  38  2394.021
  39  2508.659
  40  2313.723
  41  2190.035
  42  2291.369
  43  2378.551
  44  2414.246
  45  2557.159
  46  2749.027
  47  2631.898
  48  2572.678
  49  2587.959
  50  2384.982
  51  2279.895
  52  2401.936
  53  2594.62
  54  2474.688
  55  2752.498
  56  2736.517
  57  2567.468
  58  2730.824
  59  2886.631
  60  2816.156
  61  2626.56
  62  2387.813
  63  2390.056
  64  2369.604
  65  2443.875
  66  2404.166
  67  2302.211
  68  2441.949
  69  2600.672
  70  3076.906
  71  2876.571
  72  2625.295
  73  2841.313
  74  2838.009
  75  2942.816
  76  2984.63
  77  2687.949
  78  2413.478
  79  2500.469
  80  2432.148
  81  2543.9
  82  2689.479
  83  2607.186
  84  2616.639
  85  2205.406
  86  2449.218
  87  2858.734
  88  2947.721
  89  2902.158
  90  2715.668
  91  2774.681
  92  2899.118
  93  2621.718
  94  2613.668
  95  2994.074
  96  2992.156
  97  2464.678
  98  2700.498
  99  2533.826
 100  2453.478
 101  2300.737
 102  2332.208
 103  2676.21
 104  2517.949
 105  2321.229
 106  2409.881
 107  2325.657
 108  2237.585
 109  2137.976
 110  2407.76
 111  2669.822
 112  2629.23
 113  2657.97
 114  2493.489
 115  2291.839
 116  2215.518
 117  2406.46
 118  2456.05
 119  2388.391
 120  2452.268
 121  2746.219
 122  2605.627
 123  2390.875
 124  2464.979
 125  2492.189
 126  2309.861
 127  2344.896
 128  2361.801
 129  2116.61
 130  2421.01
 131  2609.625
 132  2563.716
 133  2492.346
 134  2838.946
 135  2651.889
 136  2532.622
 137  2698.048
 138  2880.56
 139  3080.356
 140  2611.601
 141  2464.644
 142  2688.014
 143  2748.211
 144  2773.436
 145  2737.04
 146  2571.774
 147  2416.763
 148  2385.505
 149  2828.138
 150  2780.847
 151  2452.498
 152  2614.789
 153  2920.828
 154  2905.547
 155  2847.375
 156  2634.576
 157  2602.289
 158  2353.163
 159  2450.72
 160  2520.951
 161  2679.805
 162  2601.621
 163  2560.506
 164  2468.291
 165  2458.623
 166  2518.885
 167  2781.039
 168  2727.793
 169  2727.85
 170  2807.406
 171  2698.493
 172  2560.874
 173  2594.155
 174  2767.813
 175  2666.884
 176  2701.28
 177  2713.977
 178  2659.435
 179  2402.13
 180  2460.727
 181  2290.494
 182  2561.548
 183  2446.019
 184  2638.157
 185  2639.352
 186  2852.925
 187  2656.858
 188  2538.323
 189  2728.035
 190  2550.771
 191  2251.414
 192  2088.678
 193  2351.667
 194  2521.24
 195  2567.625
 196  2560.333
 197  2604.268
 198  2366.759
 199  2679.639
 200  2660.983
 201  2422.41
 202  2477.281
 203  2552.723
 204  2440.954
 205  2447.763
 206  2262.267
 207  2258.711
 208  1996.16
 209  2544.449
 210  2450.891
 211  2354.118
 212  2379.095
 213  2336.28
 214  2616.593
 215  2735.16
 216  2619.976
 217  2294.085
 218  2527.72
 219  2700.359
 220  2589.403
 221  2753.292
 222  2383.378
 223  2362.854
 224  2580.566
 225  2666.641
 226  2422.052
 227  2378.178
 228  2965.952
 229  2754.168
 230  2405.999
 231  2590.588
 232  2737.944
 233  2848.858
 234  2840.58
 235  2937.375
 236  2667.478
 237  2641.288
 238  2523.405
 239  2528.833
 240  2561.071
 241  2424.288
 242  2497.281
 243  2447.95
 244  2282.479
 245  2328.605
 246  2069.315
 247  1790.042
 248  1953.623
 249  2052.931
 250  2260.29
 251  2236.062
 252  2111.809
 253  2200.314
 254  2364.628
 255  2377.946
 256  2393.874
 257  2318.007
 258  2568.99
 259  2435.362
 260  2590.78
 261  2352.053
 262  2358.864
 263  2621.827
 264  2568.834
 265  2412.763
 266  2072.302
 267  2052.128
 268  2295.363
 269  2242.753
 270  2335.583
 271  2401.751
 272  2228.566
 273  2373.528
 274  2550.735
 275  2530.508
 276  2543.875
 277  2335.247
 278  2165.42
 279  2434.622
 280  2453.761
 281  2282.686
 282  2153.418
 283  2431.633
 284  2283.094
 285  2346.698
 286  2131.044
 287  2565.544
 288  2634.527
 289  2498.564
 290  2319.369
 291  2632.69
 292  3066.96
 293  2578.106
 294  2381.41
 295  2329.723
 296  2418.569
 297  2651.368
 298  2829.803
 299  2512.115
 300  2297.305
 301  2776.863
 302  2793.885
 303  2702.011
 304  2694.46
 305  2560.867
 306  2504.984
 307  2140.539
 308  2343.995
 309  2553.644
 310  2474.053
 311  2736.808
 312  2784.474
 313  2672.73
 314  2552.131
 315  2294.575
 316  2449.832
 317  2339.424
 318  2681.833
 319  2480.742
 320  2134.332
 321  2226.281
 322  2310.536
 323  2220.647
 324  2410.744
 325  2626.29
 326  2441.949
 327  2491.749
 328  2319.341
 329  2558.136
 330  2397.364
 331  2642.802
 332  2669.056
 333  2715.541
 334  2914.05
 335  2931.038
 336  2823.339
 337  2786.796
 338  2838.784
 339  3083.332
 340  2936.681
 341  2740.31
 342  2938.989
 343  3196.077
 344  3113.354
 345  3114.838
 346  2859.872
 347  2833.495
 348  2679.153
 349  2909.773
 350  3228.314
 351  3096.054
 352  2669.649
 353  3050.916
 354  3033.275
 355  2986.651
 356  2814.388
 357  2533.766
 358  2710.836
 359  2823.903
 360  2644.439
 361  2561.429
 362  2981.361
 363  3043.857
 364  2549.943
 365  2152.93
 366  2564.082
 367  3059.355
 368  3426.559
 369  3040.235
 370  2354.177
 371  2494.919
 372  2569.16
 373  2824.102
 374  2912.738
 375  3014.974
 376  2933.167
 377  2755.682
 378  2800.131
 379  2673.079
 380  2689.386
 381  2869.533
 382  2375.4
 383  2366.109
 384  2585.731
 385  2509.48
 386  2668.2
 387  2750.848
 388  2620.992
 389  2449.431
 390  2442.705
 391  2216.425
 392  2578.021
 393  2309.205
 394  2386.786
 395  2271.812
 396  2383.262
 397  2565.651
 398  2687.334
 399  2733.918
 400  2610.356
 401  2369.778
 402  2634.281
 403  2400.461
 404  2556.357
 405  2814.292
 406  2395.123
 407  2677.986
 408  2658.311
 409  2234.281
 410  2343.199
 411  1914.64
 412  1945.767
 413  2079.72
 414  2198.97
 415  2326.126
 416  2001.476
 417  2124.73
 418  2179.094
 419  2061.271
 420  2099.275
 421  2219.592
 422  2567.853
 423  2340.26
 424  2166.919
 425  2528.336
 426  2316.17
 427  2240.847
 428  2451.678
 429  2457.917
 430  2309.645
 431  2286.411
 432  2508.545
 433  2592.707
 434  2178.695
 435  2269.838
 436  2409.135
 437  2280.596
 438  2412.248
 439  2593.786
 440  2551.846
 441  2288.025
 442  2514.372
 443  2382.869
 444  2997.181
 445  2973.686
 446  2518.68
 447  2372.126
 448  2578.016
 449  2400.056
 450  2223.672
 451  2669.38
 452  2658.36
 453  2220.832
 454  2269.066
 455  2350.998
 456  2586.279
 457  2702.314
 458  2691.996
 459  2728.984
 460  2480.833
 461  2713.546
 462  2814.987
 463  2848.245
 464  2909.781
 465  2725.588
 466  3115.674
 467  3234.657
 468  3406.393
 469  3821.871
 470  4295.871
 471  4565.698
 472  4323.125
 473  4180.596
 474  3738.113
 475  3340.25
 476  3061.314
 477  2636.474
 478  3079.955
 479  2858.409
 480  2673.374
 481  2668.886
 482  2747.473
 483  2922.824
 484  3077.037
 485  2832.754
 486  2888.87
 487  2868.928
 488  2718.078
 489  2936.816
 490  2690.796
 491  2777.457
 492  2774.103
 493  3185.962
 494  3118.891
 495  2790.029
 496  2667.553
 497  2735.62
 498  2845.711
 499  2748.621
 500  2494.081
 501  2612.675
 502  2653.819
 503  3029.693
 504  3020.929
 505  2807.114
 506  2903.205
 507  2867.115
 508  2775.765
 509  2571.271
 510  2425.33
 511  2662.628
