# Input file       =  1202065879.113442-PSRB0329-2ms-sampling-dd.dat
# Candidate        =  PSR_0332+5434
# Telescope        =  AR
# Epoch_topo       =  58156.799746683355
# Epoch_bary       =  N/A
# T_sample         =  0.002
# Data Folded      =  7340032
# Data Avg         =  8.39669709558054e-10
# Data StdDev      =  6.00941823024243 
# Profile Bins     =  512
# Profile Avg      =  0.203534579661799
# Profile StdDev   =  719.525891564818 
# Reduced chi-sqr  =  0.568
# Prob(Noise)      <  1   (~0.0 sigma)
# P_topo (ms)      =  714.578675170356  +/- 0.000144
# P'_topo (s/s)    =  -0                +/- 7.58e-11
# P''_topo (s/s^2) =  0                 +/- 3.34e-14
# P_bary (ms)      =  N/A
# P'_bary (s/s)    =  N/A
# P''_bary (s/s^2) =  N/A
# P_orb (s)        =  N/A
# asin(i)/c (s)    =  N/A
# eccentricity     =  N/A
# w (rad)          =  N/A
# T_peri           =  N/A
######################################################
   0  -311.4686
   1  -396.6146
   2  -401.4563
   3  -316.0148
   4  -820.0349
   5  -744.8675
   6  -48.84998
   7  49.49834
   8  432.2103
   9  36.71106
  10  -175.7583
  11  -625.0646
  12  -717.1667
  13  -681.4483
  14  -892.0484
  15  -302.121
  16  -115.8671
  17  -76.09016
  18  -168.2146
  19  -470.9151
  20  -374.6218
  21  -624.4537
  22  -543.439
  23  -287.4515
  24  248.7408
  25  -88.75661
  26  -374.9844
  27  -252.9645
  28  -232.2445
  29  45.55339
  30  -283.4215
  31  -162.8493
  32  -475.7479
  33  -575.3298
  34  -328.256
  35  -273.4261
  36  -769.7755
  37  -767.8114
  38  -644.9523
  39  -586.2252
  40  -30.58286
  41  -189.449
  42  -139.8031
  43  -302.1593
  44  -637.2222
  45  -344.1991
  46  -444.5009
  47  216.0286
  48  68.21263
  49  -344.4953
  50  -603.6899
  51  -454.8077
  52  -212.0893
  53  -277.6743
  54  -70.66835
  55  -290.0157
  56  -239.8739
  57  56.74977
  58  158.0032
  59  99.60431
  60  -143.8015
  61  -589.7343
  62  -757.7865
  63  -410.1618
  64  -242.2694
  65  -394.5588
  66  -330.9058
  67  79.18034
  68  120.4428
  69  -371.4629
  70  -168.9138
  71  92.24597
  72  552.8571
  73  730.4186
  74  207.3119
  75  160.7729
  76  24.41039
  77  70.78521
  78  -9.174018
  79  -65.34779
  80  89.68365
  81  -226.3119
  82  -374.4217
  83  -217.6029
  84  -144.1008
  85  -621.9116
  86  -864.254
  87  -508.4889
  88  29.06488
  89  178.7079
  90  -18.23214
  91  35.66993
  92  -227.3349
  93  -329.1491
  94  -48.28739
  95  -317.966
  96  -524.8829
  97  -163.1795
  98  246.2301
  99  -176.5525
 100  -181.9472
 101  -157.8848
 102  -145.2703
 103  -284.3154
 104  -193.2863
 105  538.36
 106  117.8864
 107  -20.04746
 108  14.09484
 109  -128.9381
 110  -33.37923
 111  54.59113
 112  431.0891
 113  297.6301
 114  164.4221
 115  -74.87611
 116  -242.6062
 117  -224.8069
 118  -229.8517
 119  -83.50291
 120  15.10742
 121  154.0577
 122  -1.248112
 123  -52.12916
 124  -169.1466
 125  -398.2703
 126  -430.7161
 127  -306.0127
 128  -293.4815
 129  -562.6235
 130  -197.8192
 131  -381.7608
 132  -168.3176
 133  -114.002
 134  -525.2153
 135  -301.0842
 136  -318.628
 137  -179.3246
 138  127.6648
 139  125.8242
 140  -136.906
 141  -145.0977
 142  -86.52426
 143  -372.6831
 144  -346.0342
 145  -186.6489
 146  -55.0488
 147  -24.56301
 148  -23.68197
 149  -67.35527
 150  -160.5446
 151  -319.3671
 152  -233.9525
 153  -5.66484
 154  -107.5265
 155  261.3316
 156  273.2118
 157  -52.62339
 158  -220.481
 159  -374.3167
 160  -125.0009
 161  -316.0582
 162  13.45328
 163  239.2318
 164  47.04206
 165  111.9136
 166  172.4182
 167  36.87222
 168  -65.35835
 169  -234.9267
 170  113.7608
 171  244.6855
 172  464.6643
 173  24.02486
 174  150.4901
 175  396.9468
 176  154.3907
 177  218.8687
 178  245.1375
 179  418.9336
 180  527.6734
 181  89.48108
 182  -291.7295
 183  -544.9279
 184  -237.1969
 185  2.941656
 186  -89.10502
 187  444.5223
 188  39.62751
 189  56.42659
 190  374.2126
 191  351.8859
 192  305.2172
 193  394.4105
 194  285.2451
 195  14.71715
 196  -66.85444
 197  -84.08606
 198  -61.08335
 199  -177.2617
 200  227.3302
 201  224.6439
 202  67.0274
 203  -51.23626
 204  183.3484
 205  423.501
 206  203.7389
 207  85.94415
 208  162.5157
 209  18.02353
 210  -221.7052
 211  -85.02115
 212  159.7173
 213  310.3868
 214  -126.1331
 215  -265.0569
 216  -253.0395
 217  -203.0221
 218  172.1524
 219  360.902
 220  32.25913
 221  -167.303
 222  -157.3149
 223  -292.0749
 224  -79.7252
 225  -252.6789
 226  -183.5176
 227  124.5462
 228  224.2177
 229  27.16829
 230  51.0345
 231  310.7339
 232  641.7408
 233  250.5953
 234  222.3238
 235  60.77517
 236  50.3099
 237  396.4045
 238  353.0159
 239  222.3872
 240  210.8893
 241  -131.8168
 242  96.87241
 243  310.7138
 244  187.6242
 245  172.1688
 246  139.2489
 247  69.78332
 248  -299.0961
 249  -354.4442
 250  -229.7034
 251  -203.26
 252  -330.111
 253  -307.9417
 254  -253.6919
 255  -179.6755
 256  -274.0596
 257  140.4261
 258  -211.5356
 259  -360.5152
 260  -127.6863
 261  123.3384
 262  -441.5659
 263  -694.9908
 264  68.70103
 265  -46.97564
 266  -360.6256
 267  -167.6306
 268  104.215
 269  -153.3215
 270  -5.15398
 271  49.86583
 272  -209.6339
 273  -175.6577
 274  432.9151
 275  345.2317
 276  538.0891
 277  473.5481
 278  282.8664
 279  80.24683
 280  -192.9451
 281  397.4009
 282  413.274
 283  447.3533
 284  536.9973
 285  367.2916
 286  196.4416
 287  -157.0609
 288  216.3707
 289  570.3287
 290  544.5019
 291  444.9955
 292  447.5152
 293  665.4504
 294  475.0933
 295  270.8947
 296  197.7169
 297  257.1236
 298  248.389
 299  -412.582
 300  118.195
 301  66.44926
 302  56.58047
 303  211.2538
 304  -82.46343
 305  -204.6876
 306  -541.5339
 307  -216.2978
 308  14.74385
 309  233.79
 310  100.5948
 311  305.059
 312  -88.83903
 313  -333.0527
 314  184.8736
 315  456.9901
 316  21.22405
 317  -73.16074
 318  -60.76386
 319  -353.6886
 320  -596.6301
 321  -330.321
 322  396.9117
 323  47.87616
 324  -425.442
 325  -401.6973
 326  9.930742
 327  311.2377
 328  -142.2862
 329  -302.6522
 330  -264.0538
 331  -288.2511
 332  -86.69274
 333  134.2662
 334  97.03142
 335  238.065
 336  56.79076
 337  -25.17147
 338  427.1786
 339  293.1941
 340  470.9665
 341  552.7504
 342  400.5082
 343  386.6863
 344  513.8588
 345  434.313
 346  244.5638
 347  495.784
 348  975.615
 349  486.9327
 350  238.5087
 351  -202.3142
 352  -184.7326
 353  -113.7432
 354  -172.583
 355  414.1069
 356  655.7783
 357  434.7164
 358  564.6848
 359  836.3055
 360  616.6625
 361  327.792
 362  495.5917
 363  909.9135
 364  617.0316
 365  445.7378
 366  519.3505
 367  270.5385
 368  133.1863
 369  356.1387
 370  546.7334
 371  1092.647
 372  1197.893
 373  963.0156
 374  908.5267
 375  863.9137
 376  1511.882
 377  2182.446
 378  2068.837
 379  1637.534
 380  1666.129
 381  1189.275
 382  542.1734
 383  276.9658
 384  17.62041
 385  78.98466
 386  66.47492
 387  171.4459
 388  293.0891
 389  643.0121
 390  569.1342
 391  -7.173141
 392  87.4331
 393  300.6349
 394  213.8136
 395  182.9523
 396  280.0585
 397  635.6668
 398  308.7161
 399  305.6363
 400  229.1451
 401  175.5503
 402  325.9971
 403  -106.8774
 404  -63.43445
 405  389.0209
 406  169.385
 407  337.3066
 408  -95.74895
 409  -44.19542
 410  -219.2192
 411  -209.9245
 412  17.27309
 413  31.19277
 414  192.5414
 415  -46.18645
 416  -304.3914
 417  38.33764
 418  -81.15431
 419  7.488448
 420  23.84195
 421  38.82797
 422  207.6236
 423  -18.12581
 424  -79.84298
 425  -376.2877
 426  -355.2642
 427  -854.152
 428  -613.8749
 429  27.12105
 430  -339.5132
 431  -423.9245
 432  -566.4731
 433  -828.8196
 434  -665.5169
 435  -463.7703
 436  -282.5394
 437  -9.24859
 438  74.33983
 439  255.0006
 440  -68.22855
 441  -334.1685
 442  -677.8253
 443  -729.0872
 444  224.9514
 445  578.1263
 446  522.4198
 447  660.5163
 448  426.5574
 449  121.8983
 450  -319.4992
 451  -56.6698
 452  -423.9147
 453  -252.2127
 454  203.2567
 455  422.8028
 456  361.8115
 457  -261.4675
 458  -370.4343
 459  -611.6816
 460  -547.7554
 461  -580.3686
 462  -376.6201
 463  -197.4056
 464  -52.30314
 465  -538.6882
 466  -781.5327
 467  -704.3184
 468  -653.814
 469  -453.003
 470  -364.5712
 471  140.598
 472  -356.3803
 473  -472.5386
 474  -163.7878
 475  -382.7594
 476  -146.8758
 477  -466.7263
 478  -200.8258
 479  -185.7931
 480  -33.87968
 481  -39.88647
 482  -192.0554
 483  105.2672
 484  -211.7351
 485  -83.69125
 486  289.2144
 487  276.1573
 488  263.8208
 489  -83.45975
 490  194.3449
 491  536.7963
 492  591.7665
 493  425.6586
 494  -101.3525
 495  -293.6052
 496  -45.36406
 497  -169.5436
 498  -293.7835
 499  -192.0238
 500  97.96873
 501  -80.45132
 502  75.05266
 503  138.6352
 504  216.9673
 505  103.6107
 506  -498.1329
 507  -453.8827
 508  -170.104
 509  -244.7811
 510  68.26804
 511  -62.28898
