# Input file       =  1202237599.111301_cleaned.dat
# Candidate        =  PSR_0332+5434
# Telescope        =  AR
# Epoch_topo       =  58158.787246658576
# Epoch_bary       =  N/A
# T_sample         =  0.002
# Data Folded      =  7340032
# Data Avg         =  0.0443446181598119
# Data StdDev      =  3.19223967643879 
# Profile Bins     =  256
# Profile Avg      =  1271.59197127946 
# Profile StdDev   =  540.535827786902 
# Reduced chi-sqr  =  1.154
# Prob(Noise)      <  0.0462   (~1.7 sigma)
# P_topo (ms)      =  714.579219038773  +/- 0.000756
# P'_topo (s/s)    =  -0                +/- 3.99e-10
# P''_topo (s/s^2) =  0                 +/- 1.76e-13
# P_bary (ms)      =  N/A
# P'_bary (s/s)    =  N/A
# P''_bary (s/s^2) =  N/A
# P_orb (s)        =  N/A
# asin(i)/c (s)    =  N/A
# eccentricity     =  N/A
# w (rad)          =  N/A
# T_peri           =  N/A
######################################################
   0  791.2509
   1  749.7781
   2  958.6208
   3  1472.738
   4  1336.188
   5  1440.764
   6  977.7104
   7  1602.285
   8  1549.822
   9  857.3911
  10  806.5496
  11  1267.381
  12  938.4597
  13  1226.651
  14  1074.245
  15  1092.528
  16  998.1124
  17  1177.608
  18  1269.62
  19  749.8137
  20  1129.003
  21  782.0649
  22  1321.489
  23  1130.08
  24  1020.234
  25  998.3591
  26  1204.308
  27  1610.573
  28  1582.201
  29  1296.505
  30  1650.366
  31  933.8353
  32  1065.855
  33  1335.077
  34  1252.32
  35  1148.939
  36  683.2971
  37  652.217
  38  742.7382
  39  801.4913
  40  789.6602
  41  892.0402
  42  433.9887
  43  852.504
  44  1279.809
  45  1023.264
  46  1129.702
  47  788.774
  48  1526.661
  49  970.0492
  50  1141.291
  51  716.09
  52  902.8207
  53  1049.403
  54  606.9887
  55  1228.105
  56  1231.223
  57  1226.876
  58  679.5153
  59  595.8635
  60  649.6428
  61  787.3649
  62  826.7145
  63  903.5546
  64  1906.376
  65  1254.118
  66  800.152
  67  1212.214
  68  1474.672
  69  1179.295
  70  1558.241
  71  1059.544
  72  944.8797
  73  530.2379
  74  688.5429
  75  860.2393
  76  575.2779
  77  556.9229
  78  396.9105
  79  1458.398
  80  840.6129
  81  894.0129
  82  1215.401
  83  1029.393
  84  1248.576
  85  783.1965
  86  413.6125
  87  599.4625
  88  1419.535
  89  641.7905
  90  420.0077
  91  661.3286
  92  308.0014
  93  182.582
  94  1068.315
  95  942.52
  96  1345.729
  97  811.6082
  98  1318.103
  99  852.0504
 100  1238.733
 101  2005.217
 102  1619.755
 103  1606.626
 104  706.8765
 105  620.1993
 106  1115.811
 107  985.7692
 108  1089.484
 109  1175.592
 110  1370.618
 111  1505.349
 112  1308.244
 113  1814.449
 114  1754.7
 115  887.4425
 116  711.9299
 117  1928.669
 118  1499.667
 119  924.4098
 120  1004.932
 121  1227.647
 122  1818.512
 123  1597.917
 124  1386.339
 125  584.9883
 126  1704.722
 127  1211.717
 128  1637.911
 129  1675.779
 130  1703.558
 131  1331.107
 132  1698.544
 133  1669.605
 134  1026.182
 135  1336.906
 136  1490.627
 137  1175.556
 138  848.7678
 139  1022.67
 140  1407.153
 141  986.6956
 142  1389.547
 143  2054.773
 144  1726.417
 145  1915.148
 146  1821.38
 147  2002.976
 148  2147.745
 149  1199.091
 150  1602.303
 151  2747.57
 152  3819.13
 153  4377.177
 154  3342.967
 155  1860.592
 156  2098.011
 157  1955.128
 158  1284.758
 159  1494.044
 160  1564.858
 161  1099.147
 162  1341.425
 163  1576.096
 164  724.2394
 165  959.4828
 166  1085.566
 167  1398.331
 168  1251.621
 169  912.0936
 170  1794.356
 171  792.6594
 172  1078.317
 173  1006.188
 174  1076.499
 175  1688.91
 176  1211.698
 177  889.0704
 178  1195.533
 179  1915.358
 180  1819.108
 181  2223.998
 182  1939.411
 183  1529.106
 184  823.7983
 185  1196.375
 186  823.5337
 187  568.1935
 188  1477.609
 189  1276.645
 190  1556.818
 191  1621.685
 192  1444.802
 193  1349.269
 194  994.4468
 195  961.4697
 196  1185.359
 197  1148.869
 198  1345.149
 199  969.5254
 200  1067.068
 201  1009.305
 202  775.8105
 203  764.0669
 204  1219.875
 205  1524.565
 206  1505.097
 207  1578.24
 208  962.1104
 209  1813.286
 210  1566.065
 211  2085.92
 212  2010.68
 213  1655.237
 214  1332.491
 215  1482.767
 216  1137.243
 217  1954.781
 218  1236.932
 219  1729.051
 220  1629.344
 221  1750.744
 222  1385.963
 223  976.5992
 224  1423.877
 225  1762.97
 226  2440.823
 227  1447.313
 228  1566.237
 229  1767.214
 230  1507.23
 231  1344.617
 232  1305.415
 233  1467.499
 234  1535.696
 235  1929.858
 236  1744.557
 237  916.0645
 238  1289.115
 239  957.3036
 240  959.1805
 241  1402.348
 242  1086.704
 243  1230.157
 244  1335.246
 245  1708.451
 246  1428.075
 247  1085.264
 248  1186.83
 249  1655.715
 250  1941.877
 251  1713.569
 252  1151.265
 253  1013.427
 254  1144.403
 255  1491.013
