# Input file       =  1202323790.104277_cleaned.dat
# Candidate        =  PSR_0332+5434
# Telescope        =  AR
# Epoch_topo       =  58159.784827595795
# Epoch_bary       =  N/A
# T_sample         =  0.002
# Data Folded      =  7340032
# Data Avg         =  0.0238231195284898
# Data StdDev      =  1.0000657318766  
# Profile Bins     =  512
# Profile Avg      =  341.609965038827 
# Profile StdDev   =  119.740906653938 
# Reduced chi-sqr  =  1.134
# Prob(Noise)      <  0.019   (~2.1 sigma)
# P_topo (ms)      =  714.579473926355  +/- 0.000185
# P'_topo (s/s)    =  -0                +/- 9.77e-11
# P''_topo (s/s^2) =  0                 +/- 4.31e-14
# P_bary (ms)      =  N/A
# P'_bary (s/s)    =  N/A
# P''_bary (s/s^2) =  N/A
# P_orb (s)        =  N/A
# asin(i)/c (s)    =  N/A
# eccentricity     =  N/A
# w (rad)          =  N/A
# T_peri           =  N/A
######################################################
   0  419.1193
   1  395.0798
   2  191.0824
   3  211.0356
   4  367.4211
   5  308.4208
   6  298.9715
   7  475.3175
   8  459.5419
   9  418.3946
  10  383.3565
  11  483.932
  12  371.0731
  13  257.0677
  14  283.6197
  15  371.9424
  16  386.1273
  17  362.4324
  18  162.0149
  19  245.5876
  20  281.9813
  21  365.0631
  22  450.1325
  23  362.1215
  24  373.0675
  25  407.8367
  26  304.9689
  27  298.7419
  28  325.8659
  29  485.0571
  30  429.2212
  31  411.3277
  32  417.4827
  33  311.8813
  34  267.4914
  35  273.2528
  36  391.4425
  37  412.7733
  38  405.8601
  39  396.3419
  40  375.7714
  41  247.6914
  42  164.0602
  43  320.8484
  44  290.171
  45  302.2589
  46  331.1613
  47  516.4274
  48  513.2369
  49  423.5834
  50  340.9062
  51  247.1725
  52  183.5911
  53  282.5835
  54  307.9624
  55  280.3347
  56  403.144
  57  406.5627
  58  277.2593
  59  373.4418
  60  332.3483
  61  312.5198
  62  267.8394
  63  294.2536
  64  378.0393
  65  378.8791
  66  272.637
  67  311.7228
  68  304.8008
  69  255.107
  70  254.3771
  71  308.69
  72  360.2019
  73  287.8692
  74  355.1885
  75  324.8823
  76  310.6393
  77  243.6982
  78  336.7925
  79  391.1291
  80  373.7188
  81  392.6171
  82  433.7715
  83  371.9331
  84  289.5275
  85  317.3586
  86  330.3206
  87  370.1027
  88  157.2112
  89  243.059
  90  212.739
  91  182.2206
  92  290.5381
  93  371.5914
  94  381.4746
  95  277.756
  96  292.5041
  97  304.8206
  98  315.859
  99  273.979
 100  257.911
 101  335.9282
 102  392.3552
 103  402.917
 104  343.917
 105  447.1595
 106  362.4282
 107  314.6431
 108  324.5749
 109  324.3502
 110  329.0969
 111  336.2457
 112  421.047
 113  430.7899
 114  461.4224
 115  433.0266
 116  339.9609
 117  256.2551
 118  327.7836
 119  293.6284
 120  339.7692
 121  319.2665
 122  371.8228
 123  167.6245
 124  264.5703
 125  372.7158
 126  383.3809
 127  435.2413
 128  398.5589
 129  400.8033
 130  371.091
 131  258.6428
 132  207.4351
 133  227.5173
 134  296.8747
 135  448.0014
 136  483.0245
 137  424.976
 138  304.0598
 139  310.5779
 140  272.2878
 141  246.6908
 142  344.3049
 143  356.5932
 144  374.0127
 145  395.152
 146  317.7277
 147  329.4397
 148  310.6506
 149  368.0662
 150  335.5279
 151  210.5511
 152  310.1209
 153  483.0454
 154  514.9747
 155  406.9702
 156  384.6736
 157  416.0261
 158  362.0811
 159  382.7477
 160  325.6277
 161  288.4626
 162  233.9479
 163  416.3243
 164  418.8299
 165  405.155
 166  451.9698
 167  426.4698
 168  344.0487
 169  351.7061
 170  411.9298
 171  440.5198
 172  462.0817
 173  388.2753
 174  367.7082
 175  427.8027
 176  343.5038
 177  408.1609
 178  331.7797
 179  362.5572
 180  482.2166
 181  415.2125
 182  452.5214
 183  300.3719
 184  292.2894
 185  348.6195
 186  285.7089
 187  350.2868
 188  368.2689
 189  385.1526
 190  291.4712
 191  319.3758
 192  373.6081
 193  316.6212
 194  191.8196
 195  433.5645
 196  586.705
 197  374.8982
 198  364.5804
 199  396.9158
 200  336.5303
 201  371.9745
 202  412.2
 203  423.4697
 204  314.9555
 205  331.2768
 206  313.964
 207  344.3387
 208  302.8556
 209  361.2513
 210  249.0899
 211  262.4794
 212  246.3374
 213  284.9242
 214  296.278
 215  312.4353
 216  356.8788
 217  320.3238
 218  347.3554
 219  352.1124
 220  246.8743
 221  331.6729
 222  457.5988
 223  461.1607
 224  339.1605
 225  352.5059
 226  361.5042
 227  344.2704
 228  477.3123
 229  419.1766
 230  373.735
 231  375.0694
 232  368.0012
 233  352.4799
 234  407.2616
 235  456.8138
 236  455.7404
 237  331.6024
 238  391.8883
 239  265.851
 240  366.1123
 241  445.8691
 242  437.7987
 243  461.3645
 244  343.0426
 245  351.6305
 246  387.4236
 247  317.0121
 248  443.0812
 249  412.3287
 250  389.0831
 251  443.4242
 252  356.9479
 253  344.5383
 254  333.4414
 255  304.4786
 256  258.4283
 257  279.2592
 258  391.2198
 259  235.6252
 260  217.7196
 261  232.3718
 262  341.6257
 263  451.5764
 264  502.4055
 265  454.6968
 266  358.1826
 267  284.2524
 268  287.7934
 269  261.1903
 270  242.3528
 271  280.3121
 272  318.5542
 273  384.2754
 274  341.868
 275  248.7932
 276  391.4082
 277  304.0107
 278  286.1516
 279  252.4106
 280  57.56211
 281  239.1202
 282  284.6092
 283  253.2384
 284  417.312
 285  372.9983
 286  467.3165
 287  385.07
 288  444.9079
 289  521.9163
 290  708.1017
 291  839.6106
 292  889.0054
 293  929.7311
 294  890.2805
 295  561.7126
 296  489.3196
 297  313.5165
 298  355.4805
 299  464.2025
 300  320.0845
 301  355.4117
 302  397.1035
 303  345.5083
 304  312.6042
 305  314.5056
 306  347.2807
 307  321.4125
 308  338.872
 309  317.5829
 310  246.2282
 311  223.716
 312  362.1906
 313  335.9784
 314  294.2343
 315  353.2688
 316  382.6625
 317  265.9408
 318  223.0955
 319  188.0386
 320  259.079
 321  265.7977
 322  136.356
 323  172.584
 324  270.9308
 325  296.5986
 326  304.8867
 327  223.4074
 328  263.1723
 329  258.366
 330  340.108
 331  363.6847
 332  235.4309
 333  303.1392
 334  430.6406
 335  421.293
 336  363.2693
 337  333.3112
 338  177.0348
 339  274.3148
 340  419.6418
 341  389.0638
 342  413.7595
 343  416.9156
 344  388.6008
 345  345.1726
 346  333.921
 347  273.9679
 348  362.9526
 349  380.4459
 350  191.1836
 351  182.5638
 352  265.0573
 353  380.2406
 354  299.5976
 355  341.5128
 356  363.6772
 357  264.316
 358  367.9433
 359  412.3235
 360  370.5237
 361  282.1362
 362  272.8129
 363  300.2435
 364  404.9114
 365  305.1585
 366  307.0265
 367  358.2129
 368  310.2918
 369  275.8568
 370  319.1062
 371  363.4302
 372  348.8707
 373  140.3958
 374  249.0494
 375  279.7279
 376  423.1063
 377  383.6647
 378  310.4209
 379  322.2314
 380  254.672
 381  385.7231
 382  400.1486
 383  448.8761
 384  298.4797
 385  311.2909
 386  361.2572
 387  204.6689
 388  336.0369
 389  268.6712
 390  222.7743
 391  211.3155
 392  239.7698
 393  384.8744
 394  187.0737
 395  325.4489
 396  386.1063
 397  359.0388
 398  393.8768
 399  313.3762
 400  331.1789
 401  360.7159
 402  319.1962
 403  244.1295
 404  384.8474
 405  404.7848
 406  488.5281
 407  515.2952
 408  388.0668
 409  352.1338
 410  409.8416
 411  482.3846
 412  370.3997
 413  221.3713
 414  344.6457
 415  329.8951
 416  471.4782
 417  323.4435
 418  290.0281
 419  339.1847
 420  357.1967
 421  361.4604
 422  315.253
 423  296.9102
 424  343.3887
 425  231.6853
 426  254.1708
 427  295.4803
 428  410.2725
 429  378.0414
 430  316.4231
 431  430.4985
 432  502.4708
 433  525.1353
 434  446.1587
 435  446.2724
 436  403.3348
 437  422.1691
 438  272.5925
 439  363.5518
 440  349.2419
 441  395.176
 442  383.3769
 443  369.0511
 444  486.1271
 445  316.627
 446  224.9488
 447  293.0701
 448  305.5482
 449  318.3747
 450  334.8059
 451  214.8289
 452  153.2912
 453  214.4189
 454  431.5369
 455  399.1212
 456  244.5673
 457  278.5027
 458  201.7741
 459  227.8257
 460  316.3103
 461  250.6842
 462  305.6399
 463  229.6548
 464  293.3306
 465  248.122
 466  297.6614
 467  270.5174
 468  261.6944
 469  292.3628
 470  281.1753
 471  374.3843
 472  222.0972
 473  237.4106
 474  366.5107
 475  329.0275
 476  400.6182
 477  367.1437
 478  302.4263
 479  223.7906
 480  206.9573
 481  277.8089
 482  291.3452
 483  344.4437
 484  439.7802
 485  466.2198
 486  405.7488
 487  297.0163
 488  341.0224
 489  366.6685
 490  287.9358
 491  272.481
 492  365.3434
 493  364.7779
 494  252.0066
 495  211.3103
 496  251.7571
 497  168.1358
 498  164.8711
 499  283.6281
 500  344.4014
 501  315.9906
 502  339.9746
 503  252.1839
 504  280.8731
 505  301.2332
 506  388.3889
 507  351.6329
 508  257.7598
 509  231.9766
 510  341.8945
 511  333.0764
