# Input file       =  1202222673.110506_cleaned.dat
# Candidate        =  PSR_0332+5434
# Telescope        =  AR
# Epoch_topo       =  58158.614492019748
# Epoch_bary       =  N/A
# T_sample         =  0.002
# Data Folded      =  7340032
# Data Avg         =  0.185584887334179
# Data StdDev      =  5.13507906710374 
# Profile Bins     =  512
# Profile Avg      =  2658.81840720796 
# Profile StdDev   =  614.838608739102 
# Reduced chi-sqr  =  0.715
# Prob(Noise)      <  1   (~0.0 sigma)
# P_topo (ms)      =  714.578837122589  +/- 0.000566
# P'_topo (s/s)    =  -0                +/- 2.98e-10
# P''_topo (s/s^2) =  0                 +/- 1.32e-13
# P_bary (ms)      =  N/A
# P'_bary (s/s)    =  N/A
# P''_bary (s/s^2) =  N/A
# P_orb (s)        =  N/A
# asin(i)/c (s)    =  N/A
# eccentricity     =  N/A
# w (rad)          =  N/A
# T_peri           =  N/A
######################################################
   0  2353.576
   1  2225.59
   2  2515.927
   3  3067.713
   4  3213.476
   5  3251.027
   6  2858.992
   7  2604.892
   8  2716.526
   9  2751.453
  10  2610.897
  11  2541.479
  12  2726.719
  13  2912.608
  14  2829.921
  15  2651.016
  16  2455.045
  17  2258.683
  18  2516.591
  19  2684.711
  20  3166.354
  21  2961.23
  22  2758.133
  23  3106.454
  24  2815.487
  25  2477.192
  26  2345.669
  27  2553.378
  28  2936.797
  29  2601.889
  30  2010.86
  31  2163.448
  32  2437.962
  33  2307.411
  34  2204.885
  35  2538.137
  36  2443.132
  37  2093.307
  38  2157.981
  39  2175.5
  40  2257.937
  41  2184.449
  42  2221.865
  43  2542.311
  44  2850.23
  45  2865.281
  46  2566.707
  47  2333.683
  48  2665.362
  49  2387.683
  50  2463.2
  51  2671.504
  52  2888.73
  53  2977.945
  54  2882.109
  55  2644.748
  56  2752.929
  57  2792.962
  58  2665.05
  59  2401.757
  60  2783.658
  61  3031.146
  62  3011.628
  63  3104.264
  64  3154.585
  65  3280.765
  66  3154.985
  67  3207.627
  68  3005.095
  69  3241.947
  70  3236.9
  71  2858.577
  72  2964.997
  73  3223.643
  74  3007.263
  75  2799.219
  76  2746.108
  77  3015.869
  78  2559.118
  79  2420.47
  80  2551.585
  81  2655.371
  82  2499.141
  83  2679.599
  84  2844.071
  85  2810.085
  86  2872.216
  87  2864.636
  88  2879.256
  89  2768.934
  90  2909.41
  91  2637.894
  92  2472.974
  93  2634.089
  94  2923.681
  95  2956.021
  96  2641.584
  97  2565.402
  98  2460.551
  99  2269.68
 100  2401.513
 101  2535.149
 102  2465.907
 103  2530.093
 104  2307.529
 105  2557.888
 106  2852.79
 107  2811.452
 108  2539.365
 109  2670.707
 110  2576.59
 111  2839.754
 112  3056.688
 113  2928.778
 114  2709.94
 115  3188.991
 116  2815.148
 117  2526.315
 118  2797.802
 119  2786.883
 120  3071.903
 121  2990.833
 122  3045.228
 123  2895.283
 124  2424.447
 125  2903.653
 126  2707.827
 127  2832.011
 128  2953.519
 129  2959.807
 130  2902.014
 131  2461.428
 132  2705.077
 133  2872.93
 134  2990.666
 135  3072.107
 136  3585.561
 137  3317.512
 138  3208.825
 139  2823.25
 140  3095.286
 141  2734.265
 142  2754.78
 143  2840.738
 144  2372.726
 145  2484.153
 146  2722.15
 147  3035.126
 148  2776.445
 149  2519.612
 150  2755.507
 151  2771.063
 152  2925.497
 153  2780.937
 154  2626.284
 155  2365.029
 156  1788.665
 157  2276.836
 158  2609.199
 159  2525.476
 160  2427.507
 161  2719.799
 162  2546.674
 163  2556.386
 164  2569.692
 165  2888.51
 166  2946.684
 167  3029.146
 168  3075.284
 169  3102.561
 170  2578.795
 171  2650.82
 172  2514.038
 173  2732.921
 174  2294.826
 175  2118.172
 176  2221.336
 177  2533.544
 178  2472.358
 179  2556.741
 180  2487.175
 181  2407.345
 182  2293.586
 183  2486.035
 184  2157.813
 185  2441.069
 186  2141.379
 187  2295.052
 188  2227.111
 189  1945.647
 190  2235.924
 191  2043.213
 192  2416.715
 193  2258.122
 194  2246.028
 195  2250.053
 196  2454.377
 197  2471.185
 198  2314.541
 199  2452.089
 200  2255.593
 201  2240.174
 202  2700.708
 203  2423.262
 204  2198.604
 205  2059.722
 206  2039.025
 207  1858.239
 208  2339.574
 209  2742.243
 210  2035.156
 211  1914.182
 212  1902.455
 213  1818.605
 214  1843.435
 215  2081.604
 216  2297.504
 217  2472.268
 218  2435.953
 219  2317.76
 220  2331.003
 221  2330.625
 222  2410.508
 223  2541.946
 224  2496.145
 225  2730.179
 226  2868.448
 227  3120.557
 228  3215.842
 229  3168.648
 230  2788.023
 231  2432.024
 232  2591.751
 233  2481.228
 234  2233.907
 235  2212.353
 236  2511.534
 237  2412.458
 238  2256.141
 239  2256.956
 240  2200.056
 241  2133.866
 242  2430.777
 243  2321.749
 244  2410.752
 245  2783.474
 246  2727.057
 247  2824.936
 248  2336.82
 249  2871.892
 250  2648.103
 251  2714.561
 252  3084.221
 253  2683.329
 254  2591.584
 255  2332.557
 256  2071.313
 257  1981.948
 258  2171.303
 259  2388.273
 260  1997.453
 261  2097.471
 262  1954.079
 263  1925.352
 264  2026.626
 265  2186.242
 266  2312.347
 267  2525.811
 268  2274.959
 269  2137.098
 270  1907.393
 271  2091.283
 272  2146.071
 273  2061.44
 274  2354.456
 275  2366.626
 276  2454.547
 277  2257.268
 278  2101.817
 279  2378.153
 280  2198.718
 281  2081.422
 282  2642.377
 283  2647.377
 284  2574.604
 285  2847.283
 286  2956.201
 287  2869.168
 288  2844.243
 289  2732.641
 290  2357.293
 291  2601.834
 292  2680.606
 293  2900.304
 294  3031.165
 295  2875.477
 296  2985.836
 297  2645.45
 298  2459.759
 299  2517.847
 300  2832.737
 301  3164.074
 302  3217.561
 303  3320.027
 304  3616.472
 305  3671.537
 306  4038.269
 307  4185.875
 308  3980.794
 309  3648.27
 310  3227.161
 311  3245.124
 312  3184.12
 313  3297.95
 314  3133.452
 315  2959.295
 316  2842.158
 317  2694.892
 318  2816.549
 319  2888.87
 320  3070.618
 321  2818.197
 322  2902.716
 323  3264.865
 324  3081.747
 325  2873.362
 326  2653.363
 327  2836.565
 328  2766.967
 329  2653.514
 330  2618.598
 331  2981.159
 332  2924.952
 333  2835.074
 334  2598.555
 335  2484.903
 336  2771.439
 337  2629.324
 338  2696.49
 339  2369.125
 340  2175.973
 341  1828.339
 342  1950.558
 343  2164.225
 344  2312.899
 345  2053.503
 346  1952.325
 347  2184.829
 348  2129.825
 349  2298.961
 350  2293.98
 351  2145.44
 352  2370.629
 353  2485.906
 354  2506.552
 355  2292.594
 356  2704.114
 357  2626.638
 358  2774.089
 359  2619.133
 360  2477.843
 361  2469.149
 362  2652.544
 363  2682.095
 364  2595.966
 365  2602.462
 366  2792.477
 367  3204.377
 368  3504.16
 369  3256.778
 370  2880.479
 371  2939.927
 372  2691.813
 373  2966.861
 374  2836.172
 375  2688.654
 376  2802.583
 377  2574.425
 378  2726.312
 379  2643.173
 380  2222.777
 381  2320.456
 382  2834.083
 383  2777.199
 384  2657.592
 385  2578.999
 386  2276.727
 387  2489.367
 388  2993.95
 389  3309.986
 390  3623.221
 391  2960.765
 392  2876.838
 393  2871.429
 394  2737.856
 395  2907.265
 396  3033.808
 397  3490.365
 398  3408.912
 399  3289.68
 400  3086.302
 401  2815.993
 402  2816.794
 403  2906.434
 404  2458.714
 405  2314.151
 406  2887.382
 407  3310.24
 408  3285.254
 409  2793.476
 410  2980.188
 411  2863.265
 412  2492.683
 413  2450.619
 414  2624.284
 415  2584.759
 416  2457.369
 417  2679.473
 418  2516.448
 419  2383.679
 420  2462.478
 421  2592.236
 422  2785.011
 423  2713.804
 424  2190.027
 425  2636.576
 426  2797.817
 427  3261.74
 428  2807.086
 429  2830.241
 430  3035.701
 431  3313.821
 432  3429.977
 433  3144.854
 434  3226.266
 435  2743.691
 436  2706.094
 437  2908.177
 438  2656.095
 439  2808.078
 440  2957.957
 441  2951.966
 442  2954.894
 443  2464.003
 444  2392.242
 445  2367.162
 446  2774.1
 447  2554.945
 448  2421.9
 449  2352.224
 450  1912.728
 451  1955.009
 452  2216.443
 453  2107.378
 454  1882.315
 455  2334.691
 456  2184.259
 457  2075.155
 458  2074.401
 459  2529.959
 460  2386.936
 461  2555.552
 462  2642.496
 463  2734.925
 464  3003.962
 465  3094.219
 466  3222.608
 467  2872.318
 468  2842.439
 469  3331.397
 470  3407.633
 471  3420.33
 472  3362.84
 473  3311.418
 474  3205.206
 475  2989.724
 476  2841.836
 477  2791.055
 478  2993.233
 479  3061.818
 480  2794.573
 481  2840.27
 482  2796.052
 483  2892.633
 484  2833.442
 485  2557.325
 486  2720.021
 487  2962.449
 488  3198.187
 489  3042.369
 490  3185.919
 491  2841.703
 492  2544.819
 493  2730.085
 494  2803.254
 495  2577.831
 496  2635.634
 497  2879.294
 498  2940.635
 499  2815.88
 500  2558.278
 501  2411.777
 502  2547.586
 503  2706.279
 504  2060.821
 505  2319.759
 506  2325.77
 507  2073.404
 508  2162.755
 509  2449.174
 510  2443.762
 511  2306.828
