# Input file       =  1202136489.108346_cleaned.dat
# Candidate        =  PSR_0332+5434
# Telescope        =  AR
# Epoch_topo       =  58157.616991994742
# Epoch_bary       =  N/A
# T_sample         =  0.002
# Data Folded      =  7340032
# Data Avg         =  0.21085366684773 
# Data StdDev      =  9.05770412921417 
# Profile Bins     =  256
# Profile Avg      =  6045.79657532881 
# Profile StdDev   =  1533.72368480663 
# Reduced chi-sqr  =  0.587
# Prob(Noise)      <  1   (~0.0 sigma)
# P_topo (ms)      =  714.578561677727  +/- 0.000596
# P'_topo (s/s)    =  -0                +/- 3.14e-10
# P''_topo (s/s^2) =  0                 +/- 1.39e-13
# P_bary (ms)      =  N/A
# P'_bary (s/s)    =  N/A
# P''_bary (s/s^2) =  N/A
# P_orb (s)        =  N/A
# asin(i)/c (s)    =  N/A
# eccentricity     =  N/A
# w (rad)          =  N/A
# T_peri           =  N/A
######################################################
   0  7850.977
   1  6734.698
   2  6881.176
   3  6757.86
   4  6858.306
   5  5285.527
   6  5513.223
   7  6197.348
   8  6421.802
   9  6345.833
  10  6738.951
  11  7172.631
  12  7681.843
  13  7306.499
  14  5160.204
  15  6653.837
  16  6526.322
  17  6076.081
  18  6136.308
  19  6813.793
  20  8399.027
  21  7456.295
  22  7514.203
  23  6381.741
  24  4948.052
  25  5238.367
  26  4654.004
  27  5945.054
  28  5681.439
  29  6223.479
  30  5240.79
  31  5094.284
  32  5350.184
  33  6746.772
  34  5779.942
  35  6294.167
  36  6259.615
  37  7146.833
  38  8889.7
  39  6055.015
  40  6629.18
  41  7268.56
  42  5460.046
  43  5503.148
  44  5588.102
  45  7061.021
  46  6223.771
  47  5418.798
  48  4984.231
  49  6877.289
  50  6428.419
  51  6558.817
  52  7375.528
  53  7655.438
  54  7661.19
  55  7222.374
  56  7636.422
  57  7230.772
  58  7166.978
  59  6990.189
  60  4986.257
  61  5656.387
  62  5114.362
  63  4951.428
  64  5402.636
  65  6072.133
  66  5610.653
  67  5058.719
  68  4457.713
  69  4324.084
  70  7107.382
  71  5081.763
  72  5049.913
  73  5175.429
  74  5907.311
  75  4686.201
  76  5604.228
  77  6634.758
  78  6308.495
  79  6191.605
  80  7355.517
  81  6832.005
  82  6599.656
  83  6947.528
  84  6163.353
  85  5094.899
  86  6042.891
  87  4909.42
  88  4819.381
  89  5103.055
  90  4679.569
  91  4160.698
  92  5403.819
  93  4826.059
  94  4184.051
  95  4787.669
  96  3578.54
  97  4285.086
  98  4981.349
  99  5035.303
 100  4932.817
 101  5374.157
 102  5018.79
 103  4899.978
 104  5371.496
 105  3174.958
 106  4848.533
 107  6206.902
 108  5876.46
 109  4649.401
 110  5917.642
 111  6564.2
 112  5423.653
 113  4981.491
 114  4808.334
 115  5008.2
 116  3550.427
 117  3530.596
 118  5801.77
 119  5129.239
 120  6189.245
 121  7434.399
 122  6751.688
 123  6510.833
 124  6204.967
 125  4736.7
 126  5758.65
 127  7054.004
 128  5920.456
 129  6023.302
 130  6970.998
 131  6771.39
 132  5415.438
 133  5955.139
 134  5947.734
 135  3925.395
 136  4738.377
 137  6447.019
 138  6559.909
 139  6465.6
 140  5615.233
 141  6832.263
 142  6368.137
 143  6539.735
 144  5583.724
 145  5930.613
 146  7000.864
 147  8483.543
 148  7979.334
 149  7979.993
 150  6532.24
 151  6123.292
 152  5655.971
 153  7163.649
 154  7096.534
 155  5408.819
 156  5830.418
 157  5146.122
 158  5104.004
 159  5817.03
 160  6456.239
 161  4485.046
 162  5208.612
 163  6219.641
 164  4727.988
 165  4497.747
 166  5441.664
 167  5568.221
 168  6757.299
 169  6828.366
 170  5169.16
 171  4759.917
 172  5895.659
 173  5486.09
 174  4698.875
 175  5544.404
 176  5589.686
 177  5255.842
 178  6220.339
 179  6583.051
 180  5301.387
 181  6206.198
 182  6443.498
 183  5871.468
 184  5884.271
 185  7613.47
 186  7026.918
 187  6559.236
 188  7180.273
 189  7073.731
 190  7098.091
 191  6412.86
 192  7199.184
 193  7184.279
 194  6556.281
 195  5519.546
 196  5665.069
 197  5796.736
 198  4364.959
 199  4981.849
 200  4924.527
 201  5766.713
 202  4826.078
 203  5445.917
 204  5802.174
 205  6518.451
 206  7205.98
 207  7921.16
 208  7472.576
 209  6786.411
 210  5683.79
 211  5940.046
 212  6729.012
 213  6935.733
 214  6697.587
 215  6114.443
 216  7071.776
 217  6737.833
 218  7728.597
 219  6211.742
 220  5839.715
 221  7055.333
 222  5790.427
 223  6790.041
 224  6526.105
 225  5970.376
 226  6258.378
 227  7242.387
 228  7505.602
 229  6905.846
 230  6251.613
 231  5963.275
 232  6122.899
 233  6867.204
 234  5595.478
 235  6235.689
 236  6113.071
 237  5088.185
 238  5844.417
 239  6021.741
 240  6613.088
 241  7809.895
 242  6360.851
 243  5930.319
 244  7516.574
 245  4084.623
 246  5454.088
 247  4264.39
 248  3662.474
 249  5718.1
 250  5540.131
 251  7188.769
 252  8056.306
 253  6609.139
 254  7272.513
 255  8235.612
