# Input file       =  1202552800.128057_cleaned.dat
# Candidate        =  PSR_0332+5434
# Telescope        =  AR
# Epoch_topo       =  58162.435406574732
# Epoch_bary       =  N/A
# T_sample         =  0.002
# Data Folded      =  7208960
# Data Avg         =  0.033830306084234
# Data StdDev      =  5.36406732101598 
# Profile Bins     =  512
# Profile Avg      =  477.908775220307 
# Profile StdDev   =  636.495807212767 
# Reduced chi-sqr  =  0.915
# Prob(Noise)      <  0.917   (~0.0 sigma)
# P_topo (ms)      =  714.579707741535  +/- 3.66e-05
# P'_topo (s/s)    =  -0                +/- 1.96e-11
# P''_topo (s/s^2) =  0                 +/- 8.83e-15
# P_bary (ms)      =  N/A
# P'_bary (s/s)    =  N/A
# P''_bary (s/s^2) =  N/A
# P_orb (s)        =  N/A
# asin(i)/c (s)    =  N/A
# eccentricity     =  N/A
# w (rad)          =  N/A
# T_peri           =  N/A
######################################################
   0  202.8141
   1  576.0936
   2  597.4875
   3  954.1856
   4  1347.873
   5  1317.033
   6  871.5335
   7  294.9401
   8  -459.5753
   9  -80.00771
  10  -45.74942
  11  36.93822
  12  538.4849
  13  971.3511
  14  430.8405
  15  109.1947
  16  -71.51818
  17  188.5157
  18  560.3764
  19  164.3096
  20  87.55728
  21  470.101
  22  518.2542
  23  260.0372
  24  -327.9701
  25  -399.355
  26  -11.12132
  27  27.85863
  28  474.8132
  29  596.4706
  30  434.8383
  31  114.8701
  32  -370.0649
  33  -326.1307
  34  60.6061
  35  406.2624
  36  623.3537
  37  504.5036
  38  598.1746
  39  670.0868
  40  -78.12945
  41  -227.2012
  42  -273.4859
  43  12.94905
  44  -63.37525
  45  47.30541
  46  841.3009
  47  522.0757
  48  91.21224
  49  -120.2985
  50  7.863924
  51  58.70165
  52  338.9229
  53  980.7263
  54  1269.74
  55  1158.166
  56  879.8446
  57  70.43829
  58  -412.1646
  59  -598.5066
  60  -273.5584
  61  241.6609
  62  295.9877
  63  421.3806
  64  395.4409
  65  -113.201
  66  -58.39615
  67  -260.3426
  68  103.4171
  69  431.4282
  70  699.4417
  71  999.4225
  72  596.5042
  73  632.6002
  74  -158.1902
  75  -139.8599
  76  64.11966
  77  25.45053
  78  245.8487
  79  756.3649
  80  787.4538
  81  383.8286
  82  4.447505
  83  18.08352
  84  -169.1768
  85  27.9194
  86  396.9984
  87  642.0094
  88  785.1127
  89  884.4727
  90  942.1749
  91  186.7997
  92  348.6216
  93  194.6472
  94  -83.48627
  95  44.36213
  96  538.1342
  97  256.1027
  98  -41.06272
  99  -97.4576
 100  169.6257
 101  579.4065
 102  574.8719
 103  693.3053
 104  668.0371
 105  452.3812
 106  -226.4319
 107  -570.8051
 108  74.24194
 109  422.6978
 110  285.9824
 111  683.586
 112  794.3735
 113  94.35964
 114  -424.4738
 115  -71.60281
 116  12.71034
 117  209.9673
 118  452.8985
 119  571.6498
 120  951.467
 121  470.3869
 122  355.2587
 123  14.99226
 124  -84.97407
 125  -25.76476
 126  152.3769
 127  665.6232
 128  768.2906
 129  1346.832
 130  1009.566
 131  375.4125
 132  -153.2527
 133  -212.3822
 134  535.7128
 135  1025.202
 136  1345.599
 137  1343.195
 138  982.3756
 139  569.7996
 140  -20.95004
 141  -1.554825
 142  -5.482881
 143  -41.13251
 144  421.1003
 145  666.0716
 146  1066.862
 147  840.0601
 148  428.3097
 149  159.8988
 150  197.7783
 151  -23.99934
 152  481.3517
 153  759.1543
 154  1183.676
 155  897.5671
 156  183.3474
 157  59.17856
 158  -177.7864
 159  -190.3898
 160  -311.7791
 161  24.62387
 162  686.039
 163  660.3752
 164  426.7472
 165  143.8197
 166  428.5352
 167  88.0693
 168  489.7062
 169  772.3903
 170  946.0452
 171  702.7681
 172  394.1098
 173  234.0573
 174  170.1028
 175  395.5316
 176  247.1466
 177  249.6506
 178  526.6306
 179  420.7479
 180  58.61032
 181  -15.74919
 182  214.2551
 183  423.4649
 184  503.1569
 185  751.9297
 186  947.5446
 187  1392.542
 188  456.74
 189  1.844713
 190  174.7147
 191  248.1733
 192  324.272
 193  153.284
 194  566.1342
 195  412.4717
 196  396.8215
 197  -303.8206
 198  -445.5597
 199  58.40929
 200  340.6794
 201  520.9449
 202  624.9885
 203  643.0208
 204  521.869
 205  481.3552
 206  233.853
 207  357.1556
 208  858.8246
 209  898.4461
 210  628.8231
 211  872.3733
 212  1013.978
 213  587.5417
 214  265.4814
 215  427.7712
 216  392.3311
 217  559.8216
 218  985.4273
 219  1681.218
 220  1251.007
 221  854.7345
 222  298.8104
 223  453.2463
 224  958.1906
 225  617.9954
 226  756.051
 227  1205.151
 228  1227.071
 229  775.853
 230  411.9386
 231  610.6298
 232  680.9429
 233  798.2883
 234  835.3967
 235  1103.157
 236  1565.829
 237  1542.646
 238  1077.761
 239  832.2198
 240  646.951
 241  863.1754
 242  1644.616
 243  2064.041
 244  2394.249
 245  2227.759
 246  1853.67
 247  889.024
 248  869.9456
 249  955.7775
 250  346.997
 251  998.6205
 252  1229.178
 253  1209.187
 254  1046.808
 255  784.2963
 256  372.1914
 257  -13.77745
 258  266.9111
 259  137.376
 260  318.6141
 261  815.5038
 262  456.2102
 263  377.9659
 264  213.3654
 265  453.8654
 266  551.5555
 267  590.4009
 268  649.8049
 269  912.7697
 270  839.6447
 271  550.6733
 272  394.5664
 273  308.1808
 274  576.822
 275  290.7138
 276  157.2536
 277  85.06517
 278  286.3112
 279  202.4082
 280  77.63525
 281  264.8424
 282  526.981
 283  824.6642
 284  913.6816
 285  1030.223
 286  1009.182
 287  409.3954
 288  287.1671
 289  176.0421
 290  170.2906
 291  170.0613
 292  325.5559
 293  650.897
 294  654.3871
 295  721.0319
 296  36.95957
 297  -223.1529
 298  -32.96448
 299  560.5297
 300  587.724
 301  1156.15
 302  1375.614
 303  1089.297
 304  347.7816
 305  398.5168
 306  211.2638
 307  473.7501
 308  263.2597
 309  215.7957
 310  984.4081
 311  981.5773
 312  290.2751
 313  179.6774
 314  -114.8787
 315  289.4443
 316  508.0428
 317  794.9458
 318  1196.053
 319  821.4452
 320  726.6854
 321  75.53801
 322  -130.1061
 323  112.2651
 324  143.9308
 325  459.8727
 326  875.1227
 327  666.1735
 328  639.0891
 329  189.3487
 330  -110.5107
 331  313.4939
 332  985.5685
 333  1028.524
 334  1045.257
 335  1261.555
 336  897.7955
 337  707.6437
 338  105.3493
 339  353.5284
 340  792.0187
 341  -78.07624
 342  349.2895
 343  446.6039
 344  786.6998
 345  685.5662
 346  413.2895
 347  592.636
 348  565.6313
 349  416.8144
 350  723.3098
 351  632.9067
 352  484.217
 353  266.2834
 354  -40.78942
 355  201.0004
 356  -153.9719
 357  52.15117
 358  279.4292
 359  541.0507
 360  280.3535
 361  -115.7426
 362  245.3419
 363  -38.19609
 364  -92.50287
 365  171.9435
 366  523.6472
 367  597.0865
 368  742.2973
 369  944.3578
 370  425.8758
 371  213.6973
 372  284.2213
 373  -0.0987074
 374  159.8385
 375  598.2155
 376  760.6926
 377  654.4811
 378  412.4067
 379  192.6133
 380  -88.08068
 381  140.4123
 382  493.5743
 383  779.6033
 384  1350.749
 385  1289.219
 386  1011.759
 387  716.1533
 388  51.80144
 389  95.43964
 390  61.80915
 391  54.48855
 392  576.2994
 393  846.5795
 394  992.824
 395  310.6499
 396  47.11359
 397  234.2693
 398  812.752
 399  1072.274
 400  1344.009
 401  1710.464
 402  1580.572
 403  911.7512
 404  448.3438
 405  415.7326
 406  535.7036
 407  747.0236
 408  676.2337
 409  728.3716
 410  705.4478
 411  149.67
 412  250.2798
 413  484.8582
 414  248.9314
 415  511.1578
 416  572.84
 417  1130.18
 418  1260.73
 419  1046.258
 420  623.0302
 421  133.8674
 422  356.5714
 423  377.3745
 424  520.9744
 425  11.63881
 426  553.5524
 427  704.8209
 428  247.7254
 429  -96.38491
 430  67.64169
 431  491.0193
 432  636.7247
 433  640.2554
 434  1190.54
 435  976.2667
 436  699.1242
 437  380.7101
 438  95.23563
 439  860.8346
 440  591.438
 441  653.8024
 442  1038.983
 443  672.028
 444  510.8456
 445  310.1256
 446  179.2282
 447  357.7913
 448  688.1287
 449  706.3287
 450  519.663
 451  376.9398
 452  791.4591
 453  611.0034
 454  -40.19795
 455  -21.60868
 456  327.2905
 457  490.5978
 458  596.4881
 459  909.3192
 460  252.0544
 461  -59.15024
 462  -445.253
 463  148.6913
 464  589.109
 465  578.0063
 466  1246.203
 467  1183.238
 468  1061.472
 469  885.8236
 470  121.844
 471  262.2891
 472  233.3725
 473  440.8709
 474  266.793
 475  687.0907
 476  1246.435
 477  679.6988
 478  149.0583
 479  -169.1432
 480  -100.8705
 481  195.3547
 482  635.8134
 483  1080.24
 484  1178.331
 485  947.0156
 486  854.7018
 487  470.2897
 488  258.1888
 489  84.35992
 490  -213.7665
 491  466.5318
 492  831.8892
 493  1190.653
 494  782.8038
 495  184.9091
 496  90.58454
 497  528.1224
 498  521.95
 499  316.7224
 500  807.0837
 501  1133.83
 502  404.6026
 503  306.0903
 504  83.35561
 505  300.7411
 506  341.259
 507  139.4798
 508  643.4774
 509  848.644
 510  766.2646
 511  604.959
