# Input file       =  1202151414.114845_cleaned.dat
# Candidate        =  PSR_0332+5434
# Telescope        =  AR
# Epoch_topo       =  58157.789735125523
# Epoch_bary       =  N/A
# T_sample         =  0.002
# Data Folded      =  7340032
# Data Avg         =  0.0142778652009548
# Data StdDev      =  1.00007223698405 
# Profile Bins     =  512
# Profile Avg      =  204.773140915966 
# Profile StdDev   =  119.741685530206 
# Reduced chi-sqr  =  1.146
# Prob(Noise)      <  0.0121   (~2.3 sigma)
# P_topo (ms)      =  714.578945261898  +/- 0.00025
# P'_topo (s/s)    =  -0                +/- 1.32e-10
# P''_topo (s/s^2) =  0                 +/- 5.83e-14
# P_bary (ms)      =  N/A
# P'_bary (s/s)    =  N/A
# P''_bary (s/s^2) =  N/A
# P_orb (s)        =  N/A
# asin(i)/c (s)    =  N/A
# eccentricity     =  N/A
# w (rad)          =  N/A
# T_peri           =  N/A
######################################################
   0  881.584
   1  727.821
   2  507.7606
   3  321.4719
   4  116.7773
   5  88.28817
   6  145.8359
   7  317.5257
   8  286.891
   9  195.331
  10  283.3929
  11  272.1364
  12  240.2206
  13  327.0813
  14  222.5636
  15  301.9119
  16  353.5398
  17  445.5114
  18  287.0398
  19  299.452
  20  196.5435
  21  245.4296
  22  172.3501
  23  219.2938
  24  242.4826
  25  272.0379
  26  174.3267
  27  144.2747
  28  226.2681
  29  241.6364
  30  173.3165
  31  212.0037
  32  256.6467
  33  192.7899
  34  242.7661
  35  280.1001
  36  232.6174
  37  78.43798
  38  90.64379
  39  150.1721
  40  205.0197
  41  203.6311
  42  138.5965
  43  144.2756
  44  172.56
  45  227.2366
  46  248.0487
  47  249.6584
  48  137.0382
  49  193.0531
  50  158.7756
  51  222.051
  52  212.5798
  53  217.1991
  54  91.322
  55  71.51179
  56  109.1024
  57  93.5695
  58  103.4361
  59  211.0573
  60  137.5194
  61  151.8237
  62  166.5007
  63  247.2077
  64  185.4151
  65  156.0475
  66  157.1995
  67  191.6896
  68  181.5144
  69  204.836
  70  178.6874
  71  183.4002
  72  170.822
  73  197.2789
  74  124.8275
  75  189.2941
  76  215.7718
  77  158.0977
  78  123.265
  79  227.4303
  80  190.3505
  81  149.4151
  82  169.3653
  83  176.6598
  84  173.6271
  85  220.4454
  86  216.761
  87  177.4802
  88  349.1096
  89  265.5941
  90  173.9693
  91  189.7172
  92  129.8116
  93  183.2283
  94  206.6127
  95  245.6155
  96  274.5089
  97  206.2828
  98  167.091
  99  9.421111
 100  56.55413
 101  306.7586
 102  164.8726
 103  91.94144
 104  120.7846
 105  78.75998
 106  198.178
 107  181.4689
 108  194.3788
 109  192.0165
 110  186.7207
 111  203.0101
 112  2.012469
 113  8.470922
 114  228.0592
 115  161.1684
 116  203.8464
 117  220.0878
 118  72.09409
 119  125.6876
 120  157.4944
 121  252.1372
 122  165.1514
 123  166.8057
 124  182.8908
 125  203.808
 126  281.6991
 127  236.4369
 128  275.5722
 129  240.2953
 130  174.8244
 131  183.6947
 132  89.62212
 133  144.8381
 134  218.8335
 135  148.9557
 136  137.4871
 137  247.147
 138  226.0873
 139  139.0792
 140  125.0825
 141  208.4445
 142  215.2018
 143  177.5835
 144  168.1431
 145  178.2522
 146  140.1385
 147  184.1864
 148  260.9955
 149  169.7813
 150  194.7619
 151  223.8948
 152  251.1452
 153  131.2672
 154  188.9211
 155  299.9277
 156  321.5804
 157  269.8691
 158  234.1562
 159  140.8755
 160  19.26261
 161  190.8099
 162  130.8757
 163  78.41632
 164  75.28322
 165  175.2735
 166  181.6186
 167  218.7675
 168  205.8793
 169  239.8166
 170  214.5258
 171  109.9984
 172  133.1909
 173  161.8063
 174  189.2803
 175  183.1933
 176  235.907
 177  250.5657
 178  304.6462
 179  257.3824
 180  136.7979
 181  87.3534
 182  105.7174
 183  142.6562
 184  192.5825
 185  202.5668
 186  76.34785
 187  108.8403
 188  273.6985
 189  408.3133
 190  279.0265
 191  270.7024
 192  151.1701
 193  182.5867
 194  265.2751
 195  362.7151
 196  295.5327
 197  208.7381
 198  271.9171
 199  322.7791
 200  244.5133
 201  203.5427
 202  246.3394
 203  198.8108
 204  193.0345
 205  205.9189
 206  193.5705
 207  173.5652
 208  142.5119
 209  281.1003
 210  190.9814
 211  141.6986
 212  154.2455
 213  151.5406
 214  212.465
 215  242.5804
 216  220.7404
 217  136.5221
 218  202.5132
 219  216.5641
 220  239.6954
 221  195.6055
 222  167.3564
 223  271.9462
 224  249.3529
 225  228.0776
 226  236.6886
 227  242.0495
 228  229.2096
 229  218.2686
 230  212.114
 231  197.0107
 232  179.7174
 233  187.3743
 234  207.1103
 235  119.244
 236  295.0189
 237  291.9674
 238  235.7451
 239  190.4287
 240  189.1001
 241  167.5491
 242  169.1823
 243  305.5151
 244  256.0585
 245  24.76798
 246  97.65947
 247  71.49709
 248  55.18074
 249  91.70684
 250  187.4755
 251  209.6081
 252  136.2665
 253  140.8488
 254  268.4591
 255  159.025
 256  69.61491
 257  -0.05188728
 258  127.8848
 259  66.87253
 260  155.7186
 261  140.672
 262  226.2822
 263  213.7999
 264  209.9602
 265  197.7745
 266  88.97077
 267  132.8668
 268  203.7495
 269  280.0131
 270  219.4374
 271  153.3602
 272  165.8809
 273  143.8122
 274  292.3734
 275  217.9257
 276  122.5274
 277  63.7983
 278  69.34155
 279  152.1863
 280  216.4427
 281  151.3767
 282  102.529
 283  198.8193
 284  182.8164
 285  100.6609
 286  66.7662
 287  50.24843
 288  119.9811
 289  113.8651
 290  166.9803
 291  125.0338
 292  221.5518
 293  236.3641
 294  115.6271
 295  100.077
 296  119.1244
 297  84.02645
 298  104.8277
 299  168.6108
 300  228.454
 301  251.8076
 302  266.7827
 303  128.004
 304  164.6389
 305  244.0423
 306  211.115
 307  159.4993
 308  205.6276
 309  93.48965
 310  121.2802
 311  215.575
 312  212.4259
 313  263.0477
 314  182.1178
 315  123.9157
 316  138.5043
 317  61.87584
 318  130.2333
 319  111.3984
 320  181.5197
 321  192.1255
 322  204.4741
 323  281.2545
 324  253.7861
 325  146.4766
 326  149.2233
 327  133.377
 328  121.0098
 329  139.0346
 330  184.8593
 331  218.8966
 332  306.7779
 333  232.8621
 334  276.1646
 335  251.2137
 336  153.7751
 337  85.48954
 338  128.5346
 339  201.8235
 340  276.3068
 341  227.7792
 342  54.81361
 343  99.66761
 344  150.1437
 345  174.6949
 346  290.2661
 347  294.463
 348  275.6515
 349  287.3509
 350  179.191
 351  211.4825
 352  126.0707
 353  274.7645
 354  164.7179
 355  132.8441
 356  176.7658
 357  118.2525
 358  147.7559
 359  136.0286
 360  139.1276
 361  132.8611
 362  221.0539
 363  202.039
 364  64.43333
 365  195.3816
 366  220.8523
 367  162.604
 368  77.50719
 369  152.6983
 370  217.3939
 371  246.2213
 372  211.9599
 373  146.4182
 374  91.65244
 375  164.3383
 376  137.1841
 377  111.029
 378  64.92614
 379  192.6895
 380  167.6214
 381  141.0831
 382  200.8254
 383  138.6206
 384  83.07575
 385  170.8848
 386  147.6203
 387  176.0732
 388  249.0108
 389  251.1298
 390  268.4741
 391  121.1218
 392  212.35
 393  265.8549
 394  275.561
 395  233.2595
 396  284.1694
 397  237.6443
 398  254.1952
 399  337.0364
 400  285.4861
 401  130.7904
 402  232.4745
 403  243.132
 404  309.0103
 405  311.9436
 406  191.3954
 407  184.3864
 408  259.6858
 409  233.9061
 410  330.7663
 411  252.0581
 412  200.6548
 413  252.3426
 414  196.4359
 415  209.6188
 416  258.3752
 417  87.418
 418  73.84736
 419  74.2138
 420  147.804
 421  232.9117
 422  270.7431
 423  187.1617
 424  204.5614
 425  157.3875
 426  262.3432
 427  218.9416
 428  278.5578
 429  353.3805
 430  282.0014
 431  214.1535
 432  144.4594
 433  97.96982
 434  166.3088
 435  160.0349
 436  276.8357
 437  289.3891
 438  262.4828
 439  245.6432
 440  96.69602
 441  125.377
 442  269.1764
 443  223.6677
 444  90.92169
 445  190.5547
 446  323.6387
 447  277.5919
 448  206.4382
 449  223.3012
 450  346.2653
 451  303.7645
 452  211.5424
 453  277.1776
 454  239.8249
 455  281.9657
 456  311.1309
 457  295.9536
 458  221.445
 459  134.6933
 460  209.4116
 461  209.1763
 462  223.4353
 463  132.5282
 464  168.8593
 465  146.3217
 466  109.6676
 467  214.6783
 468  225.4651
 469  193.1008
 470  334.548
 471  302.9081
 472  339.3864
 473  292.8698
 474  167.3596
 475  186.4346
 476  219.5719
 477  224.5131
 478  167.6749
 479  272.4528
 480  350.3437
 481  239.1073
 482  261.8466
 483  179.2384
 484  198.8641
 485  90.66354
 486  141.1
 487  180.9124
 488  235.4696
 489  271.4037
 490  221.763
 491  277.9391
 492  468.9943
 493  309.4125
 494  365.1204
 495  256.0927
 496  263.8602
 497  295.1351
 498  404.893
 499  369.2661
 500  286.3339
 501  275.4945
 502  461.391
 503  346.2528
 504  388.7914
 505  444.7905
 506  413.4881
 507  513.1947
 508  458.6013
 509  461.1914
 510  628.2256
 511  806.0685
