# Input file       =  1202481266.11084_cleaned.dat
# Candidate        =  PSR_0332+5434
# Telescope        =  AR
# Epoch_topo       =  58161.607466560650
# Epoch_bary       =  N/A
# T_sample         =  0.002
# Data Folded      =  7340032
# Data Avg         =  0.181866793551307
# Data StdDev      =  4.24225933337857 
# Profile Bins     =  512
# Profile Avg      =  2608.21771947571 
# Profile StdDev   =  507.938591083091 
# Reduced chi-sqr  =  0.908
# Prob(Noise)      <  0.932   (~0.0 sigma)
# P_topo (ms)      =  714.579556474167  +/- 0.000514
# P'_topo (s/s)    =  -0                +/- 2.71e-10
# P''_topo (s/s^2) =  0                 +/- 1.2e-13
# P_bary (ms)      =  N/A
# P'_bary (s/s)    =  N/A
# P''_bary (s/s^2) =  N/A
# P_orb (s)        =  N/A
# asin(i)/c (s)    =  N/A
# eccentricity     =  N/A
# w (rad)          =  N/A
# T_peri           =  N/A
######################################################
   0  2148.953
   1  2401.962
   2  2313.797
   3  2820.771
   4  2846.374
   5  2510.667
   6  2380.753
   7  2756.99
   8  2674.593
   9  2500.736
  10  2521.423
  11  2533.867
  12  2087.812
  13  1869.192
  14  2320.129
  15  2396.309
  16  2247.836
  17  2291.848
  18  2315.052
  19  2430.778
  20  2388.961
  21  2803.808
  22  2621.3
  23  2985.61
  24  2949.32
  25  2715.518
  26  2617.313
  27  2645.686
  28  2636.221
  29  2314.145
  30  2503.184
  31  2489.935
  32  2375.692
  33  2592.014
  34  2510.6
  35  2313.057
  36  2646.948
  37  2772.562
  38  2762.829
  39  2789.019
  40  2548.892
  41  2384.551
  42  2349.293
  43  2491.91
  44  2816.183
  45  2742.24
  46  2728.707
  47  2689.715
  48  2778.744
  49  2678.202
  50  2901.412
  51  2874.142
  52  2851.915
  53  2552.658
  54  2306.899
  55  2372.78
  56  2454.838
  57  2674.054
  58  2456.606
  59  2126.016
  60  2083.162
  61  2144.305
  62  2351.547
  63  2102.631
  64  2109.74
  65  2354.905
  66  2053.123
  67  1814.322
  68  1777.471
  69  2199.657
  70  2476.196
  71  2433.894
  72  2229.44
  73  2243.216
  74  1966.89
  75  2125.424
  76  2200.118
  77  2209.1
  78  2584.195
  79  2512.268
  80  1941.117
  81  1693.356
  82  1737.171
  83  1578.61
  84  1735.573
  85  2178.567
  86  2143.999
  87  2101.529
  88  2351.547
  89  2318.086
  90  2024.599
  91  2258.406
  92  2667.443
  93  2728.117
  94  2655.382
  95  2819.352
  96  2638.288
  97  2761.454
  98  2679.7
  99  2699.235
 100  2557.5
 101  2715.732
 102  2580.223
 103  2317.765
 104  2732.359
 105  2614.771
 106  2292.564
 107  2353.92
 108  2647.507
 109  2650.5
 110  2724.183
 111  2661.381
 112  2336.013
 113  2401.118
 114  2241.644
 115  2296.93
 116  2401.568
 117  2293.97
 118  2467.163
 119  2629.722
 120  2181.598
 121  2424.872
 122  2761.121
 123  2746.083
 124  2833.468
 125  2798.28
 126  2762.387
 127  2465.59
 128  2294.118
 129  2321.16
 130  2359.167
 131  2314.137
 132  2147.334
 133  1940.738
 134  2289.655
 135  2448.692
 136  2806.455
 137  2533.672
 138  2203.815
 139  1892.881
 140  2058.027
 141  2230.762
 142  2113.848
 143  2027.643
 144  2281.04
 145  2301.301
 146  2182.458
 147  1835.426
 148  2012.947
 149  1955.877
 150  2014.833
 151  2060.373
 152  2321.709
 153  2447.942
 154  2498.016
 155  2189.77
 156  2156.734
 157  2274.777
 158  2044.828
 159  2118.177
 160  2390.26
 161  2468.695
 162  2584.372
 163  2533.333
 164  2592.109
 165  2530.933
 166  2497.301
 167  2496.038
 168  2692.827
 169  2568.928
 170  2385.355
 171  2364.011
 172  2428.251
 173  2819.655
 174  2476.991
 175  2553.829
 176  2368.724
 177  2317.041
 178  2663.556
 179  2549.442
 180  2583.891
 181  2690.27
 182  2527.88
 183  2480.367
 184  2503.199
 185  2636.321
 186  2635.4
 187  2879.032
 188  2532.96
 189  2586.093
 190  2837.692
 191  3094.473
 192  3016.768
 193  2524.672
 194  2426.832
 195  2689.974
 196  2631.053
 197  2735.46
 198  2622.648
 199  2810.392
 200  2937.15
 201  2689.369
 202  2487.177
 203  2684.012
 204  2675.557
 205  2642.701
 206  2326.509
 207  2201.603
 208  2437.249
 209  2494.417
 210  2305.75
 211  2466.686
 212  2366.582
 213  2173.904
 214  2172.014
 215  2341.899
 216  2132.68
 217  2300.827
 218  2584.663
 219  2502.275
 220  2441.512
 221  2460.449
 222  2684.451
 223  2718.692
 224  2664.33
 225  2721.879
 226  2945.343
 227  3100.965
 228  2783.367
 229  2690.038
 230  2490.03
 231  2483.202
 232  2751.683
 233  2635.329
 234  2419.523
 235  2751.177
 236  3052.338
 237  2899.824
 238  2888.108
 239  2858.775
 240  2921.39
 241  2491.006
 242  2406.97
 243  2820.945
 244  2780.263
 245  2622.394
 246  2621.17
 247  2878.644
 248  2780.056
 249  3026.185
 250  3072.119
 251  2923.249
 252  2898.299
 253  3061.874
 254  3175.569
 255  3382.549
 256  3113.045
 257  2980.586
 258  3075.35
 259  2951.271
 260  2993.06
 261  2938.777
 262  2862.212
 263  2937.8
 264  2869.499
 265  2828.465
 266  2417.915
 267  2591.029
 268  2624.974
 269  2512.689
 270  2438.37
 271  2725.494
 272  2533.569
 273  2429
 274  2790.047
 275  2520.892
 276  2626.565
 277  2741.233
 278  2962.229
 279  2612.736
 280  2473.028
 281  2445.472
 282  2754.79
 283  2611.44
 284  2695.007
 285  2487.513
 286  2485.074
 287  2487.264
 288  2451.167
 289  2457.282
 290  2543.309
 291  2303.487
 292  2299.478
 293  2245.86
 294  2320.136
 295  2378.144
 296  2339.703
 297  2502.293
 298  2318.473
 299  2479.253
 300  2814.219
 301  2839.185
 302  2459.513
 303  2402.459
 304  2367.081
 305  2513.428
 306  2678.777
 307  3054.675
 308  2741.2
 309  2633.929
 310  2899.294
 311  2790.427
 312  2911.729
 313  3035.521
 314  3377.456
 315  3204.301
 316  2960.26
 317  2913.298
 318  2648.48
 319  2658.151
 320  2867.838
 321  2779.897
 322  2749.159
 323  2715.496
 324  2833.923
 325  2957.301
 326  2893.106
 327  2659.894
 328  2831.25
 329  3216.644
 330  3229.319
 331  2963.756
 332  3158.116
 333  3141.742
 334  2634.701
 335  2997.549
 336  3310.82
 337  3000.101
 338  2685.521
 339  2733.648
 340  2450.192
 341  2462.564
 342  2784.543
 343  2843.377
 344  2506.54
 345  2412.455
 346  2787.792
 347  2324.844
 348  2585.833
 349  2903.123
 350  2953.542
 351  2723.399
 352  2941.939
 353  2552.279
 354  2341.17
 355  2411.388
 356  2722.222
 357  2586.699
 358  2475.093
 359  2514.496
 360  2463.968
 361  2545.648
 362  2850.366
 363  2993.706
 364  2776.121
 365  2583.489
 366  2726.818
 367  2837.04
 368  2857.733
 369  3183.221
 370  3237.497
 371  3336.069
 372  3352.836
 373  3229.732
 374  3079.349
 375  3155.793
 376  2898.485
 377  2954.459
 378  2863.522
 379  2777.745
 380  3091.961
 381  2633.622
 382  2481.181
 383  2708.15
 384  2535.199
 385  3078.083
 386  3116.948
 387  2945.048
 388  3239.712
 389  3135.536
 390  3111.743
 391  2834.498
 392  2785.634
 393  2617.273
 394  2902.093
 395  2978.296
 396  2961.669
 397  2969.113
 398  2438.587
 399  2722.048
 400  2776.65
 401  2459.874
 402  2439.208
 403  2441.785
 404  2722.295
 405  2859.957
 406  2678.631
 407  2283.277
 408  2384.269
 409  2568.32
 410  2729.914
 411  2573.603
 412  2534.909
 413  2669.022
 414  2574.042
 415  2589.941
 416  2805.85
 417  2499.921
 418  2531.083
 419  2585.831
 420  2306.896
 421  2312.254
 422  2494.026
 423  2823.62
 424  2776.27
 425  2781.48
 426  2685.938
 427  2699.388
 428  2757.126
 429  2673.938
 430  2612.573
 431  2932.202
 432  3017.922
 433  3116.244
 434  3457.206
 435  3968.809
 436  4760.221
 437  4954.292
 438  4453.883
 439  4034.813
 440  3455.771
 441  2788.787
 442  2582.714
 443  2425.625
 444  2600.115
 445  2565.761
 446  2623.4
 447  2479.343
 448  2209.605
 449  2177.042
 450  2446.714
 451  2751.865
 452  2621.435
 453  2590.67
 454  2684.615
 455  2544.502
 456  2300.257
 457  2559.238
 458  3026.377
 459  2778.915
 460  2758.731
 461  2816.117
 462  2667.098
 463  2696.655
 464  2542.405
 465  2692.301
 466  2950.487
 467  2907.761
 468  2806.116
 469  3008.155
 470  2984.229
 471  2828.642
 472  2702.587
 473  2834.386
 474  2696.717
 475  2516.477
 476  2748.658
 477  2825.485
 478  2934.487
 479  2885.361
 480  2609.229
 481  2672.819
 482  2477.815
 483  2523.859
 484  2503.704
 485  2276.087
 486  2371.79
 487  2434.684
 488  2468.738
 489  2402.766
 490  2430.792
 491  2520.866
 492  2685.412
 493  2670.902
 494  2375.062
 495  2527.978
 496  2389.17
 497  2338.502
 498  2568.983
 499  2466
 500  2319.038
 501  2521.72
 502  2399.017
 503  2302.03
 504  2430.017
 505  2280.093
 506  2178.069
 507  2249.701
 508  2275.844
 509  2541.626
 510  2368.234
 511  2003.76
