# Input file       =  1202496185.116841_cleaned.dat
# Candidate        =  PSR_0332+5434
# Telescope        =  AR
# Epoch_topo       =  58161.780140241215
# Epoch_bary       =  N/A
# T_sample         =  0.002
# Data Folded      =  7340032
# Data Avg         =  0.0152707434832579
# Data StdDev      =  1.00005643129297 
# Profile Bins     =  512
# Profile Avg      =  218.875248898376 
# Profile StdDev   =  119.73979306682  
# Reduced chi-sqr  =  1.188
# Prob(Noise)      <  0.00211   (~2.9 sigma)
# P_topo (ms)      =  714.57992968998   +/- 0.000172
# P'_topo (s/s)    =  -0                +/- 9.08e-11
# P''_topo (s/s^2) =  0                 +/- 4.01e-14
# P_bary (ms)      =  N/A
# P'_bary (s/s)    =  N/A
# P''_bary (s/s^2) =  N/A
# P_orb (s)        =  N/A
# asin(i)/c (s)    =  N/A
# eccentricity     =  N/A
# w (rad)          =  N/A
# T_peri           =  N/A
######################################################
   0  312.5233
   1  167.8718
   2  67.54218
   3  113.2485
   4  88.35577
   5  215.5716
   6  187.2711
   7  302.3506
   8  226.1601
   9  201.4343
  10  111.4644
  11  148.6299
  12  176.3704
  13  263.6502
  14  241.8969
  15  267.0299
  16  291.2085
  17  157.7976
  18  111.6621
  19  259.024
  20  386.0758
  21  166.7814
  22  163.0473
  23  91.88866
  24  154.7541
  25  202.9687
  26  210.5867
  27  202.9146
  28  216.512
  29  218.0866
  30  134.899
  31  121.4135
  32  338.6874
  33  408.4652
  34  292.3536
  35  306.9711
  36  219.9606
  37  124.0774
  38  32.98494
  39  20.81995
  40  104.1858
  41  162.3121
  42  117.6982
  43  173.8136
  44  209.4687
  45  297.6102
  46  177.1429
  47  278.2582
  48  228.7006
  49  171.0039
  50  165.7795
  51  210.6169
  52  163.044
  53  159.3645
  54  219.1083
  55  185.4627
  56  179.1516
  57  205.5057
  58  172.504
  59  173.1379
  60  41.96342
  61  121.0229
  62  180.8167
  63  220.7459
  64  138.4457
  65  221.229
  66  314.2971
  67  216.1918
  68  224.7568
  69  114.1985
  70  239.1505
  71  142.2078
  72  162.2411
  73  216.4229
  74  139.6356
  75  165.1238
  76  169.8537
  77  171.1599
  78  307.5707
  79  202.7576
  80  146.6593
  81  146.9129
  82  227.0854
  83  173.2912
  84  173.9289
  85  252.0628
  86  308.6674
  87  346.2564
  88  191.9911
  89  268.9355
  90  265.6776
  91  228.8341
  92  187.9064
  93  159.613
  94  238.3757
  95  166.3459
  96  93.41259
  97  115.8823
  98  119.6397
  99  247.042
 100  318.9781
 101  257.3354
 102  294.6912
 103  220.0487
 104  231.6872
 105  229.1512
 106  103.8742
 107  234.7248
 108  349.6267
 109  390.5485
 110  443.1548
 111  388.0555
 112  378.6556
 113  291.1295
 114  219.6241
 115  190.1022
 116  250.6555
 117  187.8043
 118  287.6646
 119  354.7628
 120  359.6934
 121  283.4594
 122  229.8254
 123  256.0889
 124  359.8665
 125  312.8864
 126  377.6713
 127  413.9962
 128  310.1187
 129  288.7934
 130  137.3491
 131  91.68859
 132  161.5782
 133  179.88
 134  248.5289
 135  278.8442
 136  272.5602
 137  307.4466
 138  386.7049
 139  215.6826
 140  345.69
 141  376.7782
 142  253.6003
 143  274.1028
 144  278.0369
 145  337.5127
 146  327.5456
 147  302.249
 148  306.731
 149  219.6902
 150  119.9629
 151  238.3053
 152  229.2745
 153  324.4986
 154  377.2195
 155  155.2174
 156  157.0447
 157  149.5135
 158  157.1616
 159  162.495
 160  232.631
 161  256.1142
 162  194.95
 163  201.1457
 164  184.4639
 165  311.6289
 166  256.8703
 167  255.1562
 168  182.1207
 169  224.3635
 170  217.2086
 171  157.3773
 172  90.03699
 173  105.1596
 174  120.7028
 175  83.73224
 176  175.7118
 177  246.7611
 178  355.4486
 179  342.0742
 180  136.3518
 181  42.43945
 182  123.779
 183  175.6076
 184  41.15297
 185  110.7254
 186  116.1328
 187  191.792
 188  289.6949
 189  190.3093
 190  88.57143
 191  97.00743
 192  90.43316
 193  169.421
 194  302.8043
 195  130.4352
 196  192.6521
 197  360.9622
 198  226.0135
 199  212.6573
 200  333.2582
 201  219.4402
 202  15.12106
 203  31.83154
 204  163.1266
 205  167.2043
 206  290.957
 207  350.7535
 208  206.442
 209  120.5735
 210  279.6276
 211  372.8911
 212  322.1812
 213  235.8441
 214  282.9047
 215  329.8697
 216  369.8799
 217  315.7389
 218  283.4
 219  177.7613
 220  202.2718
 221  145.7743
 222  254.6569
 223  145.039
 224  81.92444
 225  138.531
 226  97.60637
 227  159.9053
 228  189.2365
 229  225.7104
 230  246.6824
 231  203.4872
 232  241.2304
 233  208.2754
 234  166.5107
 235  200.4487
 236  171.8375
 237  130.1387
 238  157.3718
 239  268.2631
 240  165.5077
 241  112.8851
 242  143.6663
 243  124.9649
 244  135.5966
 245  261.4184
 246  279.8096
 247  211.5495
 248  163.0337
 249  330.5164
 250  169.2262
 251  56.43759
 252  208.3977
 253  310.5775
 254  335.9767
 255  199.9711
 256  195.0442
 257  235.9001
 258  197.6069
 259  185.0429
 260  214.31
 261  137.881
 262  217.9636
 263  261.8008
 264  218.3015
 265  201.8544
 266  83.92175
 267  122.1075
 268  115.7908
 269  166.0107
 270  114.2972
 271  88.60632
 272  170.5612
 273  126.4651
 274  199.0571
 275  253.3814
 276  189.2705
 277  146.04
 278  185.2329
 279  158.3428
 280  189.9808
 281  245.4715
 282  84.58721
 283  165.9811
 284  222.0443
 285  208.5583
 286  230.2697
 287  216.2477
 288  149.8627
 289  190.9498
 290  262.0264
 291  207.5552
 292  145.1979
 293  239.373
 294  195.644
 295  191.5407
 296  338.5092
 297  258.9827
 298  173.4706
 299  310.0017
 300  237.7384
 301  236.0647
 302  183.4677
 303  176.1883
 304  269.2257
 305  256.229
 306  219.7018
 307  175.883
 308  105.3609
 309  198.9044
 310  357.8408
 311  353.3588
 312  314.1847
 313  218.8271
 314  277.2945
 315  245.7865
 316  257.351
 317  224.9449
 318  296.1775
 319  194.333
 320  114.6894
 321  146.4678
 322  115.5095
 323  133.8538
 324  146.3591
 325  262.8321
 326  238.6995
 327  158.1866
 328  301.574
 329  300.326
 330  253.0487
 331  246.9323
 332  210.3882
 333  187.8251
 334  262.4233
 335  169.8463
 336  173.979
 337  264.4886
 338  206.8537
 339  231.979
 340  167.6268
 341  198.7783
 342  267.1693
 343  87.38009
 344  157.2541
 345  211.309
 346  111.9068
 347  150.2188
 348  249.2889
 349  265.2096
 350  160.101
 351  -5.532488
 352  56.68928
 353  120.9941
 354  206.3575
 355  287.0226
 356  287.8788
 357  296.0903
 358  285.6448
 359  263.3352
 360  140.2389
 361  207.9047
 362  275.3816
 363  328.3354
 364  263.4413
 365  298.0707
 366  125.5335
 367  6.836048
 368  192.6071
 369  311.5446
 370  277.2981
 371  260.4397
 372  154.5916
 373  161.0529
 374  200.4017
 375  157.0716
 376  171.7129
 377  310.3191
 378  428.7601
 379  347.9027
 380  334.4764
 381  274.0524
 382  127.9245
 383  87.10178
 384  117.7325
 385  216.8695
 386  164.754
 387  170.2926
 388  125.4343
 389  175.1786
 390  60.1535
 391  54.36357
 392  120.354
 393  117.0591
 394  61.05132
 395  164.8282
 396  176.1354
 397  220.6967
 398  297.8167
 399  234.5456
 400  275.4915
 401  311.6496
 402  256.3591
 403  306.2955
 404  240.9176
 405  303.8112
 406  138.9955
 407  234.5455
 408  250.9017
 409  187.5274
 410  201.1865
 411  163.0432
 412  138.2231
 413  212.3663
 414  186.0817
 415  145.4081
 416  196.1036
 417  166.8066
 418  315.1034
 419  311.7282
 420  195.824
 421  268.4736
 422  403.3021
 423  263.5472
 424  249.4571
 425  184.2335
 426  161.7903
 427  381.4378
 428  660.174
 429  738.5775
 430  790.23
 431  762.9338
 432  704.8851
 433  450.7158
 434  360.1776
 435  169.3808
 436  164.5921
 437  291.6755
 438  379.9598
 439  305.8731
 440  274.8474
 441  237.7826
 442  259.5708
 443  191.4715
 444  179.9556
 445  319.4911
 446  361.2279
 447  355.968
 448  320.4663
 449  252.4104
 450  194.673
 451  174.2529
 452  222.9434
 453  262.2544
 454  217.8304
 455  253.237
 456  190.0117
 457  186.2102
 458  269.9552
 459  361.981
 460  269.1138
 461  255.49
 462  226.6924
 463  363.1326
 464  258.2546
 465  195.7404
 466  206.6758
 467  259.2071
 468  239.0664
 469  227.8916
 470  293.1245
 471  161.1307
 472  152.9869
 473  162.8601
 474  168.7167
 475  141.3934
 476  -1.262113
 477  62.23562
 478  143.2345
 479  212.162
 480  158.459
 481  107.4864
 482  269.5203
 483  247.7735
 484  339.6876
 485  269.0843
 486  217.3641
 487  132.1432
 488  218.571
 489  204.0368
 490  201.8646
 491  243.5774
 492  151.6149
 493  210.1968
 494  182.6271
 495  228.7822
 496  202.9314
 497  176.8494
 498  193.0474
 499  226.0745
 500  275.1612
 501  252.5188
 502  228.6641
 503  215.0045
 504  113.9459
 505  203.7547
 506  114.4694
 507  164.6214
 508  194.7378
 509  142.1761
 510  232.0122
 511  319.1344
