# Input file       =  1202151414.114845_cleaned.dat
# Candidate        =  PSR_0332+5434
# Telescope        =  AR
# Epoch_topo       =  58157.789735125523
# Epoch_bary       =  N/A
# T_sample         =  0.002
# Data Folded      =  7340032
# Data Avg         =  0.0570301898478646
# Data StdDev      =  3.63071265105965 
# Profile Bins     =  256
# Profile Avg      =  1635.4772962068  
# Profile StdDev   =  614.781616424951 
# Reduced chi-sqr  =  1.084
# Prob(Noise)      <  0.171   (~1.0 sigma)
# P_topo (ms)      =  714.57894629086   +/- 0.000327
# P'_topo (s/s)    =  -0                +/- 1.72e-10
# P''_topo (s/s^2) =  0                 +/- 7.61e-14
# P_bary (ms)      =  N/A
# P'_bary (s/s)    =  N/A
# P''_bary (s/s^2) =  N/A
# P_orb (s)        =  N/A
# asin(i)/c (s)    =  N/A
# eccentricity     =  N/A
# w (rad)          =  N/A
# T_peri           =  N/A
######################################################
   0  1543.191
   1  1572.567
   2  1485.664
   3  932.5509
   4  1120.434
   5  1587.081
   6  1366.602
   7  1493.535
   8  1254.535
   9  1736.216
  10  1564.608
  11  1492.218
  12  1542.316
  13  1412.108
  14  1684.454
  15  1367.124
  16  1650.844
  17  1064.055
  18  970.1024
  19  2138.581
  20  581.7675
  21  485.9502
  22  1280.426
  23  1411.327
  24  1427.704
  25  969.7423
  26  860.9139
  27  1117.707
  28  1568.782
  29  2193.171
  30  1785.17
  31  1460.504
  32  1805.5
  33  1737.744
  34  1848.983
  35  1546.293
  36  912.1473
  37  1532.759
  38  1038.684
  39  1420.867
  40  1117.83
  41  840.1189
  42  1075.732
  43  1331.424
  44  1278.96
  45  971.6573
  46  745.3187
  47  1614.429
  48  2027.549
  49  1173.436
  50  1712.376
  51  1431.277
  52  1122.243
  53  1655.371
  54  1584.895
  55  961.1088
  56  827.9135
  57  1007.828
  58  988.3763
  59  1759.988
  60  1394.949
  61  1237.414
  62  1252.381
  63  2092.243
  64  2158.755
  65  1779.807
  66  1121.822
  67  1657.498
  68  1124.844
  69  927.2361
  70  1778.322
  71  1868.364
  72  1679.4
  73  1391.174
  74  1816.718
  75  1363.112
  76  1284.037
  77  1111.083
  78  1311.27
  79  1259.37
  80  1847.645
  81  1368.912
  82  1507.99
  83  1486.983
  84  971.3134
  85  947.8162
  86  557.4233
  87  1270.46
  88  1372.234
  89  1210.787
  90  1542.588
  91  1927.709
  92  1969.636
  93  1846.037
  94  2194.843
  95  2113.594
  96  1898.077
  97  2177.592
  98  1610.444
  99  2216.02
 100  2065.628
 101  1683.932
 102  2054.783
 103  1729.908
 104  1807.401
 105  1715.925
 106  851.8646
 107  1080.997
 108  1964.665
 109  1410.048
 110  1428.932
 111  1385.778
 112  2145.027
 113  1180.009
 114  1233.608
 115  1916.566
 116  2041.104
 117  1329.852
 118  1414.459
 119  1419.962
 120  1762.762
 121  1888.852
 122  2025.394
 123  1913.292
 124  2057.408
 125  2013.555
 126  2002.276
 127  1618.007
 128  1981.624
 129  1721.486
 130  1467.463
 131  1757.892
 132  2022.085
 133  2511.455
 134  2166.096
 135  1706.901
 136  1467.393
 137  2538.45
 138  2139.417
 139  1692.422
 140  1300.741
 141  1706.188
 142  1967.679
 143  2664.288
 144  2519.688
 145  2542.031
 146  2704.135
 147  2745.716
 148  2772.705
 149  2763.736
 150  2894.79
 151  3114.202
 152  3633.543
 153  5418.869
 154  3977.734
 155  1839.084
 156  1164.67
 157  2285.929
 158  2013.379
 159  2238.828
 160  2156.084
 161  2527.212
 162  2953.8
 163  2403.259
 164  1840.237
 165  1802.662
 166  1752.9
 167  1410.613
 168  1557.115
 169  1964.729
 170  2003.884
 171  2306.504
 172  1391.934
 173  1664.101
 174  1571.2
 175  1596.827
 176  1999.898
 177  1786.661
 178  1638.848
 179  2015.257
 180  1388.268
 181  1001.779
 182  897.22
 183  1168.286
 184  1268.851
 185  1587.941
 186  1414.92
 187  1596.736
 188  1558.982
 189  1124.462
 190  1349.542
 191  1777.425
 192  1486.253
 193  1421.328
 194  1263.432
 195  1363.351
 196  1742.206
 197  1908.5
 198  1704.207
 199  1557.487
 200  1778.077
 201  2118.798
 202  1668.573
 203  792.0659
 204  2038.713
 205  978.8839
 206  1035.663
 207  1720.313
 208  1543.39
 209  776.7706
 210  1022.018
 211  1588.408
 212  1194.377
 213  999.1876
 214  1563.023
 215  1536.795
 216  1771.627
 217  2111.498
 218  1954.562
 219  1284.503
 220  1578.073
 221  1477.14
 222  1744.491
 223  1335.632
 224  1817.731
 225  1720.867
 226  1365.776
 227  1694.475
 228  1494.024
 229  1545.956
 230  1156.088
 231  2452.419
 232  2268.744
 233  1071.616
 234  1273.7
 235  1084.554
 236  1648.884
 237  1735.67
 238  1667.031
 239  1184.643
 240  1367.406
 241  1383.974
 242  1868.97
 243  1394.242
 244  899.3163
 245  1069.111
 246  894.3801
 247  1269.262
 248  2221.148
 249  1510.971
 250  1525.676
 251  2110.396
 252  1951.552
 253  2250.506
 254  2081.154
 255  1741.189
