# Input file       =  1202653658.112638_cleaned.dat
# Candidate        =  PSR_0332+5434
# Telescope        =  AR
# Epoch_topo       =  58163.602744359239
# Epoch_bary       =  N/A
# T_sample         =  0.002
# Data Folded      =  7340032
# Data Avg         =  -0.43737983988415
# Data StdDev      =  6.82210082197302 
# Profile Bins     =  512
# Profile Avg      =  -6270.27257315547
# Profile StdDev   =  816.830845883261 
# Reduced chi-sqr  =  0.554
# Prob(Noise)      <  1   (~0.0 sigma)
# P_topo (ms)      =  714.579943610485  +/- 0.00165
# P'_topo (s/s)    =  -0                +/- 8.71e-10
# P''_topo (s/s^2) =  0                 +/- 3.85e-13
# P_bary (ms)      =  N/A
# P'_bary (s/s)    =  N/A
# P''_bary (s/s^2) =  N/A
# P_orb (s)        =  N/A
# asin(i)/c (s)    =  N/A
# eccentricity     =  N/A
# w (rad)          =  N/A
# T_peri           =  N/A
######################################################
   0  -6399.041
   1  -6526.547
   2  -5957.229
   3  -5895.353
   4  -6213.909
   5  -6518.993
   6  -6129.21
   7  -6280.998
   8  -6361.21
   9  -6580.846
  10  -6381.395
  11  -6227.357
  12  -6308.79
  13  -6477.204
  14  -6455.848
  15  -6626.47
  16  -6323.764
  17  -6617.379
  18  -6265.513
  19  -6553.757
  20  -6716.529
  21  -6731.853
  22  -6663.623
  23  -6470.412
  24  -6531.965
  25  -6412.526
  26  -6532.15
  27  -6730.153
  28  -6561.258
  29  -6244.336
  30  -6168.734
  31  -6247.737
  32  -6212.848
  33  -6422.861
  34  -6395.518
  35  -6526.5
  36  -6572.249
  37  -6456.95
  38  -6173.969
  39  -6287.612
  40  -6229.335
  41  -6789.239
  42  -6728.706
  43  -6694.916
  44  -6678.779
  45  -6716.74
  46  -6714.413
  47  -6642.712
  48  -6558.459
  49  -6437.371
  50  -6307.72
  51  -6456.631
  52  -6558.808
  53  -6877.843
  54  -6969.478
  55  -6936.986
  56  -6751.547
  57  -6714.646
  58  -6942.147
  59  -6906.878
  60  -6736.857
  61  -6764.057
  62  -6887.042
  63  -6814.448
  64  -6354.315
  65  -5990.243
  66  -6268.371
  67  -6264.116
  68  -6130.756
  69  -6073.754
  70  -6178.384
  71  -6073.617
  72  -6204.767
  73  -6168.553
  74  -6361.781
  75  -6033.029
  76  -5782.866
  77  -5884.02
  78  -6193.888
  79  -6336.317
  80  -6498.302
  81  -6391.807
  82  -6158.948
  83  -6355.003
  84  -6002.797
  85  -5834.979
  86  -5836.086
  87  -5722.5
  88  -5934.504
  89  -5988.85
  90  -5927.831
  91  -6035.729
  92  -5690.498
  93  -5772.247
  94  -5957.048
  95  -5901.437
  96  -5666.086
  97  -5514.153
  98  -5880.496
  99  -6171.235
 100  -5990.518
 101  -6303.807
 102  -6492.62
 103  -6310.3
 104  -6470.964
 105  -6398.788
 106  -6177.299
 107  -6066.567
 108  -6330.48
 109  -6413.701
 110  -6277.004
 111  -6249.958
 112  -6182.034
 113  -6089.423
 114  -5997.613
 115  -6128.84
 116  -6259.319
 117  -6106.361
 118  -5883.037
 119  -5829.589
 120  -6117.61
 121  -6027.61
 122  -6103.448
 123  -6148.376
 124  -6266.608
 125  -6352.351
 126  -6221.935
 127  -6148.987
 128  -6218.255
 129  -6089.555
 130  -6084.428
 131  -6298.628
 132  -5930.745
 133  -6466.082
 134  -6815.56
 135  -6676.266
 136  -6310.831
 137  -6017.39
 138  -6336.313
 139  -5867.494
 140  -5809.007
 141  -5922.239
 142  -6221.435
 143  -6201.842
 144  -6048.383
 145  -6066.873
 146  -5997.624
 147  -6107.586
 148  -6524.868
 149  -6100.371
 150  -6135.032
 151  -5962.323
 152  -5791.694
 153  -5668.178
 154  -5815.125
 155  -6354.183
 156  -6562.229
 157  -6134.735
 158  -5741.752
 159  -5169.594
 160  -5275.808
 161  -5437.255
 162  -5518.578
 163  -5870.685
 164  -5834.67
 165  -5786.723
 166  -5840.27
 167  -5791.893
 168  -5852.758
 169  -5460.611
 170  -5664.415
 171  -5764.46
 172  -5624.983
 173  -5565.104
 174  -5544.904
 175  -5865.652
 176  -6213.131
 177  -6071.183
 178  -6173.802
 179  -6240.756
 180  -6168.259
 181  -5997.808
 182  -5971.784
 183  -6244.94
 184  -5949.327
 185  -5984.637
 186  -6212.398
 187  -5847.897
 188  -5896.316
 189  -5891.427
 190  -6038.255
 191  -5888.615
 192  -6282.307
 193  -6219.501
 194  -6106.253
 195  -5969.19
 196  -6091.706
 197  -6230.3
 198  -5935.586
 199  -6376.447
 200  -6397.529
 201  -6271.116
 202  -6247.783
 203  -6410.07
 204  -6300.12
 205  -6277.304
 206  -6491.341
 207  -6239.87
 208  -6009.473
 209  -5862.703
 210  -6075.706
 211  -6124.103
 212  -5765.098
 213  -5549.92
 214  -5900.818
 215  -6129.074
 216  -5962.989
 217  -5979.659
 218  -6164.775
 219  -6068.328
 220  -5593.05
 221  -5681.585
 222  -5932.149
 223  -5681.025
 224  -5699.266
 225  -5532.092
 226  -5510.454
 227  -5808.827
 228  -5885.861
 229  -5868.49
 230  -6152.11
 231  -6087.206
 232  -5725.891
 233  -5341.169
 234  -5342.415
 235  -4838.951
 236  -4121.839
 237  -3735.981
 238  -3742.502
 239  -3997.68
 240  -4173.773
 241  -4476.175
 242  -5144.031
 243  -5178.578
 244  -5406.584
 245  -5681.251
 246  -6062.204
 247  -5773.366
 248  -5817.126
 249  -5727.443
 250  -5824.753
 251  -5901.994
 252  -5763.059
 253  -5831.691
 254  -5969.468
 255  -5745.348
 256  -5566.464
 257  -5427.165
 258  -5596.137
 259  -5997.65
 260  -6157.339
 261  -6030.087
 262  -5988.43
 263  -6026.977
 264  -6254.677
 265  -6224.641
 266  -6364.768
 267  -6628.613
 268  -6527.812
 269  -6319.392
 270  -6286.478
 271  -6248.809
 272  -6209.066
 273  -5981.155
 274  -5977.123
 275  -6253.299
 276  -6218.394
 277  -6422.801
 278  -6496.635
 279  -6069.511
 280  -5947.935
 281  -6281.179
 282  -6121.543
 283  -6459.372
 284  -6470.599
 285  -6403.278
 286  -6649.915
 287  -6682.522
 288  -6464.223
 289  -6394.169
 290  -6321.529
 291  -6386.888
 292  -6587.77
 293  -6718.283
 294  -6725.178
 295  -6811.062
 296  -6646.739
 297  -6408.445
 298  -6259.479
 299  -6235.106
 300  -6629.018
 301  -6642.571
 302  -6535.156
 303  -6665.605
 304  -6423.017
 305  -7059.39
 306  -6811.047
 307  -7005.728
 308  -7161.53
 309  -6959.28
 310  -6932.058
 311  -7099.845
 312  -7018.742
 313  -7106.712
 314  -6911.124
 315  -7018.926
 316  -7104.452
 317  -6525.998
 318  -6684.801
 319  -6673.498
 320  -6678.167
 321  -6758.62
 322  -6729.417
 323  -6649.813
 324  -6635.942
 325  -6604.551
 326  -6650.956
 327  -6896.608
 328  -6866.834
 329  -6621.437
 330  -6611.773
 331  -6561.873
 332  -6894.416
 333  -6634.867
 334  -6835.52
 335  -7173.277
 336  -6993.474
 337  -6619.467
 338  -6357.378
 339  -6038.445
 340  -6300.913
 341  -6684.699
 342  -6677.621
 343  -6417.106
 344  -6810.798
 345  -6790.94
 346  -6466.167
 347  -6459.683
 348  -6611.525
 349  -6709.224
 350  -6697.723
 351  -6509.535
 352  -6748.435
 353  -6507.938
 354  -6650.978
 355  -6584.901
 356  -6541.121
 357  -6573.872
 358  -6302.797
 359  -6668.221
 360  -6609.25
 361  -6584.796
 362  -6526.823
 363  -6357.708
 364  -6704.591
 365  -6803.259
 366  -6483.125
 367  -6588.966
 368  -6685.482
 369  -6639.264
 370  -6442.56
 371  -6755.977
 372  -6657.274
 373  -6282.462
 374  -6251.364
 375  -5921.009
 376  -5886.703
 377  -5877.245
 378  -5986.823
 379  -6207.373
 380  -5738.648
 381  -6462.525
 382  -6045.213
 383  -6202.572
 384  -6442.539
 385  -6475.069
 386  -6481.62
 387  -6532.191
 388  -6544.826
 389  -6804.573
 390  -6500.418
 391  -6516.154
 392  -6801.75
 393  -6946.026
 394  -6897.08
 395  -6599.826
 396  -6803.777
 397  -6649.071
 398  -6342.966
 399  -6817.5
 400  -6735.238
 401  -6756.949
 402  -6860.52
 403  -6540.831
 404  -6483.966
 405  -6688.953
 406  -6893.265
 407  -6621.406
 408  -6593.353
 409  -6642.911
 410  -6515.753
 411  -6381.96
 412  -6588.857
 413  -6772.189
 414  -6918.166
 415  -6590.298
 416  -6622.526
 417  -6543.579
 418  -6094.267
 419  -6140.446
 420  -6286.386
 421  -6218.381
 422  -6226.471
 423  -6201.197
 424  -6234.061
 425  -6278.978
 426  -6154.651
 427  -6327.823
 428  -6721.76
 429  -6739.959
 430  -6212.483
 431  -6186.175
 432  -6087.537
 433  -6134.1
 434  -5905.524
 435  -5969.705
 436  -6299.053
 437  -6179.896
 438  -6226.789
 439  -6255.216
 440  -6129.367
 441  -6098.713
 442  -5685.703
 443  -5960.15
 444  -6326.729
 445  -6425.915
 446  -6410.54
 447  -6354.812
 448  -6221.595
 449  -6430.049
 450  -6299.836
 451  -6472.112
 452  -6540.838
 453  -6601.738
 454  -6604.083
 455  -6738.947
 456  -6404.719
 457  -6046.167
 458  -6033.311
 459  -6278.631
 460  -6460.368
 461  -6450.397
 462  -6146.476
 463  -6257.355
 464  -6244.21
 465  -6331.528
 466  -6190.955
 467  -6290.318
 468  -6266.64
 469  -6555.703
 470  -6212.024
 471  -6269.104
 472  -6464.111
 473  -6237.095
 474  -6296.495
 475  -6293.748
 476  -6551.257
 477  -6450.053
 478  -6422.17
 479  -6603.319
 480  -6648.444
 481  -6780.887
 482  -6703.259
 483  -6526.629
 484  -6166.396
 485  -6381.77
 486  -6008.161
 487  -6121.919
 488  -6220.958
 489  -6385.523
 490  -6315.795
 491  -6112.892
 492  -6445.185
 493  -6495.897
 494  -6755.386
 495  -6848.416
 496  -6524.126
 497  -6371.808
 498  -6241.703
 499  -6162.741
 500  -6272.625
 501  -6259.706
 502  -6430.429
 503  -6733.532
 504  -6512.189
 505  -6543.497
 506  -6697.35
 507  -6579.19
 508  -6581.934
 509  -6241.946
 510  -6336.98
 511  -6491.671
