# Input file       =  1202035820.10998_cleaned.dat
# Candidate        =  PSR_0332+5434
# Telescope        =  AR
# Epoch_topo       =  58156.451841550697
# Epoch_bary       =  N/A
# T_sample         =  0.002
# Data Folded      =  7405568
# Data Avg         =  0.0204969317584497
# Data StdDev      =  1.00007319196922 
# Profile Bins     =  512
# Profile Avg      =  296.46574944047  
# Profile StdDev   =  120.275173559509 
# Reduced chi-sqr  =  1.435
# Prob(Noise)      <  3.58e-10   (~6.2 sigma)
# P_topo (ms)      =  714.578200515001  +/- 0.000297
# P'_topo (s/s)    =  -0                +/- 1.55e-10
# P''_topo (s/s^2) =  0                 +/- 6.79e-14
# P_bary (ms)      =  N/A
# P'_bary (s/s)    =  N/A
# P''_bary (s/s^2) =  N/A
# P_orb (s)        =  N/A
# asin(i)/c (s)    =  N/A
# eccentricity     =  N/A
# w (rad)          =  N/A
# T_peri           =  N/A
######################################################
   0  1021.222
   1  951.4261
   2  765.7341
   3  579.8478
   4  493.4941
   5  350.941
   6  261.8796
   7  341.2694
   8  322.8271
   9  266.6355
  10  310.1047
  11  404.1902
  12  435.9451
  13  411.4039
  14  468.7992
  15  467.6795
  16  390.676
  17  337.1563
  18  314.215
  19  341.5074
  20  265.4552
  21  318.1186
  22  407.4113
  23  324.8938
  24  212.9599
  25  288.6218
  26  133.0904
  27  124.4115
  28  233.358
  29  319.446
  30  302.253
  31  283.2247
  32  196.6176
  33  232.1621
  34  259.5882
  35  238.8118
  36  151.4038
  37  236.0582
  38  303.9492
  39  252.1787
  40  317.7963
  41  360.4169
  42  260.6497
  43  254.1867
  44  224.7048
  45  323.3755
  46  367.709
  47  305.5655
  48  274.943
  49  199.472
  50  134.9113
  51  68.89666
  52  149.7645
  53  140.3024
  54  267.3249
  55  372.088
  56  331.2291
  57  283.8052
  58  176.2019
  59  298.8076
  60  374.1819
  61  215.7461
  62  240.3295
  63  242.6363
  64  216.4801
  65  219.2017
  66  266.1113
  67  295.8238
  68  204.9024
  69  306.5867
  70  357.4311
  71  238.5128
  72  146.6063
  73  308.2006
  74  396.0614
  75  304.6341
  76  254.0614
  77  270.3703
  78  201.9441
  79  234.5816
  80  174.4342
  81  261.1536
  82  336.1782
  83  335.708
  84  301.5099
  85  250.5951
  86  312.8303
  87  322.5589
  88  244.0082
  89  381.8825
  90  309.8158
  91  227.7384
  92  292.7804
  93  235.0324
  94  201.2605
  95  263.378
  96  340.5662
  97  324.1964
  98  285.2386
  99  265.0768
 100  254.3502
 101  217.38
 102  273.331
 103  405.439
 104  246.5591
 105  199.3889
 106  273.0748
 107  269.0938
 108  212.3317
 109  344.4586
 110  379.6651
 111  219.2964
 112  212.1831
 113  216.2129
 114  318.5804
 115  311.0651
 116  313.8718
 117  399.5516
 118  320.3425
 119  318.9103
 120  275.6127
 121  184.3651
 122  323.2204
 123  299.6549
 124  179.3322
 125  285.4677
 126  383.2249
 127  440.8038
 128  426.0807
 129  393.3797
 130  374.5661
 131  336.9948
 132  222.744
 133  286.9062
 134  291.0936
 135  350.7116
 136  355.0017
 137  284.7883
 138  443.0934
 139  309.5471
 140  199.3699
 141  403.7794
 142  511.5882
 143  434.791
 144  333.6447
 145  363.0725
 146  408.5851
 147  274.8572
 148  437.9204
 149  465.47
 150  476.9855
 151  409.0474
 152  365.6738
 153  381.5192
 154  293.3393
 155  332.886
 156  348.8431
 157  391.3476
 158  314.84
 159  325.0513
 160  383.4998
 161  438.0647
 162  401.4933
 163  281.6328
 164  139.1269
 165  305.7094
 166  369.5717
 167  359.118
 168  334.6591
 169  360.093
 170  250.9817
 171  302.0878
 172  285.7778
 173  267.4103
 174  216.3403
 175  252.6263
 176  268.7172
 177  278.5198
 178  419.0805
 179  348.9221
 180  230.2282
 181  231.2146
 182  222.2431
 183  36.15498
 184  234.2409
 185  346.2805
 186  290.6493
 187  312.1704
 188  240.0658
 189  252.1442
 190  354.2639
 191  400.4291
 192  446.2406
 193  315.0168
 194  468.8952
 195  366.6559
 196  281.4299
 197  250.2462
 198  237.7898
 199  223.561
 200  201.8316
 201  341.6149
 202  229.1861
 203  189.5686
 204  226.4418
 205  269.2195
 206  328.7641
 207  228.2525
 208  185.3787
 209  267.5698
 210  339.9524
 211  296.6923
 212  331.3656
 213  323.927
 214  263.0459
 215  212.1167
 216  269.7042
 217  355.4545
 218  278.3036
 219  416.1397
 220  345.3677
 221  269.5794
 222  374.7414
 223  339.8286
 224  422.2223
 225  465.7435
 226  417.3569
 227  246.5148
 228  168.3558
 229  231.1315
 230  231.3638
 231  196.5962
 232  180.4708
 233  210.6777
 234  231.5997
 235  209.5859
 236  238.3334
 237  276.2038
 238  341.4416
 239  265.0505
 240  217.2766
 241  217.3383
 242  394.9165
 243  304.9355
 244  263.9305
 245  254.596
 246  291.2803
 247  224.5843
 248  190.4029
 249  237.8208
 250  257.501
 251  146.6598
 252  302.4125
 253  350.8243
 254  234.8989
 255  220.6351
 256  190.9316
 257  131.0594
 258  222.2015
 259  184.0647
 260  182.2816
 261  289.2039
 262  296.541
 263  337.4218
 264  294.9386
 265  330.7881
 266  399.1638
 267  386.3836
 268  370.9773
 269  361.6228
 270  355.5026
 271  394.674
 272  328.3838
 273  441.6731
 274  388.7765
 275  339.6311
 276  206.8929
 277  238.2434
 278  250.0388
 279  227.275
 280  324.8208
 281  352.3495
 282  298.6334
 283  311.6906
 284  374.3384
 285  357.8622
 286  355.8212
 287  381.4299
 288  406.4971
 289  332.1203
 290  371.8168
 291  372.5918
 292  240.6712
 293  410.5853
 294  355.9844
 295  342.4613
 296  357.5855
 297  329.5895
 298  357.645
 299  355.4413
 300  400.6925
 301  484.3291
 302  429.5158
 303  363.5223
 304  339.1616
 305  348.2448
 306  255.2942
 307  159.5143
 308  205.9305
 309  260.1591
 310  278.0473
 311  267.8882
 312  222.361
 313  187.0669
 314  175.0318
 315  208.6287
 316  105.6115
 317  107.0007
 318  130.7905
 319  209.8127
 320  251.3074
 321  393.6427
 322  295.2913
 323  308.3855
 324  392.8105
 325  242.9975
 326  350.8611
 327  345.6132
 328  269.4992
 329  345.6796
 330  387.5661
 331  280.6055
 332  276.1119
 333  395.1201
 334  205.7085
 335  227.8125
 336  308.4193
 337  256.79
 338  269.6204
 339  308.582
 340  269.5642
 341  177.8977
 342  237.2696
 343  209.3507
 344  137.6094
 345  301.4904
 346  304.27
 347  252.3061
 348  371.8016
 349  295.9694
 350  206.9331
 351  253.001
 352  199.0041
 353  240.6824
 354  238.6077
 355  264.6678
 356  211.7535
 357  236.9484
 358  285.0776
 359  234.1426
 360  472.3677
 361  378.5845
 362  219.9218
 363  193.4151
 364  92.467
 365  182.2799
 366  349.5456
 367  337.1382
 368  258.7032
 369  254.061
 370  276.0757
 371  242.7609
 372  169.1372
 373  340.2668
 374  366.3218
 375  278.558
 376  270.8336
 377  155.0684
 378  125.6273
 379  353.9809
 380  296.1081
 381  245.9715
 382  315.7292
 383  296.3531
 384  249.4998
 385  292.4069
 386  394.6807
 387  370.434
 388  222.7081
 389  323.7412
 390  175.9384
 391  284.229
 392  357.4184
 393  272.1192
 394  381.9336
 395  337.9987
 396  345.1813
 397  272.014
 398  204.6344
 399  235.3225
 400  158.6376
 401  244.1175
 402  319.3111
 403  219.677
 404  300.2673
 405  248.7775
 406  213.1133
 407  319.9871
 408  343.392
 409  309.0402
 410  344.3494
 411  312.2606
 412  250.346
 413  267.4958
 414  246.6519
 415  264.7815
 416  200.6576
 417  355.4216
 418  404.1852
 419  410.2678
 420  307.4171
 421  305.0094
 422  416.7608
 423  345.4759
 424  216.4628
 425  243.572
 426  387.7725
 427  196.491
 428  163.0876
 429  144.6059
 430  258.399
 431  260.8404
 432  237.1638
 433  202.9394
 434  267.6398
 435  294.9174
 436  243.7649
 437  258.2929
 438  284.9303
 439  178.6706
 440  130.2882
 441  198.6328
 442  232.4463
 443  152.1383
 444  221.6454
 445  242.3394
 446  154.4479
 447  266.2659
 448  305.8413
 449  313.8304
 450  324.7461
 451  233.6968
 452  250.9223
 453  197.0655
 454  255.2892
 455  315.7521
 456  218.4329
 457  182.9079
 458  346.1843
 459  282.8058
 460  153.4798
 461  264.3114
 462  270.4933
 463  242.9086
 464  259.7748
 465  260.0355
 466  145.333
 467  102.3161
 468  313.4886
 469  435.4918
 470  250.0391
 471  188.1171
 472  237.2305
 473  246.0501
 474  258.6617
 475  239.6027
 476  270.1844
 477  160.2886
 478  364.5932
 479  308.6462
 480  385.7298
 481  374.8716
 482  224.6213
 483  268.5436
 484  374.6771
 485  327.012
 486  232.4619
 487  214.8174
 488  358.8133
 489  334.0346
 490  187.1149
 491  327.3133
 492  397.7881
 493  382.3374
 494  331.0706
 495  353.4459
 496  351.6989
 497  251.5416
 498  234.2572
 499  248.5444
 500  176.8058
 501  223.4631
 502  348.4626
 503  374.4713
 504  420.5368
 505  528.528
 506  383.1416
 507  375.2482
 508  559.0325
 509  789.0239
 510  883.7708
 511  966.2776
