# Input file       =  1202409950.12076_cleaned.dat
# Candidate        =  PSR_0332+5434
# Telescope        =  AR
# Epoch_topo       =  58160.782050008798
# Epoch_bary       =  N/A
# T_sample         =  0.002
# Data Folded      =  7340032
# Data Avg         =  0.0136323499899577
# Data StdDev      =  1.00003812290675 
# Profile Bins     =  512
# Profile Avg      =  195.31811172392  
# Profile StdDev   =  119.737600948147 
# Reduced chi-sqr  =  1.201
# Prob(Noise)      <  0.00121   (~3.0 sigma)
# P_topo (ms)      =  714.579709926225  +/- 0.00032
# P'_topo (s/s)    =  -0                +/- 1.69e-10
# P''_topo (s/s^2) =  0                 +/- 7.44e-14
# P_bary (ms)      =  N/A
# P'_bary (s/s)    =  N/A
# P''_bary (s/s^2) =  N/A
# P_orb (s)        =  N/A
# asin(i)/c (s)    =  N/A
# eccentricity     =  N/A
# w (rad)          =  N/A
# T_peri           =  N/A
######################################################
   0  163.0381
   1  204.0823
   2  281.878
   3  315.1908
   4  173.9232
   5  176.4794
   6  310.572
   7  309.1553
   8  271.1431
   9  241.315
  10  216.2074
  11  379.151
  12  329.6583
  13  273.4579
  14  230.3601
  15  169.0411
  16  145.5631
  17  121.8665
  18  110.1727
  19  45.15581
  20  189.0946
  21  290.7036
  22  167.2106
  23  108.3394
  24  137.885
  25  191.625
  26  238.2185
  27  228.2176
  28  159.2719
  29  276.0511
  30  289.6332
  31  266.7452
  32  184.7041
  33  139.0313
  34  226.0073
  35  237.1552
  36  270.0461
  37  284.2662
  38  293.9856
  39  265.6425
  40  170.0727
  41  118.6138
  42  111.3527
  43  145.3941
  44  302.5605
  45  311.6721
  46  295.2776
  47  281.3806
  48  238.9407
  49  199.664
  50  202.798
  51  210.7524
  52  190.329
  53  171.491
  54  165.0785
  55  205.2779
  56  271.2386
  57  290.3622
  58  355.0844
  59  376.1271
  60  217.6282
  61  146.5207
  62  149.2289
  63  286.7817
  64  172.8599
  65  174.8138
  66  299.9964
  67  169.6634
  68  124.8548
  69  207.367
  70  371.5365
  71  408.0251
  72  164.4777
  73  162.1971
  74  413.1733
  75  733.4958
  76  896.6743
  77  871.5793
  78  691.2687
  79  541.7267
  80  451.5904
  81  275.9677
  82  81.26787
  83  231.1815
  84  238.7575
  85  145.7188
  86  122.8971
  87  208.3999
  88  178.6092
  89  139.0937
  90  209.4438
  91  177.7179
  92  300.1283
  93  355.0512
  94  259.0118
  95  244.6572
  96  216.9
  97  152.5039
  98  193.9836
  99  182.3693
 100  282.6514
 101  160.7863
 102  198.3898
 103  183.5664
 104  161.5314
 105  79.94529
 106  183.9851
 107  305.0727
 108  323.8745
 109  208.1046
 110  189.814
 111  143.3672
 112  28.78105
 113  45.4029
 114  201.1971
 115  281.8063
 116  166.2251
 117  179.9658
 118  185.2316
 119  164.4136
 120  295.8046
 121  188.893
 122  160.4598
 123  183.3005
 124  288.0025
 125  151.5094
 126  163.1122
 127  234.2145
 128  262.4012
 129  283.5862
 130  251.9591
 131  98.88065
 132  64.45363
 133  71.25855
 134  101.7836
 135  219.2669
 136  295.9499
 137  206.978
 138  139.212
 139  80.42686
 140  117.6186
 141  144.1593
 142  153.2788
 143  167.3087
 144  73.16043
 145  161.8631
 146  130.2875
 147  205.9353
 148  158.6273
 149  204.5088
 150  173.1609
 151  159.6295
 152  201.4004
 153  190.5736
 154  205.8225
 155  252.7894
 156  272.0945
 157  204.7041
 158  89.3038
 159  138.2202
 160  196.306
 161  212.2604
 162  166.9483
 163  245.0751
 164  156.0919
 165  171.202
 166  162.6833
 167  91.8777
 168  202.5468
 169  194.0948
 170  184.428
 171  120.0805
 172  166.1297
 173  189.0401
 174  197.483
 175  278.1545
 176  211.0145
 177  234.8292
 178  214.334
 179  260.2293
 180  112.0192
 181  56.99866
 182  29.37776
 183  137.6163
 184  223.1834
 185  138.7726
 186  104.9189
 187  145.806
 188  229.4211
 189  153.0549
 190  157.9619
 191  208.8559
 192  210.7394
 193  259.93
 194  231.2305
 195  227.7161
 196  174.7412
 197  147.0086
 198  225.6852
 199  272.9373
 200  209.2334
 201  90.08585
 202  190.9663
 203  242.9724
 204  150.1776
 205  71.74082
 206  146.3714
 207  65.4615
 208  121.521
 209  218.2088
 210  175.2634
 211  167.0914
 212  228.9335
 213  279.6862
 214  330.256
 215  286.9951
 216  156.6514
 217  228.5821
 218  139.617
 219  151.7105
 220  152.1177
 221  143.2634
 222  278.5188
 223  171.0557
 224  234.4643
 225  286.7491
 226  135.4025
 227  231.1598
 228  251.5362
 229  242.0796
 230  202.4113
 231  196.655
 232  188.6459
 233  190.6987
 234  74.51582
 235  108.2965
 236  145.4916
 237  217.8472
 238  178.2607
 239  100.2983
 240  79.19032
 241  117.948
 242  181.5916
 243  79.58215
 244  -0.04960675
 245  75.53024
 246  104.1319
 247  289.6082
 248  181.1178
 249  170.5926
 250  125.9016
 251  147.0887
 252  195.4837
 253  98.32442
 254  -27.71886
 255  57.87924
 256  141.6111
 257  32.63688
 258  110.8142
 259  184.9341
 260  223.7677
 261  202.8637
 262  275.2935
 263  172.604
 264  93.75354
 265  110.9654
 266  181.4778
 267  134.5598
 268  107.4243
 269  116.445
 270  48.94004
 271  163.1281
 272  144.6216
 273  30.24877
 274  58.74105
 275  240.7726
 276  222.3133
 277  219.5251
 278  108.5926
 279  57.34407
 280  111.6941
 281  142.3194
 282  75.07318
 283  96.24352
 284  265.1611
 285  265.6094
 286  215.8419
 287  147.5011
 288  214.5489
 289  262.3516
 290  295.758
 291  211.1187
 292  177.3976
 293  117.3049
 294  163.5528
 295  226.6117
 296  89.32272
 297  103.2467
 298  39.79211
 299  90.9721
 300  71.7254
 301  9.270604
 302  133.6888
 303  98.25495
 304  29.91974
 305  191.311
 306  254.4348
 307  262.8908
 308  249.6521
 309  220.0589
 310  146.0114
 311  180.508
 312  258.4857
 313  196.655
 314  67.61891
 315  143.2018
 316  136.8279
 317  109.7738
 318  215.6496
 319  313.4753
 320  75.27203
 321  105.765
 322  83.41852
 323  169.4431
 324  276.0137
 325  245.8059
 326  202.8686
 327  255.2981
 328  211.0747
 329  23.14168
 330  70.58228
 331  267.5983
 332  331.2088
 333  315.5636
 334  291.1874
 335  393.0853
 336  172.8036
 337  152.8972
 338  184.6305
 339  326.4204
 340  330.2278
 341  204.3439
 342  237.3603
 343  167.29
 344  227.4268
 345  261.217
 346  231.9844
 347  208.7887
 348  73.78039
 349  140.8315
 350  241.9922
 351  350.4144
 352  318.9556
 353  131.8764
 354  225.8832
 355  169.4167
 356  128.1629
 357  65.02142
 358  189.1297
 359  197.9296
 360  357.1029
 361  147.3803
 362  69.81714
 363  117.4196
 364  150.2533
 365  160.0208
 366  156.3002
 367  189.453
 368  134.9841
 369  164.1104
 370  167.2175
 371  183.6744
 372  76.20853
 373  167.4384
 374  124.2544
 375  152.12
 376  195.689
 377  220.9405
 378  320.0677
 379  345.2349
 380  316.1316
 381  277.5612
 382  270.4599
 383  211.1509
 384  222.272
 385  196.6307
 386  282.4436
 387  180.3905
 388  66.52129
 389  146.403
 390  186.3594
 391  214.8986
 392  122.0036
 393  100.0479
 394  184.2281
 395  293.0064
 396  320.6717
 397  252.8321
 398  130.16
 399  141.8752
 400  289.7906
 401  224.6443
 402  183.0625
 403  181.4408
 404  267.7866
 405  215.6825
 406  160.0506
 407  208.7251
 408  269.5703
 409  254.6632
 410  170.8928
 411  191.6976
 412  295.1259
 413  355.6174
 414  140.3856
 415  78.09699
 416  60.97616
 417  101.5493
 418  140.8973
 419  107.184
 420  164.0149
 421  62.89516
 422  96.44142
 423  254.1548
 424  160.2912
 425  97.7909
 426  192.8083
 427  216.5985
 428  238.8665
 429  194.0257
 430  210.1805
 431  187.1244
 432  222.1238
 433  346.7604
 434  355.3386
 435  394.3227
 436  252.6613
 437  144.0233
 438  273.6005
 439  209.3803
 440  154.8708
 441  49.13924
 442  70.30653
 443  221.3502
 444  109.9395
 445  106.2691
 446  102.4148
 447  51.27797
 448  97.47691
 449  189.9261
 450  123.4655
 451  120.154
 452  149.3674
 453  207.0398
 454  128.7273
 455  109.0537
 456  170.4932
 457  224.805
 458  173.7319
 459  146.6456
 460  185.653
 461  70.11281
 462  158.0823
 463  193.9855
 464  250.493
 465  241.5698
 466  241.3907
 467  215.3535
 468  238.4233
 469  190.81
 470  136.4286
 471  214.8694
 472  217.6315
 473  329.1346
 474  148.612
 475  215.4417
 476  266.3439
 477  312.3917
 478  329.1419
 479  253.899
 480  237.7763
 481  305.1019
 482  206.889
 483  188.1739
 484  260.1699
 485  232.7966
 486  180.7992
 487  352.9053
 488  238.3762
 489  241.8767
 490  215.4571
 491  173.4436
 492  254.3458
 493  169.8992
 494  145.0218
 495  131.3777
 496  97.98227
 497  162.4384
 498  101.6853
 499  28.13406
 500  119.5369
 501  245.8203
 502  256.9153
 503  158.7867
 504  282.83
 505  240.0796
 506  133.2581
 507  152.0182
 508  218.1434
 509  199.4942
 510  174.758
 511  179.2307
