# Input file       =  1202496185.116841_cleaned.dat
# Candidate        =  PSR_0332+5434
# Telescope        =  AR
# Epoch_topo       =  58161.780140241215
# Epoch_bary       =  N/A
# T_sample         =  0.002
# Data Folded      =  7340032
# Data Avg         =  0.0152707434832579
# Data StdDev      =  1.00005643129297 
# Profile Bins     =  512
# Profile Avg      =  218.875237164679 
# Profile StdDev   =  119.73979306682  
# Reduced chi-sqr  =  1.188
# Prob(Noise)      <  0.00219   (~2.8 sigma)
# P_topo (ms)      =  714.579928778074  +/- 0.000174
# P'_topo (s/s)    =  -0                +/- 9.16e-11
# P''_topo (s/s^2) =  0                 +/- 4.04e-14
# P_bary (ms)      =  N/A
# P'_bary (s/s)    =  N/A
# P''_bary (s/s^2) =  N/A
# P_orb (s)        =  N/A
# asin(i)/c (s)    =  N/A
# eccentricity     =  N/A
# w (rad)          =  N/A
# T_peri           =  N/A
######################################################
   0  789.1724
   1  762.5506
   2  663.4147
   3  432.2212
   4  335.1303
   5  152.5413
   6  178.8851
   7  314.7708
   8  375.0345
   9  297.0187
  10  272.0193
  11  242.8174
  12  254.2546
  13  180.764
  14  202.4532
  15  327.9302
  16  353.4707
  17  360.4728
  18  313.3105
  19  233.4215
  20  195.2072
  21  160.8339
  22  247.0899
  23  249.6465
  24  226.4528
  25  250.4563
  26  184.2393
  27  188.9909
  28  293.5726
  29  353.8178
  30  263.5307
  31  245.865
  32  240.6656
  33  365.8842
  34  238.4301
  35  193.3382
  36  223.9992
  37  249.4705
  38  239.773
  39  235.1645
  40  289.1404
  41  136.6824
  42  166.1739
  43  152.8778
  44  185.0913
  45  110.838
  46  -7.13709
  47  79.30871
  48  157.2836
  49  215.4898
  50  136.587
  51  124.9629
  52  279.6257
  53  256.6201
  54  345.262
  55  252.7773
  56  208.2005
  57  125.5347
  58  240.6948
  59  178.173
  60  229.2854
  61  224.0227
  62  162.8388
  63  200.8998
  64  183.1272
  65  232.7813
  66  195.4951
  67  183.1837
  68  195.0029
  69  234.5525
  70  277.626
  71  245.6633
  72  233.7629
  73  190.638
  74  122.0468
  75  201.4979
  76  107.3622
  77  183.8559
  78  181.9064
  79  144.8487
  80  258.313
  81  315.2263
  82  297.162
  83  138.7662
  84  91.58244
  85  97.86845
  86  104.6536
  87  218.0856
  88  190.0887
  89  315.6725
  90  211.8648
  91  191.7562
  92  106.1888
  93  149.4211
  94  193.6505
  95  264.5932
  96  244.5873
  97  276.981
  98  274.1904
  99  145.7462
 100  118.2014
 101  298.2755
 102  366.1534
 103  145.872
 104  168.5387
 105  80.65346
 106  162.4984
 107  212.9901
 108  203.6717
 109  203.3509
 110  215.966
 111  213.2369
 112  125.9528
 113  145.5609
 114  363.8812
 115  397.1838
 116  279.4625
 117  318.2291
 118  185.4166
 119  118.2326
 120  16.37691
 121  35.22718
 122  118.569
 123  161.659
 124  113.5905
 125  187.7436
 126  221.8642
 127  276.203
 128  182.0538
 129  289.2073
 130  216.7098
 131  171.6397
 132  167.3292
 133  208.9118
 134  157.0589
 135  163.6172
 136  226.355
 137  171.9954
 138  191.5515
 139  191.6247
 140  181.1081
 141  154.3315
 142  39.30701
 143  138.0483
 144  188.4905
 145  208.9444
 146  139.9975
 147  253.5198
 148  300.6573
 149  219.7771
 150  210.9236
 151  117.7113
 152  240.6477
 153  123.8071
 154  174.1039
 155  210.3244
 156  133.2184
 157  178.0794
 158  162.3026
 159  191.4568
 160  309.7461
 161  184.2631
 162  139.2525
 163  161.3958
 164  229.5705
 165  160.0939
 166  191.0316
 167  251.1094
 168  332.9137
 169  327.4008
 170  185.3128
 171  280.1439
 172  260.1799
 173  216.9292
 174  186.9869
 175  163.046
 176  242.3189
 177  143.6295
 178  94.50261
 179  119.8037
 180  125.7137
 181  280.1158
 182  302.7046
 183  266.6418
 184  286.975
 185  204.6735
 186  248.1024
 187  201.4978
 188  110.8999
 189  263.4552
 190  361.2365
 191  390.49
 192  447.7976
 193  378.3839
 194  376.766
 195  274.7159
 196  220.8455
 197  190.9083
 198  245.1437
 199  192.6658
 200  295.652
 201  359.9753
 202  351.2687
 203  271.166
 204  234.317
 205  261.8274
 206  374.4395
 207  299.5829
 208  397.3452
 209  397.426
 210  310.0894
 211  271.2622
 212  117.3578
 213  97.93216
 214  171.2168
 215  191.0159
 216  258.1596
 217  275.8555
 218  264.0817
 219  335.6329
 220  358.9114
 221  221.7473
 222  367.122
 223  358.2946
 224  242.4426
 225  284.3668
 226  276.4421
 227  347.3906
 228  320.8825
 229  301.8377
 230  314.6952
 231  180.3075
 232  137.4184
 233  238.6486
 234  238.6873
 235  345.5437
 236  351.8228
 237  132.6882
 238  165.7837
 239  153.4446
 240  157.5348
 241  165.2372
 242  244.0735
 243  249.5648
 244  188.5418
 245  192.5657
 246  201.8073
 247  322.8832
 248  244.6115
 249  254.7364
 250  177.5455
 251  230.3372
 252  212.8509
 253  144.1042
 254  78.78249
 255  116.6873
 256  107.73
 257  94.90023
 258  191.1496
 259  261.8686
 260  366.4523
 261  315.6647
 262  108.7428
 263  42.73329
 264  148.8669
 265  147.8029
 266  47.83448
 267  118.6129
 268  120.0721
 269  209.3968
 270  282.7085
 271  171.4338
 272  85.17191
 273  94.13997
 274  97.65633
 275  201.7123
 276  292.5483
 277  102.815
 278  242.7055
 279  343.4976
 280  216.9119
 281  224.0213
 282  339.1095
 283  177.2745
 284  -1.363621
 285  57.90713
 286  168.3979
 287  181.6463
 288  307.4716
 289  341.902
 290  172.5078
 291  139.7989
 292  301.0205
 293  370.9746
 294  307.521
 295  230.392
 296  301.1166
 297  337.1213
 298  376.5341
 299  304.5399
 300  265.7443
 301  172.1456
 302  205.3499
 303  147.4413
 304  263.5993
 305  113.3537
 306  86.67268
 307  136.4205
 308  107.4872
 309  159.5097
 310  197.6226
 311  232.1505
 312  239.567
 313  211.545
 314  241.4399
 315  202.0315
 316  166.5149
 317  196.8212
 318  174.0169
 319  111.256
 320  186.7248
 321  258.3908
 322  149.8905
 323  116.1579
 324  151.4698
 325  107.8826
 326  152.4747
 327  271.5108
 328  285.9185
 329  197.716
 330  176.8154
 331  338.0204
 332  124.5617
 333  75.42642
 334  225.4363
 335  326.1154
 336  321.1205
 337  190.8716
 338  195.213
 339  243.2209
 340  177.5311
 341  203.4812
 342  193.8754
 343  139.9802
 344  241.1007
 345  249.9999
 346  229.6213
 347  177.1378
 348  78.5646
 349  130.7789
 350  112.1233
 351  175.4148
 352  94.03255
 353  110.2517
 354  155.8468
 355  133.948
 356  212.044
 357  255.6044
 358  174.73
 359  151.3719
 360  186.6976
 361  154.5863
 362  214.7034
 363  222.0552
 364  80.27863
 365  183.7697
 366  225.3597
 367  193.982
 368  245.0252
 369  195.6111
 370  154.6208
 371  210.1393
 372  256.5295
 373  192.5698
 374  148.3761
 375  247.5339
 376  177.3732
 377  214.5056
 378  348.8303
 379  227.8885
 380  201.6601
 381  304.8773
 382  229.6281
 383  231.6089
 384  178.353
 385  183.3605
 386  282.949
 387  237.7923
 388  221.972
 389  163.8932
 390  103.0575
 391  232.9871
 392  367.6142
 393  343.7504
 394  302.7534
 395  214.6803
 396  289.3872
 397  240.474
 398  253.1795
 399  227.2393
 400  302.35
 401  156.4777
 402  129.8797
 403  125.7769
 404  135.3372
 405  114.9449
 406  184.6125
 407  261.1277
 408  232.2909
 409  161.5674
 410  318.2418
 411  288.5789
 412  252.5064
 413  241.1713
 414  198.9155
 415  201.2618
 416  257.1442
 417  158.5203
 418  192.1236
 419  260.6386
 420  204.8517
 421  227.8657
 422  158.3839
 423  226.8745
 424  242.7326
 425  85.80663
 426  168.7675
 427  204.7749
 428  94.61599
 429  176.6477
 430  257.1127
 431  253.0586
 432  130.5427
 433  -11.77716
 434  71.36758
 435  139.0946
 436  225.1453
 437  292.7961
 438  279.8627
 439  293.8709
 440  288.4622
 441  242.7294
 442  138.453
 443  230.7458
 444  278.0274
 445  322.1478
 446  258.0185
 447  300.6114
 448  84.64146
 449  26.22866
 450  224.5604
 451  306.766
 452  271.5132
 453  252.0366
 454  147.3857
 455  171.4173
 456  195.4029
 457  151.4291
 458  186.7963
 459  330.1192
 460  433.8577
 461  329.4384
 462  340.7703
 463  245.0693
 464  117.6024
 465  79.3139
 466  144.7262
 467  221.4134
 468  156.0575
 469  164.9003
 470  127.2987
 471  171.3836
 472  45.48956
 473  67.26702
 474  119.8397
 475  109.6389
 476  66.08159
 477  179.484
 478  166.7344
 479  247.4065
 480  294.169
 481  233.9115
 482  278.5458
 483  308.3549
 484  253.4068
 485  305.006
 486  253.1041
 487  294.1826
 488  126.5121
 489  247.3995
 490  238.3566
 491  187.6794
 492  207.0744
 493  144.8933
 494  157.97
 495  212.2533
 496  164.0475
 497  157.4112
 498  192.9068
 499  179.7927
 500  336.7037
 501  295.4749
 502  179.028
 503  310.5293
 504  385.6993
 505  250.8453
 506  245.7628
 507  167.251
 508  185.9608
 509  429.8652
 510  684.4749
 511  748.9337
