# Input file       =  1202121883.110952_cleaned.dat
# Candidate        =  PSR_0332+5434
# Telescope        =  AR
# Epoch_topo       =  58157.447941098981
# Epoch_bary       =  N/A
# T_sample         =  0.002
# Data Folded      =  7143424
# Data Avg         =  0.0168355628662588
# Data StdDev      =  1.00012195319797 
# Profile Bins     =  512
# Profile Avg      =  234.871854248668 
# Profile StdDev   =  118.132989420985 
# Reduced chi-sqr  =  1.724
# Prob(Noise)      <  4.22e-22   (~9.6 sigma)
# P_topo (ms)      =  714.578498194975  +/- 0.000144
# P'_topo (s/s)    =  -0                +/- 7.79e-11
# P''_topo (s/s^2) =  0                 +/- 3.53e-14
# P_bary (ms)      =  N/A
# P'_bary (s/s)    =  N/A
# P''_bary (s/s^2) =  N/A
# P_orb (s)        =  N/A
# asin(i)/c (s)    =  N/A
# eccentricity     =  N/A
# w (rad)          =  N/A
# T_peri           =  N/A
######################################################
   0  176.0805
   1  182.8956
   2  204.7867
   3  297.8991
   4  263.29
   5  270.0249
   6  239.721
   7  147.3654
   8  76.55349
   9  132.6872
  10  245.4243
  11  328.0695
  12  249.2434
  13  29.94687
  14  12.63648
  15  158.5908
  16  212.5804
  17  191.1337
  18  196.3726
  19  128.0319
  20  194.831
  21  211.0446
  22  250.4146
  23  227.1266
  24  208.9443
  25  228.0992
  26  258.3151
  27  305.7261
  28  273.0265
  29  268.1784
  30  284.5115
  31  245.2581
  32  352.917
  33  474.0447
  34  238.3166
  35  197.3667
  36  319.394
  37  285.5038
  38  319.0555
  39  265.9833
  40  261.4377
  41  217.7655
  42  341.9159
  43  364.3723
  44  245.05
  45  275.2353
  46  267.5184
  47  174.2549
  48  106.7481
  49  116.643
  50  278.1809
  51  364.3267
  52  421.0875
  53  352.9555
  54  167.3403
  55  188.2257
  56  198.6644
  57  220.4465
  58  174.0756
  59  175.7448
  60  194.056
  61  197.0245
  62  184.9328
  63  204.8658
  64  216.1687
  65  192.3743
  66  207.1888
  67  282.9749
  68  237.1148
  69  245.299
  70  188.6395
  71  172.2865
  72  196.1568
  73  175.6057
  74  203.7613
  75  304.3538
  76  286.1382
  77  390.5269
  78  293.5127
  79  215.2399
  80  198.5102
  81  87.25862
  82  139.3786
  83  290.1053
  84  306.0421
  85  313.5912
  86  214.5686
  87  152.2611
  88  279.0171
  89  248.8653
  90  245.9075
  91  147.3724
  92  120.6361
  93  305.6071
  94  399.7248
  95  306.7073
  96  237.8573
  97  200.0366
  98  195.1535
  99  247.039
 100  372.69
 101  302.1476
 102  425.2805
 103  410.5449
 104  313.3072
 105  249.1235
 106  313.933
 107  345.2766
 108  368.1378
 109  242.6166
 110  304.3823
 111  330.5142
 112  252.2357
 113  183.4342
 114  190.3042
 115  289.1177
 116  280.3387
 117  391.8485
 118  430.8744
 119  340.7415
 120  263.8977
 121  213.1044
 122  240.7234
 123  226.0349
 124  366.2882
 125  422.3138
 126  301.7272
 127  262.7644
 128  313.4689
 129  300.5423
 130  306.5299
 131  306.1607
 132  370.8225
 133  331.9966
 134  227.2838
 135  315.2236
 136  453.3142
 137  293.2841
 138  211.1037
 139  257.0878
 140  287.1155
 141  355.0657
 142  338.4797
 143  308.2664
 144  337.7346
 145  281.1924
 146  376.8121
 147  343.939
 148  280.2227
 149  279.1347
 150  332.7798
 151  318.6055
 152  419.8282
 153  587.4937
 154  598.5623
 155  720.4484
 156  907.2042
 157  962.005
 158  1023.468
 159  903.4084
 160  611.6119
 161  387.4098
 162  194.2435
 163  200.1027
 164  60.99036
 165  70.7542
 166  212.7059
 167  243.8853
 168  241.5938
 169  332.8599
 170  379.2937
 171  301.0089
 172  224.4766
 173  280.1111
 174  272.1446
 175  263.8458
 176  375.7497
 177  266.8582
 178  214.925
 179  244.6306
 180  185.2728
 181  206.3411
 182  346.5223
 183  397.937
 184  290.522
 185  219.8718
 186  206.5049
 187  116.0347
 188  255.5658
 189  317.1562
 190  265.0136
 191  149.9088
 192  261.2321
 193  292.5923
 194  123.2551
 195  77.07732
 196  146.7677
 197  187.7396
 198  225.4615
 199  214.4513
 200  253.3212
 201  369.4904
 202  324.2956
 203  161.4863
 204  207.3975
 205  143.8383
 206  -1.22734
 207  101.1232
 208  246.1247
 209  340.9958
 210  241.3644
 211  195.1831
 212  217.833
 213  156.0755
 214  316.3063
 215  309.8532
 216  243.1196
 217  372.2449
 218  361.9599
 219  281.8408
 220  171.1205
 221  119.0247
 222  108.9217
 223  146.7114
 224  199.5061
 225  264.6949
 226  218.4514
 227  177.7149
 228  179.8846
 229  194.6222
 230  253.9026
 231  288.1769
 232  216.5938
 233  237.7498
 234  309.4407
 235  324.1276
 236  322.764
 237  287.0859
 238  200.4743
 239  195.6306
 240  291.3773
 241  348.9575
 242  367.2797
 243  393.1853
 244  311.874
 245  149.1001
 246  98.0759
 247  150.9058
 248  186.4478
 249  397.5684
 250  473.4877
 251  489.7548
 252  205.5095
 253  240.0724
 254  263.5196
 255  312.491
 256  352.1723
 257  305.2097
 258  178.7688
 259  144.8236
 260  152.9286
 261  188.3132
 262  61.31635
 263  202.8327
 264  183.8967
 265  205.6713
 266  273.2061
 267  89.26402
 268  151.9204
 269  197.1214
 270  186.0373
 271  324.8919
 272  330.5827
 273  178.9045
 274  71.53551
 275  161.877
 276  188.3476
 277  244.951
 278  237.8927
 279  148.1485
 280  255.4532
 281  358.1942
 282  316.3013
 283  253.2317
 284  273.4675
 285  122.3766
 286  226.77
 287  285.1087
 288  219.6324
 289  118.0715
 290  86.81573
 291  142.0732
 292  208.0318
 293  283.823
 294  133.4163
 295  100.3636
 296  13.91298
 297  -5.527609
 298  138.123
 299  233.0596
 300  221.5081
 301  101.1255
 302  129.0358
 303  159.7749
 304  178.9832
 305  132.9616
 306  156.2547
 307  178.0999
 308  238.7533
 309  290.4196
 310  265.548
 311  239.3548
 312  87.97502
 313  129.7624
 314  235.0307
 315  264.8388
 316  149.7828
 317  141.7137
 318  145.8966
 319  240.6664
 320  233.3051
 321  193.9088
 322  93.33562
 323  11.20921
 324  117.2667
 325  112.3877
 326  207.2387
 327  265.6903
 328  264.4015
 329  99.41421
 330  117.9081
 331  308.1158
 332  206.2003
 333  270.5607
 334  259.7492
 335  219.1418
 336  266.1573
 337  157.925
 338  69.97115
 339  137.9906
 340  146.9534
 341  39.60171
 342  129.6215
 343  244.3875
 344  211.8494
 345  217.3871
 346  217.5424
 347  336.9477
 348  199.9603
 349  209.8804
 350  148.3955
 351  173.7176
 352  314.7517
 353  275.1642
 354  99.76519
 355  66.54324
 356  108.295
 357  195.8124
 358  94.67607
 359  214.4544
 360  237.673
 361  47.34735
 362  39.69028
 363  -9.669504
 364  148.2659
 365  319.552
 366  258.9367
 367  191.3157
 368  86.80527
 369  114.7662
 370  187.8787
 371  212.4402
 372  214.155
 373  192.23
 374  169.8599
 375  188.9556
 376  125.7578
 377  191.5126
 378  166.3414
 379  6.799033
 380  119.4226
 381  172.4774
 382  187.6687
 383  120.8959
 384  177.211
 385  141.148
 386  182.5124
 387  251.4651
 388  274.4932
 389  273.151
 390  185.9218
 391  140.0083
 392  124.1844
 393  205.7156
 394  355.2294
 395  309.1858
 396  151.1778
 397  83.65318
 398  66.7185
 399  139.518
 400  200.5352
 401  222.7476
 402  196.9932
 403  298.5508
 404  207.0328
 405  99.93844
 406  170.0478
 407  194.4268
 408  130.5491
 409  114.2622
 410  204.6531
 411  347.0959
 412  228.4315
 413  158.4401
 414  297.0465
 415  318.8383
 416  239.0026
 417  204.1408
 418  71.98157
 419  64.8705
 420  63.73259
 421  206.5066
 422  201.8918
 423  192.766
 424  218.5365
 425  98.38545
 426  194.0516
 427  204.1056
 428  264.7873
 429  238.5167
 430  263.163
 431  299.5303
 432  272.7906
 433  235.81
 434  186.1517
 435  215.7545
 436  254.6984
 437  243.3033
 438  217.5966
 439  284.9189
 440  231.6951
 441  194.2081
 442  243.7926
 443  117.0538
 444  192.8886
 445  322.6598
 446  184.6491
 447  108.223
 448  311.5777
 449  245.1696
 450  248.0177
 451  195.282
 452  282.5811
 453  299.1541
 454  252.672
 455  214.6474
 456  255.5113
 457  205.8166
 458  262.9807
 459  153.0502
 460  165.6891
 461  138.6403
 462  247.6461
 463  315.7841
 464  281.589
 465  194.7505
 466  272.2551
 467  355.899
 468  316.1005
 469  347.6791
 470  295.2493
 471  235.1239
 472  172.3482
 473  178.7174
 474  260.8434
 475  226.2212
 476  237.2334
 477  150.5444
 478  197.3158
 479  273.2979
 480  436.4193
 481  371.9364
 482  428.5642
 483  315.784
 484  119.8822
 485  215.9746
 486  151.1355
 487  135.981
 488  237.7432
 489  195.1175
 490  134.4004
 491  105.0126
 492  199.6094
 493  230.5397
 494  199.1929
 495  283.7893
 496  320.6573
 497  190.9482
 498  185.7645
 499  252.6354
 500  190.1606
 501  162.4604
 502  51.21454
 503  165.6054
 504  243.1146
 505  218.12
 506  247.7671
 507  221.7039
 508  226.2803
 509  206.3039
 510  154.0703
 511  151.8171
