# Input file       =  1202582396.27699_cleaned.dat
# Candidate        =  PSR_0332+5434
# Telescope        =  AR
# Epoch_topo       =  58162.777954594792
# Epoch_bary       =  N/A
# T_sample         =  0.002
# Data Folded      =  7340032
# Data Avg         =  0.179984509169507
# Data StdDev      =  3.52854908861911 
# Profile Bins     =  256
# Profile Avg      =  5160.06053318737 
# Profile StdDev   =  597.482456151665 
# Reduced chi-sqr  =  1.260
# Prob(Noise)      <  0.00302   (~2.7 sigma)
# P_topo (ms)      =  714.580130253664  +/- 0.000624
# P'_topo (s/s)    =  -0                +/- 3.29e-10
# P''_topo (s/s^2) =  0                 +/- 1.45e-13
# P_bary (ms)      =  N/A
# P'_bary (s/s)    =  N/A
# P''_bary (s/s^2) =  N/A
# P_orb (s)        =  N/A
# asin(i)/c (s)    =  N/A
# eccentricity     =  N/A
# w (rad)          =  N/A
# T_peri           =  N/A
######################################################
   0  4976.218
   1  5505.938
   2  5530.403
   3  5283.941
   4  5346.34
   5  5352.86
   6  5401.428
   7  4871.938
   8  4840.5
   9  5079.363
  10  5474.557
  11  5206.708
  12  5288.226
  13  4364.109
  14  4844.199
  15  5112.931
  16  4992.705
  17  5341.619
  18  4883.629
  19  5002.657
  20  4727.01
  21  4262.239
  22  4982.837
  23  4731.616
  24  4914.61
  25  5382.988
  26  4801.7
  27  5281.482
  28  5176.293
  29  4917.956
  30  5114.708
  31  5281.791
  32  5214.754
  33  5301.571
  34  5672.347
  35  5634.566
  36  5174.361
  37  5075.611
  38  4936.781
  39  4742.911
  40  4442.557
  41  3727.333
  42  4290.327
  43  4363.084
  44  4545.599
  45  4777.332
  46  4871.519
  47  5025.405
  48  4712.425
  49  5184.96
  50  4523.208
  51  4325.265
  52  4572.076
  53  4651.505
  54  4888.844
  55  5071.133
  56  4525.094
  57  4883.559
  58  4434.171
  59  4717.601
  60  4494.272
  61  5173.018
  62  4832.022
  63  5647.323
  64  5023.507
  65  4732.499
  66  5455.737
  67  4830.542
  68  5556.958
  69  5403.461
  70  5084.555
  71  4470.116
  72  5023.788
  73  5502.042
  74  5237.331
  75  4762.078
  76  4994.042
  77  4660.82
  78  4530.332
  79  4612.846
  80  5072.602
  81  4814.281
  82  4966.958
  83  5291.487
  84  5589.517
  85  5774.385
  86  5601.459
  87  6040.856
  88  5663.918
  89  6301.91
  90  5998.678
  91  5518.643
  92  6096.742
  93  5810.484
  94  6061.7
  95  5819.393
  96  5230.047
  97  5509.52
  98  5490.664
  99  5651.786
 100  4669.044
 101  6460.608
 102  5474.429
 103  5034.068
 104  5710.942
 105  5953.167
 106  5556.416
 107  5366.538
 108  5286.245
 109  4933.736
 110  5151.369
 111  5391.114
 112  4912.921
 113  4777.764
 114  4715.361
 115  4634.841
 116  5234.827
 117  5372.756
 118  4991.81
 119  4937.946
 120  5251.696
 121  5315.901
 122  4598.785
 123  3867.709
 124  4262.791
 125  4368.143
 126  4281.312
 127  4166.271
 128  4742.124
 129  4533.166
 130  4862.117
 131  4667.577
 132  4774.136
 133  4765.022
 134  4820.311
 135  4657.978
 136  4682.314
 137  5151.087
 138  4799.613
 139  5323.883
 140  5545.215
 141  4943.182
 142  4637.107
 143  5330.614
 144  4498.2
 145  4905.658
 146  5385.875
 147  5224.54
 148  5508.448
 149  5759.291
 150  5804.625
 151  6610.428
 152  8051.088
 153  8911.573
 154  7986.206
 155  6443.22
 156  5690.285
 157  5564.049
 158  5412.92
 159  5986.224
 160  5720.33
 161  5593.528
 162  5649.217
 163  5539.056
 164  6298.868
 165  5469.9
 166  5561.621
 167  5271.744
 168  5252.904
 169  6043.081
 170  5700.909
 171  5660.658
 172  5009.483
 173  5054.774
 174  4767.98
 175  4792.604
 176  5190.717
 177  4683.832
 178  5241.63
 179  4593.625
 180  5503.059
 181  5091.922
 182  4671.585
 183  4589.374
 184  4762.798
 185  4782.593
 186  5075.454
 187  5173.265
 188  5155.89
 189  4320.562
 190  4949.72
 191  5195.817
 192  4928.343
 193  4834.233
 194  4468.499
 195  4783.857
 196  5285.014
 197  5210.73
 198  4999.53
 199  4669.417
 200  5066.905
 201  5481.25
 202  5282.525
 203  5706.297
 204  5052.206
 205  4751.085
 206  4854.612
 207  4733.245
 208  5617.639
 209  5533.134
 210  5682.884
 211  5929.025
 212  5137.837
 213  4933.651
 214  5212.203
 215  5232.032
 216  4631.341
 217  5801.239
 218  5629.764
 219  5659.684
 220  5235.565
 221  5995.924
 222  5156.689
 223  5020.305
 224  4627.104
 225  5199.678
 226  4743.134
 227  4577.957
 228  4508.113
 229  5299.203
 230  5162.137
 231  4520.773
 232  4848.03
 233  4829.659
 234  5364.479
 235  4846.334
 236  4810.611
 237  4729.917
 238  4498.678
 239  5187.123
 240  5301.769
 241  5202.517
 242  5546.419
 243  5746.427
 244  5129.505
 245  5511.938
 246  5321.172
 247  4809.832
 248  5605.586
 249  5060.853
 250  5825.66
 251  5484.658
 252  4970.591
 253  4958.847
 254  5286.737
 255  5024.588
