# Input file       =  1202237599.111301_cleaned.dat
# Candidate        =  PSR_0332+5434
# Telescope        =  AR
# Epoch_topo       =  58158.787246658576
# Epoch_bary       =  N/A
# T_sample         =  0.002
# Data Folded      =  7340032
# Data Avg         =  0.01188601073751 
# Data StdDev      =  0.999995856906797
# Profile Bins     =  512
# Profile Avg      =  170.434988970027 
# Profile StdDev   =  119.732540311637 
# Reduced chi-sqr  =  1.284
# Prob(Noise)      <  1.37e-05   (~4.2 sigma)
# P_topo (ms)      =  714.57921902968   +/- 0.000235
# P'_topo (s/s)    =  -0                +/- 1.24e-10
# P''_topo (s/s^2) =  0                 +/- 5.47e-14
# P_bary (ms)      =  N/A
# P'_bary (s/s)    =  N/A
# P''_bary (s/s^2) =  N/A
# P_orb (s)        =  N/A
# asin(i)/c (s)    =  N/A
# eccentricity     =  N/A
# w (rad)          =  N/A
# T_peri           =  N/A
######################################################
   0  175.6903
   1  190.3225
   2  137.7388
   3  181.8774
   4  186.2924
   5  130.2704
   6  63.06592
   7  8.558142
   8  40.07048
   9  64.24279
  10  38.31301
  11  31.71823
  12  74.40422
  13  119.651
  14  125.3124
  15  39.93141
  16  120.4968
  17  275.2857
  18  337.9283
  19  134.8333
  20  192.0475
  21  209.0193
  22  71.31688
  23  85.73374
  24  201.1814
  25  189.3305
  26  227.5853
  27  219.8582
  28  220.2758
  29  150.3554
  30  354.7302
  31  234.4649
  32  144.4606
  33  186.8511
  34  117.1146
  35  -6.278053
  36  79.62576
  37  115.9516
  38  69.64689
  39  68.71506
  40  149.3012
  41  143.0503
  42  43.90022
  43  43.2333
  44  39.43826
  45  -3.808243
  46  28.71331
  47  112.8381
  48  284.3565
  49  185.333
  50  69.25334
  51  67.40606
  52  115.2812
  53  209.5946
  54  202.5085
  55  236.0074
  56  163.7452
  57  139.0315
  58  165.0297
  59  173.1417
  60  98.6264
  61  34.66523
  62  39.28683
  63  13.49898
  64  88.4397
  65  176.5241
  66  219.9832
  67  206.9745
  68  51.67008
  69  -41.3789
  70  23.54078
  71  75.83449
  72  43.6469
  73  5.956549
  74  -13.59911
  75  16.46985
  76  -38.13868
  77  45.92865
  78  144.2078
  79  192.3024
  80  62.02236
  81  160.1462
  82  161.079
  83  70.37409
  84  116.1808
  85  216.018
  86  203.505
  87  136.3446
  88  100.1303
  89  17.32049
  90  136.7514
  91  238.9382
  92  333.844
  93  264.476
  94  274.0807
  95  229.6174
  96  270.8044
  97  74.44059
  98  80.74168
  99  52.40961
 100  72.92016
 101  63.12158
 102  190.4938
 103  125.4554
 104  109.353
 105  152.5471
 106  172.3062
 107  230.2999
 108  161.099
 109  161.28
 110  163.9278
 111  121.1999
 112  182.8101
 113  223.7112
 114  159.3366
 115  136.9902
 116  253.9185
 117  297.14
 118  201.4729
 119  232.6549
 120  92.42261
 121  28.66586
 122  52.58583
 123  168.4333
 124  300.8996
 125  304.2686
 126  166.8474
 127  104.4186
 128  102.3326
 129  108.6868
 130  117.2627
 131  80.51277
 132  118.5902
 133  132.7255
 134  249.0569
 135  334.3365
 136  144.4016
 137  200.6003
 138  171.3007
 139  28.48023
 140  3.79606
 141  172.0051
 142  214.9859
 143  206.4472
 144  105.8252
 145  232.2593
 146  245.7035
 147  208.6685
 148  189.1863
 149  275.1006
 150  227.7994
 151  67.12863
 152  178.7868
 153  291.2763
 154  277.7668
 155  165.4875
 156  249.5944
 157  303.1017
 158  105.1918
 159  62.80864
 160  157.9431
 161  129.0694
 162  241.9027
 163  114.5487
 164  163.2616
 165  86.30365
 166  50.61211
 167  52.48012
 168  156.1385
 169  72.54127
 170  210.1573
 171  142.4184
 172  36.6743
 173  74.65585
 174  162.0001
 175  320.5807
 176  309.3782
 177  241.2255
 178  269.1284
 179  232.321
 180  256.6693
 181  281.4502
 182  268.6473
 183  252.4052
 184  274.5864
 185  267.527
 186  341.672
 187  205.5036
 188  131.412
 189  198.0948
 190  233.5966
 191  392.3453
 192  473.9561
 193  481.25
 194  691.0623
 195  828.8052
 196  785.1725
 197  662.8452
 198  567.582
 199  390.1004
 200  225.4942
 201  295.9469
 202  304.0051
 203  265.5643
 204  315.4306
 205  235.0551
 206  159.3741
 207  80.33927
 208  216.3026
 209  303.2707
 210  199.3054
 211  99.43529
 212  207.0168
 213  166.1227
 214  213.9288
 215  265.3192
 216  195.2054
 217  100.711
 218  69.80499
 219  53.83302
 220  92.59136
 221  141.1053
 222  84.00306
 223  93.64176
 224  207.2713
 225  321.2791
 226  96.32158
 227  41.59142
 228  72.2137
 229  242.4418
 230  319.3291
 231  95.42473
 232  47.23887
 233  142.1095
 234  128.7302
 235  101.9622
 236  108.3113
 237  142.9975
 238  101.3684
 239  202.8198
 240  246.1849
 241  178.8439
 242  163.5734
 243  89.86546
 244  144.3576
 245  204.8804
 246  210.1616
 247  235.3584
 248  315.1797
 249  271.8364
 250  263.6478
 251  339.9173
 252  284.553
 253  212.2142
 254  203.2429
 255  248.9793
 256  221.9499
 257  91.70604
 258  61.94522
 259  148.6744
 260  95.67142
 261  175.3618
 262  37.14354
 263  128.4923
 264  17.72017
 265  127.9087
 266  247.7806
 267  259.8464
 268  199.1698
 269  170.3677
 270  221.2228
 271  280.1881
 272  212.8631
 273  266.9656
 274  239.3916
 275  208.9407
 276  217.6237
 277  93.10166
 278  146.2092
 279  149.6447
 280  117.1214
 281  254.5119
 282  195.8666
 283  85.75643
 284  162.8573
 285  129.1667
 286  249.3774
 287  145.2604
 288  118.0003
 289  177.6532
 290  128.581
 291  103.8316
 292  156.9156
 293  106.2134
 294  118.1101
 295  115.152
 296  37.84198
 297  146.1999
 298  187.8514
 299  123.9239
 300  236.8265
 301  199.1872
 302  231.2863
 303  303.4795
 304  212.2623
 305  148.3885
 306  73.38097
 307  219.7338
 308  244.722
 309  180.6766
 310  193.7766
 311  236.3629
 312  341.5273
 313  297.5814
 314  270.7601
 315  259.8917
 316  242.2682
 317  161.0474
 318  220.6376
 319  131.0113
 320  256.0784
 321  139.0051
 322  164.9905
 323  306.7484
 324  344.7109
 325  281.2909
 326  45.0187
 327  274.8288
 328  243.5689
 329  220.4912
 330  178.2679
 331  272.3201
 332  195.9648
 333  147.1088
 334  220.4654
 335  142.4411
 336  159.7703
 337  75.1526
 338  204.2368
 339  240.2764
 340  210.5018
 341  320.6744
 342  404.0581
 343  306.1496
 344  164.9505
 345  148.0477
 346  242.8764
 347  312.6704
 348  266.1941
 349  158.952
 350  144.0219
 351  189.3869
 352  147.5406
 353  128.0375
 354  178.6099
 355  127.1827
 356  170.6332
 357  136.1369
 358  172.347
 359  252.9139
 360  263.6935
 361  286.7108
 362  277.3717
 363  198.7267
 364  49.61692
 365  120.6901
 366  202.1197
 367  85.64534
 368  87.42229
 369  112.1406
 370  71.2648
 371  120.2403
 372  247.104
 373  136.1382
 374  145.752
 375  35.18948
 376  135.7817
 377  184.7667
 378  161.2512
 379  214.2398
 380  211.1823
 381  295.2873
 382  119.2828
 383  75.79136
 384  133.6893
 385  117.964
 386  127.3185
 387  149.3136
 388  189.1344
 389  316.6227
 390  273.2308
 391  217.1792
 392  263.6508
 393  214.0624
 394  116.7803
 395  53.0262
 396  57.52716
 397  111.8379
 398  76.14023
 399  218.1431
 400  225.6837
 401  110.2488
 402  65.69975
 403  100.0475
 404  91.86949
 405  88.7688
 406  163.4813
 407  285.2812
 408  231.766
 409  206.2077
 410  183.4532
 411  179.3322
 412  203.1825
 413  103.5117
 414  137.7579
 415  158.9409
 416  262.994
 417  184.264
 418  197.3419
 419  213.9564
 420  111.692
 421  117.5431
 422  114.6826
 423  243.2042
 424  201.8227
 425  111.7588
 426  160.1051
 427  85.45477
 428  162.3533
 429  168.3203
 430  152.7628
 431  157.0227
 432  120.5903
 433  121.3772
 434  115.8906
 435  223.7977
 436  161.2898
 437  86.02067
 438  192.1807
 439  173.2776
 440  102.1705
 441  106.1014
 442  188.3357
 443  142.9655
 444  107.9146
 445  163.4756
 446  159.179
 447  141.6924
 448  132.8778
 449  98.02216
 450  127.5093
 451  115.1261
 452  149.4491
 453  111.8207
 454  189.7126
 455  139.2458
 456  232.9238
 457  274.9451
 458  199.6842
 459  191.5468
 460  188.1942
 461  247.6037
 462  220.6463
 463  213.2431
 464  109.9607
 465  42.97405
 466  176.9081
 467  202.3184
 468  214.7137
 469  205.0598
 470  191.3744
 471  209.8092
 472  200.5507
 473  116.8221
 474  142.0112
 475  20.55784
 476  124.0824
 477  37.144
 478  86.37347
 479  89.72802
 480  115.7591
 481  147.118
 482  89.56892
 483  45.22395
 484  169.2725
 485  33.11674
 486  45.56313
 487  129.388
 488  58.83441
 489  160.3952
 490  177.461
 491  153.1814
 492  127.087
 493  137.1225
 494  216.9329
 495  191.1744
 496  111.5792
 497  120.8802
 498  280.2497
 499  240.5826
 500  82.43504
 501  135.531
 502  213.5475
 503  35.5492
 504  95.40884
 505  62.74384
 506  106.5207
 507  227.0457
 508  194.686
 509  1.904296
 510  123.5171
 511  155.2482
