# Input file       =  1202639010.116768_cleaned.dat
# Candidate        =  PSR_0332+5434
# Telescope        =  AR
# Epoch_topo       =  58163.433207369999
# Epoch_bary       =  N/A
# T_sample         =  0.002
# Data Folded      =  7208960
# Data Avg         =  0.13785392415223 
# Data StdDev      =  5.66737822607911 
# Profile Bins     =  256
# Profile Avg      =  3883.3478926515  
# Profile StdDev   =  951.039428710181 
# Reduced chi-sqr  =  3.698
# Prob(Noise)      <  1.34e-79   (~18.9 sigma)
# P_topo (ms)      =  714.579894083892  +/- 2.35e-05
# P'_topo (s/s)    =  -0                +/- 1.26e-11
# P''_topo (s/s^2) =  0                 +/- 5.68e-15
# P_bary (ms)      =  N/A
# P'_bary (s/s)    =  N/A
# P''_bary (s/s^2) =  N/A
# P_orb (s)        =  N/A
# asin(i)/c (s)    =  N/A
# eccentricity     =  N/A
# w (rad)          =  N/A
# T_peri           =  N/A
######################################################
   0  2542.651
   1  4404.414
   2  2409.449
   3  2109.763
   4  3633.734
   5  6286.875
   6  5243.801
   7  3536.346
   8  3056.953
   9  5079.762
  10  3059.687
  11  2922.066
  12  3250.868
  13  6844.255
  14  6434.708
  15  4701.224
  16  2767.154
  17  3525.462
  18  3835.984
  19  2072.771
  20  2288.402
  21  4983.162
  22  6156.791
  23  4611.686
  24  3009.292
  25  3538.437
  26  3094.91
  27  2159.303
  28  2072.806
  29  4200.19
  30  7078.688
  31  5611.485
  32  3788.109
  33  3001.518
  34  4357.663
  35  1344.533
  36  1783.86
  37  3978.246
  38  6366.377
  39  4784.508
  40  4032.063
  41  2173.551
  42  3289.032
  43  2237.455
  44  1843.024
  45  2155.617
  46  6534.238
  47  5595.418
  48  3331.24
  49  2325.312
  50  3905.895
  51  3431.5
  52  1563.061
  53  1118.778
  54  5129.365
  55  5608.203
  56  3991.011
  57  2857.183
  58  3144.76
  59  3405.279
  60  1791.523
  61  1490.613
  62  3593.317
  63  6205.536
  64  4556.543
  65  2692.544
  66  1994.433
  67  4098.952
  68  1979.361
  69  566.7662
  70  2296.854
  71  5764.981
  72  3942.744
  73  4122.807
  74  3426.406
  75  3268.08
  76  1569.25
  77  770.7489
  78  3215.329
  79  6508.379
  80  4739.111
  81  3446.873
  82  2469.076
  83  4426.529
  84  3167.146
  85  1058.573
  86  1783.874
  87  4788.913
  88  6731.747
  89  4444.959
  90  2469.667
  91  2949.657
  92  3633.483
  93  1828.325
  94  1312.103
  95  3425.081
  96  6553.461
  97  4376.758
  98  2937.458
  99  2399.29
 100  4097.673
 101  2019.282
 102  1627.443
 103  2515.627
 104  6583.177
 105  5108.622
 106  3832.603
 107  2290.05
 108  3806.095
 109  3527.09
 110  2538.816
 111  2639.614
 112  5094.705
 113  4834.612
 114  4586.498
 115  3410.269
 116  4528.199
 117  3068.209
 118  1368.809
 119  1351.802
 120  4871.067
 121  5904.199
 122  3753.737
 123  2589.141
 124  3511.945
 125  4381.704
 126  1429.27
 127  704.3248
 128  4270.999
 129  7121.367
 130  5149.103
 131  3299.461
 132  2686.478
 133  4020.005
 134  2704.665
 135  1269.486
 136  3381.745
 137  7001.293
 138  5470.465
 139  4150.371
 140  2396.6
 141  4264.605
 142  3153.013
 143  2449.338
 144  2135.71
 145  6223.665
 146  5833.52
 147  4521.74
 148  3422.012
 149  4343.225
 150  3517.208
 151  3674.581
 152  5395.608
 153  8228.595
 154  7568.188
 155  5523.697
 156  4642.334
 157  4074.067
 158  4408.966
 159  2254.511
 160  2411.952
 161  4953.48
 162  6898.854
 163  5565.024
 164  4388.225
 165  3397.367
 166  4927.399
 167  2619.117
 168  2001.484
 169  3694.739
 170  7139.887
 171  5934.346
 172  4443.156
 173  2952.338
 174  5189.429
 175  3517.299
 176  1444.474
 177  2660.048
 178  7191.547
 179  6762.962
 180  5133.467
 181  2944.273
 182  3702.566
 183  4385.725
 184  3135.894
 185  1955.129
 186  4676.876
 187  6862.311
 188  5596.689
 189  4615.389
 190  2971.024
 191  4178.354
 192  2594.341
 193  2468.782
 194  3430.864
 195  6231.671
 196  4536.748
 197  3998.594
 198  2749.862
 199  4600.54
 200  3060.059
 201  2529.879
 202  4126.467
 203  6877.212
 204  5913.994
 205  4760.776
 206  2745.52
 207  4543.434
 208  3460.154
 209  2289.153
 210  3163.304
 211  6409.633
 212  6726.883
 213  3884.163
 214  2630.368
 215  4202.636
 216  4902.249
 217  2704.731
 218  1729.787
 219  5405.566
 220  6932.677
 221  5964.23
 222  4044.948
 223  3472.956
 224  4803.536
 225  2959.949
 226  2169.669
 227  3557.912
 228  7105.205
 229  6505.067
 230  4664.794
 231  3501.805
 232  5108.833
 233  3380.374
 234  2490.074
 235  3054.09
 236  6794.59
 237  5617.272
 238  4448.525
 239  3172.649
 240  4552.164
 241  3272.266
 242  1992.108
 243  2861.77
 244  5895.636
 245  6744.954
 246  4886.302
 247  2987.566
 248  3382.892
 249  3727.502
 250  1999.644
 251  1720.449
 252  4354.796
 253  6447.096
 254  4076.503
 255  3629.723
