# Input file       =  1202409950.12076_cleaned.dat
# Candidate        =  PSR_0332+5434
# Telescope        =  AR
# Epoch_topo       =  58160.782050008798
# Epoch_bary       =  N/A
# T_sample         =  0.002
# Data Folded      =  7340032
# Data Avg         =  0.0467063023399012
# Data StdDev      =  2.9289402661869  
# Profile Bins     =  256
# Profile Avg      =  1338.73747152926 
# Profile StdDev   =  495.951843154807 
# Reduced chi-sqr  =  1.094
# Prob(Noise)      <  0.145   (~1.1 sigma)
# P_topo (ms)      =  714.5797098679    +/- 0.000377
# P'_topo (s/s)    =  -0                +/- 1.99e-10
# P''_topo (s/s^2) =  0                 +/- 8.78e-14
# P_bary (ms)      =  N/A
# P'_bary (s/s)    =  N/A
# P''_bary (s/s^2) =  N/A
# P_orb (s)        =  N/A
# asin(i)/c (s)    =  N/A
# eccentricity     =  N/A
# w (rad)          =  N/A
# T_peri           =  N/A
######################################################
   0  777.3776
   1  1650.955
   2  1192.266
   3  1646.988
   4  1447.502
   5  1027.626
   6  1408.96
   7  681.9333
   8  782.076
   9  683.4304
  10  858.752
  11  1253.822
  12  1425.927
  13  1355.023
  14  1244.443
  15  1254.094
  16  1235.934
  17  1259.123
  18  1663.387
  19  735.62
  20  1478.968
  21  1603.222
  22  1766.045
  23  812.8748
  24  1620.611
  25  2069.012
  26  2169.008
  27  1374.175
  28  2026.594
  29  1564.213
  30  1430.696
  31  1733.861
  32  1330.155
  33  905.2543
  34  2024.268
  35  1345.076
  36  1410.072
  37  723.7637
  38  1306.411
  39  981.3751
  40  823.2646
  41  905.087
  42  1072.899
  43  981.9963
  44  862.9432
  45  955.6161
  46  977.6478
  47  1455.099
  48  2084.12
  49  1605.742
  50  1353.073
  51  1599.104
  52  1352.746
  53  823.2661
  54  1161.353
  55  975.8792
  56  1642.673
  57  1410.482
  58  1159.779
  59  1301.358
  60  1089.924
  61  1234.634
  62  1339.112
  63  1363.881
  64  1248.112
  65  1701.24
  66  572.2612
  67  746.0987
  68  965.7058
  69  658.0278
  70  1524.146
  71  1021.658
  72  1286.539
  73  1303.531
  74  1256.224
  75  2031.427
  76  2265.036
  77  1250.808
  78  1548.261
  79  760.4788
  80  1316.886
  81  767.2717
  82  403.3152
  83  999.4402
  84  889.9389
  85  1122.35
  86  949.5143
  87  1234.03
  88  1038.003
  89  886.8152
  90  1095.695
  91  1421.011
  92  1407.502
  93  1373.092
  94  1334.525
  95  1707.4
  96  1298.425
  97  2022.141
  98  1766.401
  99  1847.782
 100  1442.291
 101  1675.465
 102  1899.099
 103  1672.047
 104  1359.585
 105  1411.778
 106  935.5477
 107  962.8336
 108  546.27
 109  1429.713
 110  1186.684
 111  1436.71
 112  1057.873
 113  1448.39
 114  1395.039
 115  1418.361
 116  1796.373
 117  1264.934
 118  1947.011
 119  1454.13
 120  1928.029
 121  1462.296
 122  1134.496
 123  930.6754
 124  574.919
 125  1387.543
 126  784.2009
 127  1337.645
 128  1626.052
 129  1700.009
 130  1532.03
 131  1137.739
 132  1678.435
 133  1853.02
 134  1684.872
 135  1125.542
 136  1335.167
 137  1921.282
 138  1770.259
 139  1522.015
 140  1566.691
 141  1250.041
 142  1363.499
 143  1924.061
 144  2167.091
 145  1075.969
 146  1439.192
 147  1338.103
 148  1192.646
 149  1501.962
 150  2107.695
 151  1236.692
 152  3784.664
 153  4577.561
 154  3046.718
 155  1394.544
 156  1287.444
 157  1213.319
 158  1425.097
 159  895.6771
 160  1382.363
 161  2076.184
 162  1672.279
 163  1340.122
 164  1440.792
 165  1369.708
 166  1233.286
 167  805.256
 168  1653.953
 169  1483.457
 170  1198.609
 171  692.7573
 172  1516.554
 173  1355.651
 174  1258.756
 175  1440.48
 176  1533.142
 177  1256.174
 178  1582.921
 179  1907.17
 180  884.0168
 181  837.0838
 182  1595.125
 183  1509.709
 184  987.7546
 185  1165.221
 186  1172.525
 187  1089.271
 188  1388.755
 189  1592.031
 190  1403.039
 191  1437.764
 192  1719.725
 193  1339.1
 194  1231.19
 195  1474.328
 196  1375.151
 197  1021.926
 198  925.2332
 199  1178.293
 200  998.4345
 201  1321.468
 202  1524.148
 203  1557.468
 204  1575
 205  605.9603
 206  932.7146
 207  953.1545
 208  1106.667
 209  1427.403
 210  1474.007
 211  1691.014
 212  1626.771
 213  1248.221
 214  1614.416
 215  860.0524
 216  1617.814
 217  1026.468
 218  773.7482
 219  1417.919
 220  1218.049
 221  1633.555
 222  1695.11
 223  1517.822
 224  1236.045
 225  1373.275
 226  1534.532
 227  1565.988
 228  1586.423
 229  1802.297
 230  1525.539
 231  1294.682
 232  976.2275
 233  1463.807
 234  1055.739
 235  1047.174
 236  730.6092
 237  645.3844
 238  1421.926
 239  1226.321
 240  1265.649
 241  856.0505
 242  741.3275
 243  654.199
 244  1180.609
 245  1643.967
 246  1494.732
 247  1226.056
 248  1286.532
 249  899.8553
 250  1003.079
 251  639.5616
 252  1474.968
 253  1208.965
 254  922.7396
 255  1019.602
