# Input file       =  1202466588.126555_cleaned.dat
# Candidate        =  PSR_0332+5434
# Telescope        =  AR
# Epoch_topo       =  58161.437582483275
# Epoch_bary       =  N/A
# T_sample         =  0.002
# Data Folded      =  7208960
# Data Avg         =  0.017427727366393
# Data StdDev      =  1.00005813414594 
# Profile Bins     =  512
# Profile Avg      =  245.378917761295 
# Profile StdDev   =  118.666073943373 
# Reduced chi-sqr  =  1.482
# Prob(Noise)      <  7.47e-12   (~6.7 sigma)
# P_topo (ms)      =  714.579501528349  +/- 8.56e-05
# P'_topo (s/s)    =  -0                +/- 4.6e-11
# P''_topo (s/s^2) =  0                 +/- 2.07e-14
# P_bary (ms)      =  N/A
# P'_bary (s/s)    =  N/A
# P''_bary (s/s^2) =  N/A
# P_orb (s)        =  N/A
# asin(i)/c (s)    =  N/A
# eccentricity     =  N/A
# w (rad)          =  N/A
# T_peri           =  N/A
######################################################
   0  881.2958
   1  748.6413
   2  543.1824
   3  269.6049
   4  167.9467
   5  195.7192
   6  267.5892
   7  310.6578
   8  209.5919
   9  123.8828
  10  229.0673
  11  287.2532
  12  401.8914
  13  342.8724
  14  163.0956
  15  227.4582
  16  329.9381
  17  390.844
  18  333.4463
  19  311.7064
  20  206.8576
  21  209.544
  22  286.6013
  23  384.047
  24  348.6974
  25  350.6623
  26  370.1542
  27  325.5
  28  219.4127
  29  271.8463
  30  262.7654
  31  312.6246
  32  306.1114
  33  303.0971
  34  239.2352
  35  101.8896
  36  147.6328
  37  6.163641
  38  19.57084
  39  62.41651
  40  196.1505
  41  324.3133
  42  263.24
  43  308.8372
  44  283.5325
  45  169.0495
  46  193.891
  47  133.7895
  48  166.0549
  49  319.7131
  50  281.3144
  51  155.9055
  52  135.6811
  53  226.4803
  54  236.9642
  55  237.3015
  56  415.5072
  57  329.8508
  58  162.0575
  59  277.5473
  60  271.2516
  61  294.7247
  62  364.4841
  63  341.9835
  64  243.2739
  65  147.8856
  66  248.3327
  67  252.5695
  68  206.1442
  69  202.2962
  70  216.0582
  71  228.6991
  72  282.5429
  73  227.9361
  74  319.8023
  75  277.3138
  76  143.6475
  77  131.4068
  78  180.3237
  79  200.9733
  80  196.7283
  81  155.1462
  82  158.9941
  83  229.2423
  84  315.3099
  85  110.2064
  86  127.5019
  87  148.8246
  88  233.7838
  89  268.1761
  90  275.8957
  91  236.1863
  92  273.8212
  93  286.4387
  94  231.4964
  95  161.5633
  96  217.6288
  97  238.214
  98  335.8246
  99  328.3289
 100  168.8262
 101  99.99281
 102  205.2886
 103  247.8543
 104  145.214
 105  239.806
 106  232.7214
 107  137.2676
 108  176.1324
 109  295.4639
 110  284.9757
 111  300.9172
 112  255.8928
 113  178.5344
 114  205.6875
 115  241.762
 116  249.088
 117  119.5974
 118  219.8158
 119  217.6762
 120  278.6328
 121  330.4828
 122  289.4489
 123  352.6535
 124  247.4382
 125  159.512
 126  59.77112
 127  148.7614
 128  204.9743
 129  269.5149
 130  376.5139
 131  266.9865
 132  93.62105
 133  50.02526
 134  272.223
 135  268.3742
 136  231.4439
 137  322.5859
 138  350.3406
 139  337.7901
 140  350.46
 141  323.8347
 142  12.1803
 143  131.958
 144  173.0674
 145  9.053943
 146  139.5665
 147  148.3582
 148  160.0424
 149  177.4952
 150  198.729
 151  185.3444
 152  193.971
 153  241.8571
 154  320.1822
 155  364.1974
 156  195.4825
 157  187.9556
 158  -39.7034
 159  138.4228
 160  122.8901
 161  190.7144
 162  273.1711
 163  353.3764
 164  183.5736
 165  31.094
 166  156.8392
 167  19.09333
 168  80.96134
 169  167.2544
 170  187.8101
 171  141.5251
 172  299.6988
 173  305.8252
 174  240.5482
 175  260.2975
 176  299.1992
 177  350.1421
 178  384.0302
 179  219.3751
 180  124.1644
 181  153.4352
 182  195.7367
 183  148.7438
 184  246.354
 185  320.5841
 186  242.5972
 187  180.2957
 188  324.0456
 189  386.6341
 190  313.8999
 191  306.902
 192  30.00462
 193  85.7999
 194  88.47787
 195  215.2343
 196  269.9307
 197  376.088
 198  316.2937
 199  78.30324
 200  124.3319
 201  250.2079
 202  240.6167
 203  332.5855
 204  396.0395
 205  238.8888
 206  258.0193
 207  373.3655
 208  236.67
 209  186.8873
 210  283.5794
 211  303.802
 212  256.1558
 213  226.679
 214  161.2374
 215  194.3961
 216  215.3681
 217  211.2001
 218  226.4511
 219  304.545
 220  254.3201
 221  373.9185
 222  204.6482
 223  238.7858
 224  190.0278
 225  284.2302
 226  192.8508
 227  296.5277
 228  185.2766
 229  13.83082
 230  164.4989
 231  383.5066
 232  210.1743
 233  184.1089
 234  223.0924
 235  239.6751
 236  281.7979
 237  246.0865
 238  134.0901
 239  194.7629
 240  179.5996
 241  237.1258
 242  251.4713
 243  280.1637
 244  283.0436
 245  199.1022
 246  155.1021
 247  118.486
 248  214.1384
 249  208.7432
 250  220.5462
 251  155.1859
 252  210.3087
 253  202.5383
 254  229.0964
 255  307.5117
 256  413.0519
 257  338.9603
 258  242.9032
 259  213.1594
 260  187.6144
 261  218.2921
 262  284.2221
 263  374.4809
 264  367.82
 265  250.4163
 266  150.6171
 267  199.3883
 268  267.4376
 269  375.4673
 270  237.8225
 271  286.4548
 272  309.915
 273  293.2818
 274  308.0464
 275  416.2149
 276  397.0146
 277  272.4783
 278  207.3091
 279  176.0443
 280  115.2894
 281  162.6746
 282  208.51
 283  179.5558
 284  291.0891
 285  174.8336
 286  143.0251
 287  175.2966
 288  249.7341
 289  213.6919
 290  341.1754
 291  239.1242
 292  160.6621
 293  232.1503
 294  232.499
 295  221.8584
 296  392.1619
 297  447.9475
 298  254.5467
 299  216.8668
 300  294.788
 301  155.2576
 302  167.8586
 303  284.3464
 304  267.8461
 305  470.8336
 306  406.9937
 307  371.0882
 308  323.4571
 309  316.0577
 310  320.183
 311  372.6765
 312  354.1406
 313  385.8322
 314  423.5019
 315  228.1723
 316  85.34236
 317  197.6873
 318  223.0834
 319  218.0288
 320  298.0906
 321  245.1927
 322  341.666
 323  268.7027
 324  115.7943
 325  169.4637
 326  340.4167
 327  427.0928
 328  202.1653
 329  144.2208
 330  297.2045
 331  349.964
 332  317.8735
 333  127.5071
 334  58.30178
 335  181.255
 336  433.425
 337  354.1513
 338  202.485
 339  218.0579
 340  335.4947
 341  315.1744
 342  196.2671
 343  184.3091
 344  324.6747
 345  278.4072
 346  313.1533
 347  240.2898
 348  39.38516
 349  19.44093
 350  164.5004
 351  194.401
 352  134.3312
 353  337.1154
 354  463.0064
 355  332.4946
 356  268.5313
 357  194.3949
 358  104.796
 359  264.471
 360  287.2443
 361  262.8824
 362  293.4186
 363  345.6799
 364  152.1841
 365  121.3489
 366  166.8366
 367  108.4047
 368  139.052
 369  280.6779
 370  370.0342
 371  420.6893
 372  395.2005
 373  313.916
 374  257.0612
 375  115.7513
 376  126.9986
 377  235.1413
 378  299.8952
 379  207.4053
 380  116.9372
 381  183.0568
 382  250.7181
 383  219.3478
 384  161.4604
 385  212.4665
 386  276.8171
 387  208.7465
 388  223.5048
 389  223.3414
 390  221.7805
 391  157.6434
 392  254.844
 393  237.2301
 394  232.9231
 395  277.2617
 396  283.9781
 397  239.2613
 398  261.9923
 399  224.2537
 400  283.1899
 401  406.0816
 402  367.6709
 403  260.8628
 404  423.431
 405  365.2397
 406  217.6519
 407  174.5259
 408  119.546
 409  116.9046
 410  218.4169
 411  417.9076
 412  195.0544
 413  197.0112
 414  152.6723
 415  106.6132
 416  152.8469
 417  203.558
 418  189.5401
 419  255.6862
 420  386.4928
 421  380.7877
 422  356.8317
 423  288.1941
 424  360.9526
 425  356.335
 426  316.998
 427  304.1353
 428  118.5505
 429  168.1939
 430  194.9804
 431  95.9305
 432  223.2553
 433  151.4753
 434  234.8136
 435  292.0444
 436  303.4937
 437  387.4981
 438  421.8067
 439  344.6685
 440  200.0758
 441  345.2656
 442  287.9294
 443  284.5816
 444  318.1232
 445  203.7262
 446  277.1898
 447  296.0071
 448  107.8071
 449  59.53593
 450  100.3244
 451  215.3184
 452  281.2306
 453  284.8778
 454  175.0076
 455  247.4564
 456  216.1019
 457  217.3537
 458  227.3552
 459  317.5055
 460  289.3151
 461  175.6894
 462  287.7852
 463  94.1344
 464  72.78511
 465  233.0594
 466  239.8333
 467  272.1859
 468  388.2202
 469  373.5496
 470  309.5407
 471  285.4007
 472  308.9294
 473  182.8411
 474  225.9224
 475  314.9597
 476  203.1575
 477  237.4653
 478  255.8739
 479  256.8735
 480  221.7926
 481  183.2722
 482  211.8051
 483  188.8171
 484  309.8577
 485  278.9256
 486  293.9995
 487  318.7364
 488  171.6422
 489  83.61607
 490  38.7385
 491  123.4093
 492  191.4237
 493  256.6745
 494  331.2748
 495  276.4351
 496  267.7272
 497  126.91
 498  18.50848
 499  93.57504
 500  64.54976
 501  243.1875
 502  206.7932
 503  501.1429
 504  355.3349
 505  291.4828
 506  330.6371
 507  339.323
 508  519.7238
 509  676.1923
 510  664.7473
 511  813.2043
