# Input file       =  1202121883.110952-PSRB0329-2ms-sampling-dd.dat
# Candidate        =  PSR_0332+5434
# Telescope        =  AR
# Epoch_topo       =  58157.447941098981
# Epoch_bary       =  N/A
# T_sample         =  0.002
# Data Folded      =  7208960
# Data Avg         =  2.79555837097873e-11
# Data StdDev      =  38.1616970594633 
# Profile Bins     =  512
# Profile Avg      =  -4.70989401052273
# Profile StdDev   =  4528.23551995832 
# Reduced chi-sqr  =  1.189
# Prob(Noise)      <  0.00209   (~2.9 sigma)
# P_topo (ms)      =  714.578498167072  +/- 0.000503
# P'_topo (s/s)    =  -0                +/- 2.7e-10
# P''_topo (s/s^2) =  0                 +/- 1.22e-13
# P_bary (ms)      =  N/A
# P'_bary (s/s)    =  N/A
# P''_bary (s/s^2) =  N/A
# P_orb (s)        =  N/A
# asin(i)/c (s)    =  N/A
# eccentricity     =  N/A
# w (rad)          =  N/A
# T_peri           =  N/A
######################################################
   0  -384.1322
   1  -312.1764
   2  -595.6582
   3  -723.9118
   4  -1732.446
   5  -1169.773
   6  -1658.432
   7  -1932.583
   8  -1838.339
   9  -1549.147
  10  -281.6073
  11  354.0976
  12  834.8059
  13  2.756078
  14  -29.50173
  15  -443.4385
  16  -806.1221
  17  -309.8189
  18  1229.245
  19  1535.214
  20  1181.06
  21  175.718
  22  -599.8749
  23  -640.4586
  24  14.81634
  25  737.3926
  26  1514.895
  27  2394.201
  28  1739.056
  29  879.3628
  30  -431.8654
  31  -2171.049
  32  154.9715
  33  1616.06
  34  1866.111
  35  1606.67
  36  170.19
  37  -1218.034
  38  -2938.812
  39  -2833.485
  40  -2347.926
  41  -2516.093
  42  -2379.81
  43  -3013.318
  44  -3149.972
  45  -3365.525
  46  -3273.416
  47  -3034.62
  48  -2272.871
  49  -1816.654
  50  -1809.486
  51  -1919.662
  52  -1750.777
  53  -1079.121
  54  -1470.232
  55  -1489.494
  56  -1616.794
  57  -1948.248
  58  -2673.071
  59  -2896.99
  60  -2945.656
  61  -3121.213
  62  -3089.774
  63  -2642.752
  64  -2924.86
  65  -2305.153
  66  -2148.487
  67  -2427.202
  68  -1900.165
  69  -437.984
  70  1553.736
  71  3026.768
  72  4213.228
  73  3696.551
  74  2869.541
  75  1076.541
  76  4263.994
  77  6341.986
  78  8576.309
  79  9280.779
  80  8461.52
  81  6170.141
  82  4166.546
  83  3165.412
  84  2250.395
  85  3199.491
  86  6062.394
  87  5896.333
  88  5188.077
  89  5071.153
  90  5278.368
  91  4801.888
  92  6479.835
  93  10132.8
  94  10688.99
  95  9658.802
  96  8333.473
  97  6984.446
  98  5277.153
  99  6454.054
 100  9595.679
 101  9203.815
 102  6965.454
 103  3997.489
 104  2887.824
 105  2361.797
 106  2561.832
 107  4932.822
 108  4767.893
 109  2127.541
 110  1589.869
 111  1288.652
 112  2120.234
 113  2887.988
 114  4670.323
 115  6576.466
 116  4945.86
 117  3287.212
 118  2216.452
 119  1779.307
 120  4260.421
 121  5848.029
 122  7498.595
 123  4462.14
 124  2515.917
 125  120.4835
 126  -2585.331
 127  -2568.571
 128  -2776.27
 129  -3486.612
 130  -3781.917
 131  -3904.45
 132  -2620.3
 133  -2037.309
 134  -1869.793
 135  -1717.508
 136  -1804.633
 137  -3230.108
 138  -4137.074
 139  -2918.459
 140  -2374.775
 141  -1716.165
 142  -2020.496
 143  -2273.58
 144  -3201.576
 145  -3589.855
 146  -3525.561
 147  -3270.155
 148  -3010.112
 149  -3168.669
 150  -2575.177
 151  -2756.083
 152  -2430.833
 153  -2481.064
 154  -2617.586
 155  -2856.082
 156  -2549.971
 157  -2340.212
 158  -2192.813
 159  -2201.536
 160  -2655.047
 161  -3328.347
 162  -3819.683
 163  -3410.094
 164  -3035.873
 165  -2518.955
 166  -1213.995
 167  -1144.502
 168  -774.2366
 169  -306.8076
 170  -1271.298
 171  -1368.018
 172  -1617.332
 173  -585.4064
 174  -1041.7
 175  -1368.923
 176  -1697.154
 177  -3215.003
 178  -3804.925
 179  -4057.753
 180  -4047.01
 181  -3775.717
 182  -3220.103
 183  -3198.164
 184  -3241.957
 185  -3505.806
 186  -4069.977
 187  -4563.412
 188  -4226.631
 189  -4083.379
 190  -3801.382
 191  -3751.071
 192  -3324.912
 193  -3512.943
 194  -3459.821
 195  -3378.713
 196  -2070.02
 197  -520.8051
 198  656.5599
 199  37.10753
 200  738.681
 201  3097.065
 202  6273.389
 203  8495.638
 204  7777.6
 205  7247.863
 206  2088.073
 207  5480.551
 208  7748.283
 209  11354.47
 210  10962.36
 211  7307.605
 212  3200.896
 213  9.64251
 214  2611.241
 215  4587.212
 216  4866.126
 217  3600.166
 218  1506.919
 219  -1937.408
 220  -2976.949
 221  -2485.235
 222  -1523.713
 223  -1378.566
 224  -1359.247
 225  -1534.823
 226  -2361.367
 227  -2801.007
 228  -2277.547
 229  -812.3033
 230  -119.3316
 231  702.7963
 232  1093.566
 233  730.4918
 234  118.5479
 235  -41.56434
 236  413.261
 237  611.9322
 238  4017.59
 239  5249.824
 240  5621.243
 241  2281.173
 242  870.2538
 243  1193.693
 244  2262.387
 245  6012.15
 246  6738.198
 247  7650.24
 248  4642.541
 249  4138.152
 250  4955.801
 251  7773.495
 252  8697.797
 253  8640.629
 254  6829.094
 255  5026.677
 256  4906.197
 257  4009.839
 258  3121.488
 259  2707.136
 260  1771.124
 261  174.9128
 262  -1962.17
 263  -2649.57
 264  -3581.074
 265  -3922.895
 266  -3480.48
 267  -3659.152
 268  -3739.716
 269  -4138.011
 270  -4654.818
 271  -4431.74
 272  -4182.873
 273  -4366.583
 274  -4352.848
 275  -4089.141
 276  -4179.618
 277  -4210.185
 278  -4524.938
 279  -4406.433
 280  -3629.614
 281  -3023.612
 282  -3132.673
 283  -3102.223
 284  -3148.895
 285  -3670.442
 286  -3178.896
 287  -2756.648
 288  -2862.384
 289  -3379.632
 290  -3673.096
 291  -2643.966
 292  -1446.019
 293  757.9268
 294  1213.278
 295  1453.677
 296  -336.2952
 297  -1631.808
 298  -380.706
 299  1737.208
 300  6605.093
 301  6961.318
 302  7072.819
 303  2611.746
 304  45.85903
 305  -1462.339
 306  -648.7949
 307  1591.781
 308  2356.11
 309  3049.536
 310  -573.8136
 311  -1688.096
 312  -2445.519
 313  975.2629
 314  2338.443
 315  2580.119
 316  1769.459
 317  -1462.293
 318  -2487.596
 319  -2832.333
 320  -2658.238
 321  -2847.512
 322  -2697.248
 323  -1890.977
 324  871.3281
 325  2507.7
 326  3748.841
 327  2437.65
 328  1066.7
 329  -603.8566
 330  1853.331
 331  6211.201
 332  9067.041
 333  10931.72
 334  8803.294
 335  7416.488
 336  4481.672
 337  3441.383
 338  3377.308
 339  2203.175
 340  1932.819
 341  3309.32
 342  5276.142
 343  7448.648
 344  9312.991
 345  8775.342
 346  6785.293
 347  3925.145
 348  2958.679
 349  4937.463
 350  7490.562
 351  10809.37
 352  10095.75
 353  7477.439
 354  2329.467
 355  541.7883
 356  54.06538
 357  217.009
 358  306.3068
 359  -264.5674
 360  -1578.011
 361  -3767.725
 362  -3501.138
 363  -3057.494
 364  -1682.94
 365  -687.9575
 366  -1273.367
 367  -2149.996
 368  -3356.182
 369  -2230.792
 370  -1109.904
 371  -828.3877
 372  -179.239
 373  -1292.542
 374  -1794.282
 375  -2052.764
 376  -1000.373
 377  -675.8894
 378  -279.7295
 379  -1165.565
 380  -1608.364
 381  -2265.753
 382  -3323.705
 383  -3207.734
 384  -3563.882
 385  -3864.494
 386  -3786.339
 387  -3097.48
 388  -2459.654
 389  -2289.5
 390  -2107.987
 391  -2173.654
 392  -2218.062
 393  -1573.633
 394  45.31206
 395  1619.196
 396  981.5332
 397  939.1102
 398  -1015.798
 399  -431.386
 400  938.1809
 401  3667.071
 402  3910.095
 403  3028.879
 404  -121.594
 405  -2109.494
 406  -2025.349
 407  -1104.606
 408  199.0805
 409  838.9853
 410  849.1551
 411  283.5023
 412  -1455.153
 413  -1810.659
 414  -2031.159
 415  404.2395
 416  570.1291
 417  639.9153
 418  -948.7703
 419  -2576.614
 420  -3400.343
 421  -3386.961
 422  -2880.189
 423  -2832.595
 424  -2669.436
 425  -4077.127
 426  -3409.961
 427  -2686.51
 428  -1352.796
 429  -541.9647
 430  -441.7442
 431  -506.8733
 432  -726.0792
 433  412.646
 434  1139.149
 435  406.1253
 436  -798.688
 437  -589.3533
 438  -917.5789
 439  794.3268
 440  467.0706
 441  -681.6699
 442  -1436.207
 443  -3611.478
 444  -3613.112
 445  -3049.649
 446  -2525.904
 447  -1989.785
 448  -972.857
 449  -953.8819
 450  -2000.699
 451  -2486.308
 452  -2214.035
 453  -121.8859
 454  66.27136
 455  -318.1603
 456  -1370.147
 457  -1660.927
 458  -1994.578
 459  -2843.95
 460  -2853.689
 461  -3206.09
 462  -3240.785
 463  -3198.972
 464  -2266.469
 465  -2573.272
 466  -2520.564
 467  -2263.537
 468  -2620.375
 469  -2579.382
 470  -3678.216
 471  -3093.773
 472  -3039.232
 473  -3028.058
 474  -2863.919
 475  -3516.477
 476  -4284.594
 477  -4917.841
 478  -4490.159
 479  -3877.776
 480  -2889.702
 481  -2829.895
 482  -2937.427
 483  -3459.115
 484  -3914.094
 485  -3969.427
 486  -3853.244
 487  -3466.74
 488  -3111.607
 489  -2691.89
 490  -2846.49
 491  -2791.445
 492  -2722.475
 493  -3007.203
 494  -3641.607
 495  -2696.407
 496  -1499.741
 497  -653.9213
 498  -172.5486
 499  -648.9445
 500  -1539.568
 501  -3042.644
 502  -2836.302
 503  -1794.237
 504  163.9027
 505  137.476
 506  185.3072
 507  -222.9122
 508  -2004.483
 509  -2403.293
 510  -1411.757
 511  -609.5588
