# Input file       =  1202653658.112638_cleaned.dat
# Candidate        =  PSR_0332+5434
# Telescope        =  AR
# Epoch_topo       =  58163.602744359239
# Epoch_bary       =  N/A
# T_sample         =  0.002
# Data Folded      =  7340032
# Data Avg         =  -0.0288998456673802
# Data StdDev      =  1.00102019143504 
# Profile Bins     =  512
# Profile Avg      =  -414.306093213991
# Profile StdDev   =  119.855186994969 
# Reduced chi-sqr  =  0.996
# Prob(Noise)      <  0.518   (~0.0 sigma)
# P_topo (ms)      =  714.579943610485  +/- 0.000383
# P'_topo (s/s)    =  -0                +/- 2.02e-10
# P''_topo (s/s^2) =  0                 +/- 8.92e-14
# P_bary (ms)      =  N/A
# P'_bary (s/s)    =  N/A
# P''_bary (s/s^2) =  N/A
# P_orb (s)        =  N/A
# asin(i)/c (s)    =  N/A
# eccentricity     =  N/A
# w (rad)          =  N/A
# T_peri           =  N/A
######################################################
   0  -454.1944
   1  -471.8064
   2  -341.0937
   3  -352.0571
   4  -416.3221
   5  -459.5948
   6  -393.0852
   7  -392.1063
   8  -413.0464
   9  -460.8654
  10  -438.8698
  11  -426.1503
  12  -437.8202
  13  -494.254
  14  -489.4626
  15  -490.2229
  16  -421.9919
  17  -493.3968
  18  -431.8661
  19  -461.7784
  20  -454.9963
  21  -481.4644
  22  -470.1842
  23  -445.409
  24  -477.5323
  25  -456.7724
  26  -442.3314
  27  -509.8728
  28  -484.457
  29  -409.3035
  30  -388.7925
  31  -450.4606
  32  -443.4141
  33  -509.9089
  34  -464.2737
  35  -483.6315
  36  -525.0151
  37  -499.7703
  38  -415.91
  39  -430.8265
  40  -410.559
  41  -564.7234
  42  -563.7497
  43  -536.6751
  44  -545.1019
  45  -544.0874
  46  -526.6841
  47  -488.3688
  48  -447.863
  49  -425.5407
  50  -412.7678
  51  -461.6034
  52  -509.9452
  53  -530.7131
  54  -540.1248
  55  -548.7913
  56  -480.3683
  57  -491.3325
  58  -522.5762
  59  -497.6926
  60  -493.9594
  61  -491.7577
  62  -527.9396
  63  -546.0262
  64  -464.9585
  65  -398.0819
  66  -459.3841
  67  -434.3915
  68  -375.0514
  69  -383.9204
  70  -444.1809
  71  -392.2953
  72  -391.6353
  73  -362.301
  74  -410.2171
  75  -347.9393
  76  -282.5663
  77  -358.1777
  78  -443.9312
  79  -466.5369
  80  -437.8469
  81  -434.2715
  82  -420.8925
  83  -469.6929
  84  -406.0432
  85  -386.4984
  86  -399.0655
  87  -379.0828
  88  -374.8392
  89  -448.2228
  90  -417.1589
  91  -414.4214
  92  -318.3212
  93  -358.5745
  94  -362.9331
  95  -362.7265
  96  -339.8644
  97  -334.2572
  98  -377.9802
  99  -433.315
 100  -364.4601
 101  -399.5163
 102  -478.5814
 103  -483.0907
 104  -575.7546
 105  -559.7896
 106  -465.0096
 107  -409.989
 108  -433.6642
 109  -475.7173
 110  -487.6813
 111  -470.5416
 112  -455.1621
 113  -432.1908
 114  -363.501
 115  -432.3405
 116  -488.9052
 117  -414.6556
 118  -366.2979
 119  -378.501
 120  -486.0649
 121  -463.0928
 122  -474.0004
 123  -444.8215
 124  -421.737
 125  -460.328
 126  -390.1413
 127  -358.5335
 128  -408.9395
 129  -411.8598
 130  -433.342
 131  -445.9867
 132  -368.9033
 133  -453.7487
 134  -504.5779
 135  -474.1848
 136  -414.6706
 137  -379.4105
 138  -436.7412
 139  -359.7001
 140  -364.2768
 141  -326.6055
 142  -418.4847
 143  -397.5369
 144  -376.667
 145  -371.7594
 146  -361.0401
 147  -412.7444
 148  -524.517
 149  -392.3584
 150  -412.6214
 151  -357.9685
 152  -366.827
 153  -344.8519
 154  -317.7637
 155  -394.3308
 156  -485.5315
 157  -439.8562
 158  -331.1929
 159  -224.4437
 160  -262.692
 161  -276.9972
 162  -330.3578
 163  -395.0249
 164  -385.9374
 165  -397.73
 166  -410.7711
 167  -389.9777
 168  -395.2389
 169  -271.2343
 170  -336.5688
 171  -361.6848
 172  -322.6345
 173  -298.8622
 174  -268.0443
 175  -369.9294
 176  -433.1886
 177  -364.7952
 178  -398.5013
 179  -394.4118
 180  -424.4358
 181  -418.372
 182  -379.9122
 183  -451.7336
 184  -426.9616
 185  -374.5475
 186  -407.2477
 187  -288.1279
 188  -308.8061
 189  -328.712
 190  -398.7042
 191  -421.0126
 192  -484.8688
 193  -435.8554
 194  -439.3276
 195  -502.6907
 196  -499.9433
 197  -437.9669
 198  -343.0653
 199  -533.0219
 200  -539.7199
 201  -450.9019
 202  -428.9295
 203  -460.1196
 204  -459.4831
 205  -477.3471
 206  -510.6151
 207  -426.5094
 208  -393.1174
 209  -386.9805
 210  -394.7457
 211  -435.0957
 212  -342.4005
 213  -269.9244
 214  -349.7657
 215  -378.0678
 216  -368.8971
 217  -362.1739
 218  -383.5099
 219  -356.4559
 220  -232.2772
 221  -247.0938
 222  -280.7201
 223  -222.5539
 224  -304.8474
 225  -288.7076
 226  -298.1707
 227  -352.0249
 228  -370.3365
 229  -342.9892
 230  -398.1572
 231  -389.4955
 232  -345.0115
 233  -220.2408
 234  -257.979
 235  -122.722
 236  54.80038
 237  119.1408
 238  138.1152
 239  82.02636
 240  -10.27941
 241  -52.59463
 242  -204.5484
 243  -176.2393
 244  -248.4828
 245  -307.6166
 246  -425.672
 247  -339.6494
 248  -358.6159
 249  -343.2066
 250  -369.7594
 251  -416.9199
 252  -325.209
 253  -340.9976
 254  -322.2441
 255  -301.4931
 256  -257.5952
 257  -246.6726
 258  -298.4438
 259  -342.0632
 260  -331.0196
 261  -377.4237
 262  -348.7125
 263  -387.4767
 264  -410.2187
 265  -428.1973
 266  -443.2784
 267  -500.2559
 268  -475.3659
 269  -446.5939
 270  -437.8601
 271  -420.9474
 272  -382.0487
 273  -347.5631
 274  -399.3214
 275  -459.8478
 276  -432.6503
 277  -462.0648
 278  -487.3287
 279  -390.9072
 280  -350.3398
 281  -425.4559
 282  -386.5275
 283  -428.5469
 284  -431.495
 285  -401.8618
 286  -476.5884
 287  -499.1194
 288  -439.7567
 289  -419.0638
 290  -424.919
 291  -423.2472
 292  -468.0139
 293  -509.3237
 294  -532.5664
 295  -504.2627
 296  -477.2745
 297  -418.877
 298  -347.5169
 299  -380.9339
 300  -477.0267
 301  -486.5309
 302  -461.8249
 303  -477.983
 304  -388.2792
 305  -468.3208
 306  -476.6662
 307  -545.0319
 308  -529.5421
 309  -478.8306
 310  -430.925
 311  -501.1285
 312  -510.6384
 313  -541.3363
 314  -518.2065
 315  -521.3472
 316  -523.8749
 317  -415.4303
 318  -435.8846
 319  -419.5719
 320  -420.8044
 321  -432.8335
 322  -430.8359
 323  -478.0669
 324  -401.8836
 325  -323.9955
 326  -366.9532
 327  -492.7482
 328  -489.5727
 329  -385.3571
 330  -374.684
 331  -398.6781
 332  -476.7453
 333  -427.4637
 334  -473.6956
 335  -495.3174
 336  -478.0966
 337  -443.4409
 338  -395.7789
 339  -319.8992
 340  -395.9755
 341  -499.8148
 342  -474.6758
 343  -413.3579
 344  -481.7582
 345  -499.5484
 346  -443.4051
 347  -447.157
 348  -484.5146
 349  -482.8923
 350  -445.3996
 351  -408.6844
 352  -485.4379
 353  -450.6916
 354  -429.0406
 355  -472.5785
 356  -480.3672
 357  -456.5714
 358  -430.6157
 359  -532.7473
 360  -506.1453
 361  -497.2777
 362  -465.1618
 363  -439.7843
 364  -463.1625
 365  -538.3054
 366  -476.3389
 367  -461.8627
 368  -467.1582
 369  -435.5145
 370  -415.7289
 371  -501.7537
 372  -520.5708
 373  -382.4613
 374  -349.3315
 375  -337.9409
 376  -328.7309
 377  -309.3919
 378  -320.5735
 379  -341.8362
 380  -298.8935
 381  -450.8427
 382  -370.1563
 383  -395.3598
 384  -444.5817
 385  -404.0642
 386  -436.1395
 387  -470.6315
 388  -476.3984
 389  -482.9035
 390  -412.5405
 391  -429.9114
 392  -455.8184
 393  -473.2703
 394  -516.749
 395  -486.427
 396  -530.5736
 397  -486.0962
 398  -366.1914
 399  -480.6647
 400  -470.4895
 401  -454.7669
 402  -486.5824
 403  -443.5217
 404  -463.3707
 405  -517.6564
 406  -583.7753
 407  -550.7408
 408  -494.2547
 409  -530.5004
 410  -533.2197
 411  -489.0443
 412  -541.2974
 413  -554.692
 414  -550.1404
 415  -460.0757
 416  -444.0215
 417  -434.3644
 418  -346.159
 419  -358.5187
 420  -352.1693
 421  -343.9574
 422  -405.1289
 423  -415.0868
 424  -401.2085
 425  -425.7115
 426  -371.1303
 427  -411.5728
 428  -524.3201
 429  -552.767
 430  -386.3254
 431  -374.751
 432  -403.6532
 433  -429.8852
 434  -310.1031
 435  -336.1226
 436  -443.378
 437  -431.9905
 438  -435.0588
 439  -437.9209
 440  -399.2508
 441  -379.5758
 442  -256.811
 443  -342.3356
 444  -382.95
 445  -391.5318
 446  -388.5764
 447  -400.3152
 448  -394.6877
 449  -411.075
 450  -359.8979
 451  -405.4141
 452  -411.5476
 453  -412.5752
 454  -450.3581
 455  -512.502
 456  -384.3807
 457  -331.5426
 458  -350.8494
 459  -398.2528
 460  -398.2321
 461  -379.6716
 462  -337.6753
 463  -355.821
 464  -343.3858
 465  -377.329
 466  -340.4987
 467  -378.6157
 468  -409.7798
 469  -461.4421
 470  -399.8336
 471  -388.0842
 472  -389.9049
 473  -349.9985
 474  -369.2109
 475  -395.2345
 476  -432.4672
 477  -410.5912
 478  -420.0274
 479  -479.5042
 480  -494.0344
 481  -449.9445
 482  -443.1738
 483  -441.4265
 484  -363.6451
 485  -392.2017
 486  -308.7198
 487  -340.2354
 488  -354.378
 489  -418.9533
 490  -338.8981
 491  -308.5568
 492  -409.138
 493  -456.7597
 494  -500.5028
 495  -551.813
 496  -484.95
 497  -448.0497
 498  -422.6204
 499  -407.5425
 500  -393.5143
 501  -386.6614
 502  -434.5432
 503  -505.4509
 504  -450.2026
 505  -446.7062
 506  -473.1963
 507  -462.2548
 508  -526.7358
 509  -445.6046
 510  -431.1794
 511  -434.9199
