# Input file       =  1202466588.126555-PSRB0329-2ms-sampling-dd.dat
# Candidate        =  PSR_0332+5434
# Telescope        =  AR
# Epoch_topo       =  58161.437582483275
# Epoch_bary       =  N/A
# T_sample         =  0.002
# Data Folded      =  7208960
# Data Avg         =  1.37294634869424e-09
# Data StdDev      =  7.13226751138921 
# Profile Bins     =  512
# Profile Avg      =  0.0902504566573039
# Profile StdDev   =  846.308984440419 
# Reduced chi-sqr  =  1.126
# Prob(Noise)      <  0.0253   (~2.0 sigma)
# P_topo (ms)      =  714.579502543073  +/- 3.22e-05
# P'_topo (s/s)    =  -0                +/- 1.73e-11
# P''_topo (s/s^2) =  0                 +/- 7.77e-15
# P_bary (ms)      =  N/A
# P'_bary (s/s)    =  N/A
# P''_bary (s/s^2) =  N/A
# P_orb (s)        =  N/A
# asin(i)/c (s)    =  N/A
# eccentricity     =  N/A
# w (rad)          =  N/A
# T_peri           =  N/A
######################################################
   0  -145.3878
   1  -196.6057
   2  -234.2787
   3  -412.3466
   4  -1112.798
   5  -871.3643
   6  -100.6108
   7  -143.5141
   8  439.1052
   9  137.3338
  10  368.3553
  11  -21.08636
  12  -336.817
  13  -261.8838
  14  -23.77207
  15  243.5053
  16  -409.4466
  17  -265.0797
  18  328.8028
  19  -555.4317
  20  -959.8768
  21  -1111.605
  22  -838.2614
  23  -203.9428
  24  152.9106
  25  248.736
  26  413.3294
  27  464.9051
  28  -134.7549
  29  -561.0299
  30  -351.0716
  31  399.1957
  32  219.3902
  33  -45.1584
  34  -397.5424
  35  -393.5755
  36  -692.3754
  37  -1055.728
  38  -865.9117
  39  -596.2832
  40  60.53331
  41  253.5579
  42  581.1766
  43  868.4977
  44  377.1655
  45  -310.4656
  46  -649.8563
  47  -114.062
  48  351.4464
  49  375.4431
  50  639.1043
  51  405.553
  52  -251.8569
  53  -1261.333
  54  -1345.146
  55  -664.0673
  56  338.5084
  57  782.0555
  58  828.4111
  59  842.338
  60  226.7069
  61  -238.7458
  62  -427.6042
  63  -254.2112
  64  182.7045
  65  470.8866
  66  214.0974
  67  -224.3002
  68  -123.3571
  69  -576.8213
  70  -1058.215
  71  -683.2627
  72  -348.0257
  73  42.9871
  74  259.9896
  75  763.5251
  76  441.6524
  77  542.8476
  78  -14.90576
  79  -523.8501
  80  179.7057
  81  480.0969
  82  459.8203
  83  347.0244
  84  674.8856
  85  54.79506
  86  -834.9182
  87  -935.9082
  88  -917.5369
  89  -480.2639
  90  268.109
  91  402.8036
  92  935.8157
  93  935.5062
  94  524.9907
  95  -252.3726
  96  -194.0277
  97  231.2194
  98  271.825
  99  141.8247
 100  169.9229
 101  533.5764
 102  -296.8523
 103  -1099.563
 104  -1037.711
 105  -367.1294
 106  -284.9103
 107  337.8497
 108  437.1017
 109  850.9429
 110  898.3841
 111  -7.276921
 112  113.1861
 113  219.4905
 114  984.3026
 115  420.649
 116  -7.060627
 117  635.6227
 118  614.5851
 119  -18.87765
 120  -821.7128
 121  -963.7256
 122  -93.47586
 123  661.528
 124  1056.978
 125  753.4449
 126  535.0925
 127  404.0574
 128  -213.1807
 129  -262.6786
 130  268.9915
 131  906.422
 132  607.1415
 133  187.4939
 134  171.9771
 135  -745.8295
 136  -1599.066
 137  -1237.352
 138  -267.6028
 139  320.6354
 140  681.3473
 141  1242.397
 142  1020.94
 143  724.0723
 144  14.68014
 145  -668.7343
 146  53.64967
 147  572.6528
 148  521.4862
 149  570.1014
 150  960.3209
 151  798.3533
 152  -21.98035
 153  -709.0657
 154  -802.518
 155  -46.65173
 156  961.0038
 157  1375.992
 158  1726.265
 159  2078.544
 160  816.8104
 161  50.97999
 162  -268.1053
 163  111.0402
 164  328.3822
 165  566.5476
 166  364.8866
 167  34.82045
 168  -6.541308
 169  -728.1262
 170  -849.2135
 171  -156.7962
 172  -824.8103
 173  2526.704
 174  4411.389
 175  1830.647
 176  271.0424
 177  -535.2571
 178  -487.9886
 179  -506.5603
 180  -41.4339
 181  56.576
 182  -404.6119
 183  -113.3942
 184  -10.10591
 185  -819.049
 186  -1010.91
 187  -696.8178
 188  -235.7026
 189  323.0663
 190  -8.205284
 191  427.2728
 192  469.3915
 193  -149.0246
 194  -748.8067
 195  -816.2058
 196  -320.4834
 197  -172.1601
 198  166.8713
 199  -158.8302
 200  -299.4793
 201  -591.0012
 202  -1715.904
 203  -1482.307
 204  -911.0504
 205  -228.8553
 206  328.1725
 207  735.2305
 208  665.8762
 209  414.1744
 210  -23.3833
 211  -14.10715
 212  227.9674
 213  665.249
 214  569.7771
 215  -110.6145
 216  -423.9176
 217  -264.457
 218  -901.7441
 219  -1038.659
 220  -914.572
 221  -275.767
 222  113.3861
 223  126.9572
 224  351.4544
 225  602.8182
 226  154.8556
 227  -580.7517
 228  -530.5858
 229  -339.7001
 230  82.65833
 231  80.43587
 232  -282.6116
 233  -314.0609
 234  -463.3289
 235  -814.285
 236  -1477.626
 237  -1064.849
 238  -454.8982
 239  -35.81999
 240  483.4669
 241  59.39962
 242  238.1532
 243  -61.11092
 244  -595.4536
 245  -426.2521
 246  -191.4489
 247  101.5288
 248  -612.0367
 249  -423.2539
 250  -410.6699
 251  -1016.534
 252  -882.8642
 253  -1076.797
 254  -532.4455
 255  135.9895
 256  427.4146
 257  610.1241
 258  448.0677
 259  199.8743
 260  -387.3748
 261  -612.6724
 262  -95.77913
 263  -77.41139
 264  58.1284
 265  -5.371216
 266  159.0759
 267  -13.66802
 268  -934.127
 269  -1029.757
 270  -814.4473
 271  -399.5961
 272  516.3406
 273  663.402
 274  917.6406
 275  412.7973
 276  -342.2435
 277  -875.3729
 278  -868.9392
 279  59.16931
 280  215.8821
 281  297.5919
 282  664.4222
 283  281.4628
 284  -428.7439
 285  -1367.068
 286  -1057.853
 287  -623.097
 288  202.9008
 289  553.3406
 290  951.0043
 291  818.8439
 292  387.3653
 293  -14.11866
 294  -187.7391
 295  759.038
 296  1322.979
 297  1378.887
 298  1253.083
 299  1187.408
 300  696.9194
 301  -8.973164
 302  -598.9252
 303  -454.8681
 304  -77.54867
 305  -54.46291
 306  470.7873
 307  532.7775
 308  208.3861
 309  -20.48302
 310  -156.8624
 311  38.41909
 312  459.0894
 313  191.1196
 314  10.79032
 315  96.95576
 316  163.4004
 317  -432.6572
 318  -922.4603
 319  -899.459
 320  -725.5014
 321  20.35501
 322  321.3376
 323  578.2449
 324  470.1443
 325  113.16
 326  -284.8716
 327  -760.1136
 328  -353.2682
 329  32.37102
 330  -87.38194
 331  97.06613
 332  -110.075
 333  -289.2074
 334  -1195.228
 335  -1400.768
 336  -1191.628
 337  -689.7333
 338  -43.79788
 339  408.0231
 340  467.0124
 341  106.8532
 342  -603.9467
 343  -352.718
 344  -185.8178
 345  612.6285
 346  544.3354
 347  23.73725
 348  188.5706
 349  28.59401
 350  -482.2279
 351  -716.0803
 352  -428.2104
 353  61.73959
 354  586.0569
 355  753.0886
 356  629.7616
 357  135.2456
 358  243.5211
 359  -307.0718
 360  -241.9813
 361  48.78411
 362  207.7326
 363  151.5803
 364  -114.3384
 365  -185.6393
 366  -383.9318
 367  -658.2295
 368  -811.7453
 369  -775.3176
 370  -377.0081
 371  193.032
 372  376.3444
 373  532.4369
 374  332.3689
 375  -133.7384
 376  -791.3076
 377  -688.6068
 378  -175.65
 379  311.439
 380  -127.0499
 381  -200.7527
 382  -318.9447
 383  -418.4692
 384  -1042.726
 385  -1326.765
 386  -647.7752
 387  -150.6328
 388  113.0609
 389  502.8352
 390  293.8383
 391  50.30282
 392  -149.626
 393  -370.668
 394  -182.3563
 395  15.34494
 396  -84.97456
 397  -96.33176
 398  -208.3378
 399  -486.4998
 400  -990.1931
 401  -1003.009
 402  -497.7135
 403  -670.475
 404  -93.67551
 405  41.47304
 406  -57.54134
 407  -191.7947
 408  -175.5651
 409  -137.7063
 410  -145.202
 411  160.6816
 412  -107.4033
 413  -194.6501
 414  -146.6099
 415  -343.7548
 416  -870.3802
 417  -953.0281
 418  -756.79
 419  61.93102
 420  852.177
 421  1258.45
 422  1098.736
 423  729.019
 424  -194.7959
 425  -601.7182
 426  -45.71579
 427  442.6141
 428  886.9679
 429  822.8287
 430  466.0062
 431  557.2867
 432  47.45749
 433  154.7196
 434  652.9399
 435  901.2933
 436  1515.835
 437  1272.402
 438  1436.131
 439  1418.331
 440  1221.204
 441  286.5903
 442  17.20584
 443  140.3714
 444  -103.3778
 445  -34.5603
 446  70.14514
 447  -315.549
 448  -410.9638
 449  -673.5873
 450  -1007.837
 451  -878.9804
 452  -226.9274
 453  658.0611
 454  1038.73
 455  573.2739
 456  357.7722
 457  -401.4094
 458  -454.5823
 459  -364.4846
 460  633.297
 461  1427.614
 462  1456.087
 463  961.6988
 464  -222.4429
 465  -122.0535
 466  -424.3954
 467  -85.83813
 468  497.6736
 469  984.5273
 470  843.3604
 471  867.7704
 472  1060.475
 473  985.8199
 474  438.6423
 475  -15.86222
 476  122.5856
 477  439.2902
 478  418.3588
 479  -50.34059
 480  -27.42315
 481  -256.1751
 482  -792.7076
 483  -989.4257
 484  -772.9206
 485  -75.02892
 486  190.6081
 487  659.277
 488  823.8479
 489  519.8712
 490  215.1623
 491  -804.7062
 492  -972.8494
 493  -289.508
 494  224.4142
 495  639.7418
 496  512.1627
 497  496.3875
 498  -371.0405
 499  -1216.914
 500  -875.21
 501  -696.8245
 502  131.6618
 503  493.3573
 504  560.3934
 505  318.4721
 506  308.4319
 507  -159.6722
 508  -413.8094
 509  -342.6057
 510  208.1768
 511  397.0487
