# Input file       =  1202237599.111301_cleaned.dat
# Candidate        =  PSR_0332+5434
# Telescope        =  AR
# Epoch_topo       =  58158.787246658576
# Epoch_bary       =  N/A
# T_sample         =  0.002
# Data Folded      =  7340032
# Data Avg         =  0.0443446181598119
# Data StdDev      =  3.19223967643879 
# Profile Bins     =  1024
# Profile Avg      =  317.897992848628 
# Profile StdDev   =  270.267913893451 
# Reduced chi-sqr  =  0.889
# Prob(Noise)      <  0.995   (~0.0 sigma)
# P_topo (ms)      =  714.57921902968   +/- 0.000319
# P'_topo (s/s)    =  -0                +/- 1.68e-10
# P''_topo (s/s^2) =  0                 +/- 7.43e-14
# P_bary (ms)      =  N/A
# P'_bary (s/s)    =  N/A
# P''_bary (s/s^2) =  N/A
# P_orb (s)        =  N/A
# asin(i)/c (s)    =  N/A
# eccentricity     =  N/A
# w (rad)          =  N/A
# T_peri           =  N/A
######################################################
   0  193.2413
   1  174.8391
   2  224.312
   3  204.6231
   4  228.8848
   5  161.8331
   6  192.7986
   7  107.2539
   8  160.2074
   9  216.6233
  10  318.3158
  11  437.6737
  12  426.2854
  13  329.4504
  14  353.7154
  15  280.5957
  16  361.8413
  17  310.9918
  18  337.9782
  19  343.1238
  20  413.0048
  21  405.8484
  22  323.4546
  23  255.1265
  24  217.6609
  25  294.0803
  26  205.5788
  27  310.9941
  28  341.9917
  29  456.9027
  30  434.5843
  31  381.272
  32  313.4453
  33  427.6236
  34  396.4814
  35  404.7387
  36  187.4507
  37  167.3355
  38  198.1109
  39  193.1864
  40  142.3522
  41  167.7811
  42  243.5113
  43  345.9727
  44  413.3297
  45  345.1108
  46  254.9282
  47  210.7368
  48  254.6962
  49  250.5264
  50  222.4865
  51  210.6133
  52  223.9807
  53  354.4659
  54  359.1537
  55  298.1362
  56  250.8219
  57  276.5377
  58  268.5013
  59  281.2314
  60  323.9773
  61  284.66
  62  246.0869
  63  244.3318
  64  238.9496
  65  229.9654
  66  221.6838
  67  391.0591
  68  351.3974
  69  312.8609
  70  191.7068
  71  231.0332
  72  290.2511
  73  347.1798
  74  351.9335
  75  296.5103
  76  254.3054
  77  161.8802
  78  107.3435
  79  179.8416
  80  297.2952
  81  352.0635
  82  248.5275
  83  247.1219
  84  131.4906
  85  173.5917
  86  202.4593
  87  313.315
  88  286.0639
  89  366.1249
  90  341.9767
  91  312.6377
  92  222.9807
  93  306.4407
  94  317.5455
  95  268.361
  96  251.6875
  97  245.8027
  98  295.4331
  99  194.7992
 100  271.9856
 101  268.3474
 102  251.4475
 103  207.2229
 104  231.9508
 105  361.5739
 106  356.8809
 107  307.0515
 108  353.6768
 109  423.9314
 110  450.5681
 111  484.9051
 112  450.0752
 113  405.189
 114  319.7062
 115  315.1343
 116  346.975
 117  262.436
 118  347.5531
 119  399.651
 120  476.2763
 121  413.4304
 122  348.3623
 123  369.1636
 124  308.3053
 125  243.0395
 126  148.5591
 127  119.876
 128  169.0906
 129  307.4771
 130  357.1391
 131  341.1533
 132  321.2263
 133  347.1061
 134  308.2322
 135  309.6375
 136  290.7306
 137  328.6959
 138  342.4681
 139  353.4888
 140  372.2449
 141  333.4636
 142  190.5862
 143  167.3558
 144  196.2538
 145  295.3752
 146  72.15948
 147  56.01276
 148  92.51384
 149  225.6048
 150  230.2803
 151  135.3933
 152  112.9275
 153  205.9037
 154  226.2237
 155  225.601
 156  137.9309
 157  193.1418
 158  229.8135
 159  236.9779
 160  226.1612
 161  198.9065
 162  215.082
 163  132.6322
 164  142.7652
 165  275.6596
 166  314.4447
 167  126.4821
 168  59.78698
 169  50.71629
 170  168.6855
 171  221.9744
 172  195.1644
 173  167.6012
 174  234.6155
 175  298.8854
 176  329.4627
 177  308.3884
 178  314.0152
 179  341.9558
 180  284.382
 181  269.6291
 182  187.6691
 183  209.4423
 184  214.9837
 185  287.6204
 186  386.9994
 187  305.5685
 188  215.807
 189  164.2715
 190  160.2062
 191  168.8574
 192  283.1271
 193  421.6106
 194  501.3845
 195  442.9362
 196  323.3211
 197  185.0108
 198  160.4682
 199  203.3142
 200  313.2277
 201  356.7212
 202  287.3895
 203  134.2851
 204  131.6994
 205  213.3918
 206  228.3104
 207  155.2488
 208  128.5001
 209  218.9506
 210  310.4228
 211  356.0209
 212  370.8359
 213  321.4841
 214  140.3035
 215  59.51881
 216  6.481114
 217  213.8755
 218  228.3767
 219  305.3507
 220  285.207
 221  304.9434
 222  296.9751
 223  354.064
 224  341.5191
 225  285.6017
 226  262.5492
 227  332.8338
 228  355.6511
 229  324.9037
 230  277.1549
 231  209.7778
 232  178.6534
 233  163.8212
 234  163.5697
 235  114.2306
 236  158.257
 237  133.6805
 238  177.6446
 239  175.4394
 240  140.1453
 241  160.1861
 242  154.6683
 243  183.3967
 244  166.0727
 245  186.0429
 246  217.9364
 247  251.8246
 248  249.2545
 249  222.4375
 250  177.6494
 251  63.98685
 252  93.26877
 253  204.8049
 254  368.847
 255  417.8882
 256  512.1035
 257  557.8539
 258  498.6088
 259  240.1534
 260  200.5676
 261  290.0917
 262  475.1039
 263  361.705
 264  243.571
 265  169.7073
 266  158.2285
 267  145.7065
 268  306.933
 269  357.7679
 270  338.155
 271  267.8068
 272  414.0071
 273  404.9204
 274  350.4236
 275  316.8263
 276  335.478
 277  363.0786
 278  220.6877
 279  184.6904
 280  328.814
 281  507.0021
 282  434.3022
 283  356.9103
 284  277.1655
 285  227.1391
 286  250.1662
 287  341.8063
 288  420.857
 289  244.8358
 290  105.9592
 291  -5.442639
 292  31.96138
 293  153.4952
 294  219.9252
 295  238.5158
 296  232.2967
 297  137.1945
 298  128.5517
 299  116.852
 300  138.9454
 301  250.0607
 302  282.6576
 303  260.0606
 304  177.8747
 305  106.7266
 306  106.2775
 307  108.2166
 308  212.1024
 309  158.0753
 310  99.17368
 311  65.85465
 312  64.70476
 313  108.9953
 314  113.2587
 315  192.6142
 316  307.0147
 317  451.2202
 318  405.7607
 319  330.5179
 320  240.074
 321  213.9919
 322  140.1737
 323  207.8388
 324  190.1718
 325  194.0363
 326  248.9557
 327  271.4609
 328  254.4025
 329  299.3415
 330  367.5459
 331  365.8841
 332  301.2885
 333  239.9098
 334  219.5371
 335  208.4592
 336  291.2494
 337  309.0325
 338  352.6102
 339  323.6287
 340  269.9505
 341  187.5523
 342  122.3509
 343  105.6803
 344  112.6599
 345  146.1354
 346  50.62699
 347  111.4361
 348  67.58441
 349  137.8767
 350  193.8912
 351  312.4036
 352  363.0872
 353  364.7319
 354  345.9808
 355  364.2013
 356  265.6238
 357  133.4135
 358  7.225636
 359  75.60739
 360  27.79304
 361  74.06683
 362  151.698
 363  226.2855
 364  211.5522
 365  136.5359
 366  152.7753
 367  100.6522
 368  20.38392
 369  71.36796
 370  99.75645
 371  162.5528
 372  23.07695
 373  -16.41821
 374  43.42174
 375  111.0035
 376  218.8214
 377  248.9554
 378  338.2884
 379  372.5851
 380  183.2869
 381  189.5612
 382  233.8821
 383  364.1336
 384  330.9015
 385  371.9307
 386  318.3951
 387  178.4246
 388  78.05534
 389  182.9753
 390  290.4861
 391  403.8974
 392  336.2053
 393  351.6107
 394  305.1134
 395  243.0423
 396  222.4538
 397  240.6411
 398  217.2068
 399  169.5118
 400  183.8967
 401  308.7451
 402  416.2582
 403  444.6897
 404  509.9636
 405  536.0112
 406  541.8281
 407  373.2961
 408  332.8383
 409  427.5804
 410  445.54
 411  386.3536
 412  327.4816
 413  470.4928
 414  469.8617
 415  287.7363
 416  138.6062
 417  128.3251
 418  253.4049
 419  145.8382
 420  124.0683
 421  175.8896
 422  169.4016
 423  179.12
 424  162.078
 425  343.4841
 426  350.3162
 427  304.4487
 428  225.4038
 429  248.1116
 430  232.8618
 431  249.2641
 432  211.086
 433  253.099
 434  330.1447
 435  389.2379
 436  337.9774
 437  264.048
 438  229.9465
 439  304.2188
 440  336.8178
 441  349.3051
 442  388.5074
 443  252.2844
 444  326.439
 445  320.5526
 446  514.2385
 447  400.0569
 448  394.2945
 449  313.6744
 450  289.5042
 451  282.6737
 452  357.4302
 453  464.3748
 454  571.9035
 455  562.6196
 456  480.0199
 457  396.0449
 458  384.7508
 459  406.8372
 460  289.965
 461  176.5078
 462  152.8195
 463  108.3083
 464  117.0636
 465  143.6079
 466  267.6151
 467  313.2835
 468  374.4264
 469  495.1825
 470  588.5776
 471  598.541
 472  439.0961
 473  361.3053
 474  277.9751
 475  265.3751
 476  228.5559
 477  230.9753
 478  224.7632
 479  198.5904
 480  280.1949
 481  279.6257
 482  266.2288
 483  207.0095
 484  252.6787
 485  305.4528
 486  350.9086
 487  365.4144
 488  425.468
 489  460.128
 490  494.9752
 491  546.9838
 492  496.6468
 493  336.1245
 494  303.5302
 495  390.4934
 496  489.4477
 497  348.3259
 498  237.1488
 499  174.2754
 500  54.33099
 501  84.20303
 502  196.1373
 503  351.6589
 504  382.469
 505  409.1276
 506  493.415
 507  430.8438
 508  272.2189
 509  232.3386
 510  320.804
 511  401.5919
 512  413.7266
 513  419.1411
 514  412.3051
 515  405.1929
 516  437.4609
 517  403.6395
 518  388.2204
 519  471.9841
 520  536.5203
 521  484.4914
 522  336.2424
 523  211.2552
 524  207.1025
 525  338.6819
 526  428.7897
 527  476.9096
 528  474.0287
 529  471.8755
 530  346.8336
 531  355.3165
 532  374.0502
 533  421.0713
 534  465.4344
 535  466.8885
 536  400.5013
 537  225.3197
 538  102.1965
 539  175.2314
 540  387.9767
 541  411.3104
 542  294.0495
 543  264.0521
 544  353.1383
 545  478.3399
 546  347.6361
 547  358.9741
 548  275.762
 549  351.3882
 550  248.1156
 551  235.6233
 552  201.4424
 553  252.4174
 554  178.3123
 555  181.4164
 556  248.3715
 557  366.1891
 558  243.7182
 559  196.0309
 560  236.9562
 561  425.741
 562  452.5356
 563  344.0019
 564  297.4048
 565  182.088
 566  231.7484
 567  222.6212
 568  290.6315
 569  295.677
 570  455.3038
 571  520.8958
 572  577.8065
 573  491.6265
 574  485.3749
 575  413.5833
 576  422.1635
 577  460.5095
 578  456.1183
 579  395.1042
 580  452.682
 581  462.362
 582  551.5635
 583  480.1409
 584  495.2491
 585  442.654
 586  413.3095
 587  450.0701
 588  462.9776
 589  548.2508
 590  542.8672
 591  480.3988
 592  538.6157
 593  565.5973
 594  581.462
 595  398.5379
 596  323.8246
 597  233.6198
 598  304.8787
 599  304.7957
 600  320.1556
 601  359.4124
 602  478.8833
 603  600.4368
 604  664.8534
 605  737.5078
 606  677.0212
 607  731.7491
 608  756.4781
 609  995.626
 610  1091.008
 611  1219.354
 612  1125.233
 613  1108.321
 614  1030.862
 615  960.736
 616  908.0444
 617  854.9293
 618  792.7288
 619  629.9852
 620  459.7163
 621  409.6691
 622  462.596
 623  511.2729
 624  579.5461
 625  558.4415
 626  439.259
 627  460.8463
 628  492.6129
 629  527.5028
 630  476.4753
 631  422.1845
 632  397.8426
 633  351.3779
 634  234.3604
 635  203.4699
 636  213.2801
 637  382.7399
 638  522.3755
 639  571.0863
 640  481.3686
 641  432.0573
 642  252.6869
 643  229.132
 644  219.0639
 645  308.2915
 646  326.3223
 647  243.665
 648  257.1763
 649  324.7535
 650  393.8472
 651  501.2248
 652  474.8167
 653  463.7247
 654  284.1552
 655  240.7573
 656  190.8366
 657  172.82
 658  148.8425
 659  152.15
 660  221.5018
 661  235.8489
 662  255.83
 663  296.4335
 664  296.908
 665  303.423
 666  232.4363
 667  244.4874
 668  321.1111
 669  319.1096
 670  409.1205
 671  481.879
 672  487.2492
 673  253.0013
 674  167.7483
 675  184.1563
 676  183.4474
 677  191.8644
 678  245.1617
 679  430.2607
 680  499.0138
 681  528.1979
 682  398.9227
 683  239.5736
 684  167.2155
 685  124.0662
 686  246.4277
 687  279.9223
 688  291.4246
 689  297.6869
 690  213.1264
 691  249.7671
 692  173.2763
 693  239.2184
 694  314.345
 695  337.6219
 696  270.3562
 697  192.6436
 698  266.7729
 699  372.6764
 700  458.3775
 701  430.1749
 702  430.4846
 703  355.5789
 704  355.4488
 705  351.6372
 706  236.9137
 707  199.1424
 708  201.155
 709  208.2676
 710  230.8317
 711  290.045
 712  340.4622
 713  280.9434
 714  269.0247
 715  349.2399
 716  505.7067
 717  507.0331
 718  502.03
 719  403.6628
 720  438.4545
 721  406.2973
 722  508.6866
 723  598.967
 724  611.978
 725  575.9084
 726  494.9893
 727  442.8442
 728  468.0497
 729  498.3914
 730  486.5412
 731  519.4321
 732  458.653
 733  404.7305
 734  278.0001
 735  219.4308
 736  142.8555
 737  155.6949
 738  266.9682
 739  329.0458
 740  288.0564
 741  230.7214
 742  316.6208
 743  386.0211
 744  269.7737
 745  102.3429
 746  146.2464
 747  231.5449
 748  214.9976
 749  46.42262
 750  98.02817
 751  218.9634
 752  308.2554
 753  404.2489
 754  413.4844
 755  412.3202
 756  316.3821
 757  273.0605
 758  341.4631
 759  327.6458
 760  381.9481
 761  316.5043
 762  453.5923
 763  439.5901
 764  440.4526
 765  352.5582
 766  399.5139
 767  415.0372
 768  353.8438
 769  344.8309
 770  354.254
 771  375.0016
 772  351.7631
 773  375.1701
 774  314.1121
 775  222.1727
 776  182.565
 777  243.2331
 778  312.3877
 779  315.9329
 780  253.5363
 781  189.3198
 782  220.3152
 783  327.5798
 784  400.956
 785  324.3682
 786  210.9182
 787  188.1632
 788  233.2931
 789  363.2748
 790  304.9365
 791  238.7158
 792  245.1472
 793  384.5119
 794  424.7838
 795  307.4825
 796  160.4389
 797  223.7026
 798  279.1946
 799  345.3699
 800  310.5512
 801  269.7716
 802  236.9415
 803  181.3585
 804  207.8092
 805  278.6711
 806  304.7401
 807  209.1445
 808  148.0798
 809  191.4002
 810  219.9489
 811  273.6896
 812  286.8469
 813  165.0559
 814  81.35637
 815  218.5372
 816  365.9729
 817  374.2635
 818  246.895
 819  222.5741
 820  332.9673
 821  427.4824
 822  464.6887
 823  359.8751
 824  386.6361
 825  352.4525
 826  371.1713
 827  465.781
 828  474.4547
 829  392.4319
 830  287.4277
 831  320.3013
 832  220.0928
 833  213.6002
 834  204.2851
 835  408.5024
 836  499.5798
 837  509.3067
 838  374.8894
 839  384.4236
 840  424.9182
 841  418.2671
 842  337.7711
 843  426.7075
 844  523.24
 845  562.048
 846  536.0441
 847  482.1452
 848  461.469
 849  522.3839
 850  522.4269
 851  535.8057
 852  394.805
 853  454.4216
 854  356.7984
 855  325.3389
 856  305.2834
 857  382.4968
 858  377.343
 859  200.0669
 860  259.3722
 861  419.6691
 862  524.7764
 863  307.2191
 864  183.3499
 865  239.7937
 866  362.4706
 867  417.3443
 868  443.5453
 869  525.0194
 870  525.9323
 871  513.1451
 872  329.6899
 873  209.1796
 874  248.0718
 875  450.2614
 876  528.614
 877  409.2906
 878  375.0577
 879  356.3863
 880  416.8455
 881  344.658
 882  449.8459
 883  522.3582
 884  537.2012
 885  448.087
 886  319.2707
 887  307.7438
 888  348.4581
 889  407.9229
 890  360.2426
 891  246.6585
 892  274.8601
 893  278.2675
 894  240.4528
 895  163.448
 896  260.2625
 897  383.4421
 898  436.0186
 899  468.3058
 900  389.5722
 901  425.6395
 902  452.128
 903  560.1663
 904  667.9539
 905  670.9564
 906  579.1046
 907  472.6848
 908  451.7682
 909  317.2486
 910  298.4402
 911  290.8297
 912  353.2148
 913  363.7339
 914  452.0438
 915  507.2974
 916  528.8467
 917  438.2042
 918  374.9386
 919  353.0154
 920  370.5194
 921  393.3934
 922  360.9109
 923  392.627
 924  380.813
 925  350.7817
 926  280.4012
 927  272.074
 928  339.2667
 929  331.3809
 930  343.5433
 931  311.7589
 932  350.97
 933  370.3984
 934  405.8793
 935  320.8524
 936  262.7023
 937  382.4592
 938  466.0149
 939  569.9362
 940  477.6714
 941  501.0658
 942  430.0874
 943  457.0366
 944  439.8432
 945  426.2169
 946  451.3784
 947  417.1748
 948  325.6858
 949  149.2598
 950  136.2296
 951  210.897
 952  335.1197
 953  411.2393
 954  277.5201
 955  285.4572
 956  204.9792
 957  268.8921
 958  217.3261
 959  297.1529
 960  277.7193
 961  226.6964
 962  192.5476
 963  236.6987
 964  327.2203
 965  468.4307
 966  359.7443
 967  255.2482
 968  183.9489
 969  339.8156
 970  299.7653
 971  191.1441
 972  244.9695
 973  328.9003
 974  390.0503
 975  359.2391
 976  356.684
 977  315.2732
 978  296.3597
 979  422.6207
 980  395.5581
 981  404.8124
 982  430.0616
 983  553.0078
 984  498.8477
 985  255.0091
 986  263.4418
 987  215.703
 988  237.3919
 989  280.2871
 990  297.9078
 991  320.7069
 992  208.717
 993  317.6125
 994  310.2318
 995  395.7077
 996  330.1695
 997  378.179
 998  468.9641
 999  533.1826
1000  531.0903
1001  522.2932
1002  454.4558
1003  390.7496
1004  405.1337
1005  449.4081
1006  449.8899
1007  386.2877
1008  342.8465
1009  289.7335
1010  208.1575
1011  238.6236
1012  193.0344
1013  230.5103
1014  321.1205
1015  302.6772
1016  293.7671
1017  224.0655
1018  299.6101
1019  382.8951
1020  437.3287
1021  401.1678
1022  312.7734
1023  247.0205
