# Input file       =  1202552800.128057_cleaned.dat
# Candidate        =  PSR_0332+5434
# Telescope        =  AR
# Epoch_topo       =  58162.435406574732
# Epoch_bary       =  N/A
# T_sample         =  0.002
# Data Folded      =  7208960
# Data Avg         =  0.033830306084234
# Data StdDev      =  5.36406732101598 
# Profile Bins     =  512
# Profile Avg      =  477.908776296798 
# Profile StdDev   =  636.495807212767 
# Reduced chi-sqr  =  0.911
# Prob(Noise)      <  0.926   (~0.0 sigma)
# P_topo (ms)      =  714.579707844809  +/- 3.66e-05
# P'_topo (s/s)    =  -0                +/- 1.97e-11
# P''_topo (s/s^2) =  0                 +/- 8.84e-15
# P_bary (ms)      =  N/A
# P'_bary (s/s)    =  N/A
# P''_bary (s/s^2) =  N/A
# P_orb (s)        =  N/A
# asin(i)/c (s)    =  N/A
# eccentricity     =  N/A
# w (rad)          =  N/A
# T_peri           =  N/A
######################################################
   0  703.3257
   1  444.9904
   2  451.737
   3  827.2379
   4  477.2108
   5  -32.25987
   6  -36.08677
   7  472.1218
   8  401.5779
   9  728.7943
  10  775.0787
  11  227.2605
  12  -124.0784
  13  -443.443
  14  295.063
  15  522.9189
  16  697.6205
  17  1263.02
  18  1169.448
  19  1039.027
  20  792.5684
  21  76.12564
  22  273.4036
  23  273.5013
  24  402.2833
  25  313.9357
  26  761.728
  27  1263.539
  28  561.3558
  29  62.42927
  30  -145.1272
  31  -92.03239
  32  296.1909
  33  647.3326
  34  1188.64
  35  1100.955
  36  958.5767
  37  816.6634
  38  387.0388
  39  280.7043
  40  -17.26385
  41  -134.0645
  42  519.478
  43  909.1683
  44  1186.466
  45  690.2417
  46  140.9264
  47  100.5041
  48  595.269
  49  436.7512
  50  391.9785
  51  882.8567
  52  1055.919
  53  375.8792
  54  265.1921
  55  114.7504
  56  318.0027
  57  306.7812
  58  150.9647
  59  753.0007
  60  787.5569
  61  779.9703
  62  539.774
  63  208.8894
  64  645.6838
  65  581.3842
  66  1025.671
  67  1389.839
  68  1232.659
  69  856.4586
  70  99.86847
  71  -400.8073
  72  -68.07016
  73  -6.501984
  74  10.87932
  75  656.7811
  76  970.5881
  77  312.4665
  78  146.3196
  79  -151.1552
  80  307.4231
  81  547.4079
  82  95.32407
  83  143.2508
  84  454.5786
  85  565.3151
  86  149.3817
  87  -357.6156
  88  -322.1804
  89  -32.54586
  90  88.33228
  91  540.9896
  92  552.4385
  93  422.8239
  94  -2.982295
  95  -369.5564
  96  -297.4183
  97  140.1259
  98  441.8191
  99  611.2249
 100  499.6358
 101  664.7767
 102  573.5146
 103  -154.7906
 104  -240.2657
 105  -261.916
 106  80.57488
 107  -99.54642
 108  163.6541
 109  832.592
 110  471.1695
 111  -4.867197
 112  -42.16785
 113  -19.86729
 114  76.56644
 115  423.2431
 116  1068.206
 117  1267.175
 118  1110.977
 119  779.1793
 120  -12.87306
 121  -467.1187
 122  -573.494
 123  -215.3767
 124  307.8207
 125  294.7283
 126  445.9092
 127  325.5714
 128  -166.9759
 129  -19.95104
 130  -303.598
 131  199.781
 132  460.5408
 133  782.7254
 134  943.2622
 135  595.986
 136  534.7988
 137  -235.0436
 138  -71.75443
 139  81.55724
 140  10.72517
 141  353.6066
 142  767.9619
 143  803.8487
 144  250.5713
 145  16.00283
 146  -45.19772
 147  -174.1502
 148  107.0196
 149  433.7722
 150  678.1688
 151  774.9053
 152  983.7941
 153  814.2604
 154  161.7988
 155  355.1763
 156  146.4824
 157  -105.1651
 158  132.0771
 159  532.8758
 160  197.4485
 161  -55.1255
 162  -58.74503
 163  215.7932
 164  602.9722
 165  581.7987
 166  696.0828
 167  664.8053
 168  354.4615
 169  -329.6129
 170  -519.0556
 171  177.2438
 172  424.0861
 173  275.6703
 174  772.1723
 175  726.7878
 176  -61.83529
 177  -335.2131
 178  -102.8665
 179  55.12373
 180  250.5882
 181  478.9804
 182  604.5096
 183  921.3063
 184  441.431
 185  304.8929
 186  40.27494
 187  -126.6391
 188  7.499909
 189  202.4149
 190  707.2368
 191  842.2827
 192  1359.568
 193  899.3253
 194  298.3929
 195  -229.9298
 196  -113.9115
 197  631.4214
 198  1075.392
 199  1391.857
 200  1329.678
 201  873.5461
 202  521.3717
 203  -94.89014
 204  30.12526
 205  -23.32861
 206  25.63773
 207  438.233
 208  732.9967
 209  1068.502
 210  779.4604
 211  372.9421
 212  169.9583
 213  202.2805
 214  -29.04865
 215  576.1494
 216  779.9575
 217  1197.553
 218  806.2075
 219  118.9624
 220  36.50826
 221  -216.9158
 222  -174.6511
 223  -320.5278
 224  132.2839
 225  777.7071
 226  568.8229
 227  418.538
 228  151.518
 229  389.8591
 230  103.9739
 231  561.8866
 232  817.2862
 233  888.6633
 234  683.5648
 235  315.5928
 236  259.8335
 237  192.9769
 238  400.3042
 239  207.0058
 240  289.7126
 241  583.8276
 242  349.0623
 243  35.98009
 244  -25.48088
 245  268.9209
 246  419.0299
 247  563.3566
 248  701.9964
 249  1076.566
 250  1304.148
 251  344.4281
 252  9.294539
 253  194.907
 254  236.2608
 255  327.0514
 256  200.2989
 257  585.0355
 258  408.602
 259  307.5896
 260  -364.3269
 261  -401.1817
 262  108.6936
 263  357.5036
 264  556.6924
 265  677.4324
 266  611.5169
 267  510.8774
 268  410.728
 269  244.7943
 270  435.4599
 271  891.1207
 272  855.2601
 273  624.5674
 274  943.7012
 275  983.5521
 276  491.2001
 277  284.3064
 278  432.3837
 279  420.3009
 280  573.5012
 281  1132.414
 282  1667.041
 283  1148.149
 284  814.7989
 285  251.2028
 286  550.4493
 287  947.272
 288  553.0251
 289  858.9753
 290  1226.289
 291  1213.575
 292  679.9932
 293  396.8974
 294  639.267
 295  713.9128
 296  811.2489
 297  835.8898
 298  1168.763
 299  1598.687
 300  1464.422
 301  1065.815
 302  790.379
 303  633.7933
 304  1001.544
 305  1704.071
 306  2131.118
 307  2411.373
 308  2175.171
 309  1725.811
 310  795.6865
 311  963.4243
 312  820.098
 313  386.6697
 314  1118.606
 315  1188.144
 316  1231.858
 317  995.64
 318  758.139
 319  254.8099
 320  7.931129
 321  299.5457
 322  64.81357
 323  477.8926
 324  740.6719
 325  477.707
 326  331.7918
 327  214.544
 328  494.7804
 329  523.0663
 330  649.8629
 331  643.1508
 332  956.5466
 333  789.908
 334  506.3421
 335  364.0867
 336  351.3948
 337  569.3802
 338  234.178
 339  159.3791
 340  107.5959
 341  296.1699
 342  194.4782
 343  46.22158
 344  330.3231
 345  560.0779
 346  898.6878
 347  864.7129
 348  1068.678
 349  920.0779
 350  342.1788
 351  316.3445
 352  150.7647
 353  167.4864
 354  186.8495
 355  369.7243
 356  700.9379
 357  607.0858
 358  677.4652
 359  -53.44823
 360  -197.4414
 361  72.21494
 362  565.8562
 363  643.1006
 364  1200.809
 365  1442.511
 366  923.0872
 367  324.6565
 368  391.7814
 369  195.1072
 370  529.9829
 371  175.5857
 372  304.7646
 373  1057.555
 374  891.5308
 375  266.7104
 376  128.2631
 377  -109.8638
 378  370.8423
 379  497.6849
 380  929.7161
 381  1116.985
 382  795.095
 383  650.9081
 384  22.17237
 385  -104.6136
 386  135.3201
 387  151.6968
 388  537.0842
 389  862.2164
 390  689.6991
 391  585.8079
 392  136.5623
 393  -135.7009
 394  463.3865
 395  1010.363
 396  984.6194
 397  1121.93
 398  1216.257
 399  897.2307
 400  612.197
 401  74.66299
 402  489.688
 403  647.5783
 404  -91.67931
 405  401.5568
 406  496.5858
 407  808.1058
 408  629.515
 409  437.194
 410  593.6279
 411  584.642
 412  382.0689
 413  780.6728
 414  583.9211
 415  462.8743
 416  241.1878
 417  -63.26344
 418  219.745
 419  -181.5703
 420  94.14565
 421  298.2904
 422  575.4266
 423  156.4345
 424  -64.28259
 425  227.2273
 426  -60.54151
 427  -111.3877
 428  267.6649
 429  549.3044
 430  618.2202
 431  777.5417
 432  876.8248
 433  373.8155
 434  205.7708
 435  294.7058
 436  -41.45816
 437  211.8961
 438  678.5196
 439  752.1893
 440  634.2352
 441  374.2246
 442  137.4147
 443  -94.13151
 444  194.571
 445  547.9513
 446  817.6074
 447  1423.893
 448  1248.497
 449  970.0382
 450  654.1607
 451  -29.76697
 452  115.4694
 453  31.94173
 454  147.5189
 455  581.1347
 456  910.0558
 457  903.7087
 458  272.0615
 459  44.01714
 460  329.8815
 461  845.1322
 462  1087.256
 463  1442.587
 464  1744.735
 465  1479.051
 466  807.1893
 467  440.9682
 468  409.1733
 469  573.5615
 470  750.2425
 471  667.5884
 472  762.4094
 473  648.9445
 474  78.25739
 475  309.0257
 476  464.8311
 477  258.2541
 478  518.9345
 479  628.9456
 480  1197.024
 481  1223.128
 482  1019.705
 483  523.954
 484  140.5085
 485  378.195
 486  414.0954
 487  472.227
 488  -5.619528
 489  684.7094
 490  628.0202
 491  164.5666
 492  -64.51966
 493  92.89321
 494  570.4086
 495  606.7052
 496  695.8608
 497  1205.47
 498  912.9622
 499  704.6817
 500  288.3476
 501  181.1731
 502  897.6063
 503  534.4593
 504  718.6747
 505  1018.913
 506  605.9036
 507  527.3199
 508  236.9409
 509  212.7349
 510  393.3663
 511  731.8826
