# Input file       =  1202380413.111722-PSRB0329-2ms-sampling-dd.dat
# Candidate        =  PSR_0332+5434
# Telescope        =  AR
# Epoch_topo       =  58160.440186478263
# Epoch_bary       =  N/A
# T_sample         =  0.002
# Data Folded      =  7208960
# Data Avg         =  -4.72895905160921e-10
# Data StdDev      =  6.12554827984402 
# Profile Bins     =  512
# Profile Avg      =  0.396615957261463
# Profile StdDev   =  726.852510169771 
# Reduced chi-sqr  =  0.857
# Prob(Noise)      <  0.992   (~0.0 sigma)
# P_topo (ms)      =  714.579278567568  +/- 5.05e-05
# P'_topo (s/s)    =  -0                +/- 2.71e-11
# P''_topo (s/s^2) =  0                 +/- 1.22e-14
# P_bary (ms)      =  N/A
# P'_bary (s/s)    =  N/A
# P''_bary (s/s^2) =  N/A
# P_orb (s)        =  N/A
# asin(i)/c (s)    =  N/A
# eccentricity     =  N/A
# w (rad)          =  N/A
# T_peri           =  N/A
######################################################
   0  39.07308
   1  -365.7813
   2  -212.324
   3  -150.2369
   4  -295.9349
   5  -149.1584
   6  -264.3453
   7  -79.88876
   8  -555.6346
   9  -589.0993
  10  -740.1467
  11  -1032.755
  12  -992.8207
  13  -326.2348
  14  618.409
  15  842.9921
  16  875.1503
  17  309.7794
  18  -159.9274
  19  -220.0365
  20  -613.3771
  21  -348.1456
  22  -73.92364
  23  436.6586
  24  435.1209
  25  277.5101
  26  -244.2198
  27  -621.6221
  28  -830.8383
  29  -707.4646
  30  -353.5644
  31  397.1668
  32  336.325
  33  54.34589
  34  38.67131
  35  -113.3678
  36  -98.96406
  37  -330.9844
  38  -586.1656
  39  -335.1962
  40  -177.1283
  41  -184.7083
  42  -465.7451
  43  -475.0243
  44  -522.5205
  45  -681.2587
  46  -365.9373
  47  491.8999
  48  851.3864
  49  675.3205
  50  552.9666
  51  117.5426
  52  -234.9166
  53  -269.6227
  54  -240.5893
  55  81.55038
  56  221.0529
  57  565.7342
  58  245.9447
  59  72.88743
  60  -82.7067
  61  -6.127231
  62  272.4537
  63  505.1788
  64  1112.874
  65  1090.284
  66  931.4152
  67  109.8534
  68  87.7263
  69  49.45326
  70  -386.5863
  71  -698.2973
  72  -357.9845
  73  -88.02168
  74  -770.9095
  75  -1160.788
  76  -604.8557
  77  -352.0587
  78  -480.9341
  79  -179.7458
  80  344.7625
  81  458.0072
  82  -275.0598
  83  -681.9697
  84  -6.601846
  85  -12.46371
  86  -301.322
  87  -639.3344
  88  -194.8627
  89  -71.16261
  90  -382.507
  91  -223.452
  92  53.70441
  93  75.51169
  94  -300.4164
  95  -566.6489
  96  -286.4641
  97  211.2123
  98  683.6166
  99  493.7059
 100  286.3153
 101  507.1131
 102  609.394
 103  -184.1962
 104  -476.1061
 105  157.4531
 106  287.2111
 107  -63.49841
 108  -480.1143
 109  -593.8068
 110  -494.3032
 111  -439.2176
 112  -269.2091
 113  212.4189
 114  481.6364
 115  181.4521
 116  119.3191
 117  25.48358
 118  301.8582
 119  -11.79645
 120  120.2531
 121  226.6756
 122  284.1272
 123  -50.77258
 124  131.1993
 125  46.66863
 126  -92.4022
 127  195.4266
 128  -249.545
 129  -4.079548
 130  902.751
 131  995.3879
 132  1024.037
 133  341.9534
 134  -81.73095
 135  -501.9241
 136  -788.3905
 137  -254.3693
 138  201.1595
 139  616.8589
 140  210.5409
 141  -481.7513
 142  -279.7922
 143  -428.5092
 144  -732.3766
 145  -199.56
 146  356.2534
 147  714.6384
 148  -152.901
 149  -549.0358
 150  -121.6723
 151  515.9677
 152  489.1382
 153  131.2312
 154  -112.9571
 155  -251.5102
 156  -741.5197
 157  -641.9433
 158  -333.7505
 159  196.2422
 160  383.6963
 161  36.07031
 162  -167.6767
 163  120.7663
 164  483.7141
 165  488.8263
 166  374.2269
 167  670.0941
 168  -66.31054
 169  -323.0609
 170  -301.7652
 171  197.2247
 172  308.0954
 173  16.58649
 174  -47.47209
 175  -750.446
 176  -689.584
 177  -736.2533
 178  -681.0784
 179  156.6545
 180  754.5367
 181  582.3868
 182  -38.06488
 183  243.3555
 184  342.8427
 185  -83.99485
 186  -241.6904
 187  308.5412
 188  814.1301
 189  710.6763
 190  63.69495
 191  -470.6889
 192  -737.428
 193  -285.5984
 194  -27.16188
 195  335.6889
 196  908.3322
 197  754.8015
 198  420.2715
 199  -44.21598
 200  -483.2267
 201  -318.4336
 202  -110.3863
 203  37.3702
 204  414.5434
 205  548.9534
 206  178.0997
 207  -501.2184
 208  -865.368
 209  -844.8941
 210  -768.3595
 211  -571.8488
 212  -75.64607
 213  685.7377
 214  803.8997
 215  313.9805
 216  -44.06539
 217  -324.8126
 218  -359.8545
 219  -80.12108
 220  -313.056
 221  181.2055
 222  35.05545
 223  -406.2238
 224  -591.9492
 225  -370.055
 226  185.8773
 227  236.9702
 228  171.0279
 229  353.4653
 230  342.4019
 231  21.98296
 232  -314.7002
 233  88.94019
 234  178.0262
 235  -31.10946
 236  137.8863
 237  179.2914
 238  -96.2401
 239  -206.6645
 240  -182.168
 241  -151.1164
 242  -131.1808
 243  -197.8233
 244  -204.9529
 245  298.2822
 246  703.2856
 247  1033.441
 248  798.5135
 249  443.9168
 250  155.4705
 251  29.3357
 252  -616.9169
 253  -327.1562
 254  377.7309
 255  601.0047
 256  195.4571
 257  2.228852
 258  -10.40678
 259  -339.2737
 260  -741.9352
 261  -295.0602
 262  609.6138
 263  753.4137
 264  652.7271
 265  518.0275
 266  -8.767464
 267  39.92666
 268  -65.89347
 269  207.3777
 270  486.8981
 271  643.9569
 272  616.3922
 273  94.17017
 274  -450.6477
 275  -321.4497
 276  -339.1544
 277  -328.3113
 278  142.6307
 279  848.3464
 280  560.6141
 281  346.5741
 282  364.6346
 283  -259.9411
 284  -357.5182
 285  -629.3835
 286  -323.73
 287  77.73517
 288  408.5966
 289  108.9082
 290  -359.3813
 291  -395.5837
 292  -203.9395
 293  -511.9146
 294  -169.5788
 295  461.3215
 296  583.8941
 297  266.3084
 298  -60.68575
 299  167.1101
 300  353.8643
 301  -119.0294
 302  -17.82443
 303  302.4923
 304  166.5978
 305  -93.90274
 306  -283.6249
 307  238.6462
 308  92.21188
 309  23.97983
 310  123.0014
 311  236.8404
 312  969.3509
 313  871.7073
 314  254.8765
 315  282.9196
 316  138.2798
 317  60.55342
 318  -79.97761
 319  -259.9509
 320  238.3032
 321  173.5609
 322  63.17955
 323  -54.06379
 324  9.931248
 325  65.31495
 326  198.8172
 327  153.1919
 328  441.7619
 329  870.7805
 330  632.4829
 331  777.1351
 332  726.7997
 333  599.6287
 334  414.8359
 335  -218.1012
 336  51.47205
 337  260.6847
 338  29.17806
 339  -304.7077
 340  -369.8329
 341  35.02441
 342  -540.3599
 343  -615.3773
 344  79.41984
 345  304.7421
 346  143.4269
 347  -288.9935
 348  -138.649
 349  -33.93309
 350  -204.6483
 351  -114.264
 352  -9.925837
 353  10.37572
 354  -146.7863
 355  -286.1006
 356  -656.5258
 357  -920.2376
 358  -670.2534
 359  -522.2672
 360  -147.955
 361  328.2083
 362  964.6671
 363  561.7515
 364  201.3438
 365  -319.7776
 366  -73.12221
 367  -401.944
 368  -676.8171
 369  -156.4975
 370  423.314
 371  300.3957
 372  -572.7534
 373  -631.7748
 374  -565.3511
 375  -774.3638
 376  -340.8563
 377  161.4264
 378  561.8747
 379  167.3114
 380  -65.56905
 381  -503.0789
 382  -187.711
 383  -326.7393
 384  -564.6234
 385  -531.0343
 386  -879.0962
 387  -493.5088
 388  -863.2763
 389  -1006.918
 390  -702.0644
 391  -647.5691
 392  -394.9696
 393  -299.9679
 394  249.0847
 395  641.1249
 396  266.607
 397  -396.5634
 398  -465.9214
 399  -60.04538
 400  -259.87
 401  -460.3918
 402  81.10564
 403  568.7086
 404  -58.91753
 405  -731.7315
 406  -567.8746
 407  -440.5201
 408  -198.079
 409  -0.2831841
 410  271.2838
 411  272.7263
 412  42.12879
 413  -144.9438
 414  -313.8864
 415  -84.53182
 416  -87.36493
 417  -31.51445
 418  -658.0836
 419  -438.7135
 420  -257.344
 421  -732.0743
 422  -777.4327
 423  -517.7099
 424  -359.0171
 425  -330.2589
 426  77.05253
 427  513.8224
 428  518.1113
 429  552.7654
 430  151.073
 431  -143.2183
 432  9.856825
 433  -226.4521
 434  -290.7797
 435  261.2349
 436  579.0095
 437  0.9853615
 438  -897.778
 439  -958.7377
 440  -533.8971
 441  -314.7502
 442  -99.18997
 443  527.7213
 444  288.7277
 445  565.7245
 446  -130.57
 447  -494.2662
 448  -455.3892
 449  -424.8448
 450  -338.2625
 451  -412.4567
 452  262.4048
 453  43.00949
 454  -302.1844
 455  -630.8057
 456  -514.9899
 457  -698.4547
 458  -738.1581
 459  -99.02866
 460  584.1296
 461  1044.482
 462  749.5153
 463  220.5562
 464  -193.7544
 465  -226.2406
 466  -537.8808
 467  -115.3237
 468  584.6264
 469  584.0139
 470  20.27908
 471  -675.0485
 472  -574.9106
 473  -389.048
 474  -475.9162
 475  -11.83976
 476  316.2333
 477  1152.3
 478  884.4707
 479  540.839
 480  -86.05615
 481  -12.44693
 482  -7.986419
 483  -531.5103
 484  -526.1804
 485  -4.981791
 486  276.4933
 487  49.72015
 488  -258.5817
 489  -357.2495
 490  -574.6669
 491  -3.682848
 492  464.132
 493  1785.353
 494  2254.679
 495  2260.694
 496  1651.753
 497  1323.616
 498  1066.024
 499  722.6295
 500  521.4838
 501  665.9781
 502  946.3702
 503  143.3792
 504  -225.5301
 505  -499.3181
 506  -167.1848
 507  -63.51855
 508  279.2274
 509  917.5557
 510  793.7714
 511  744.6915
