# Input file       =  1202409950.12076_cleaned.dat
# Candidate        =  PSR_0332+5434
# Telescope        =  AR
# Epoch_topo       =  58160.782050008798
# Epoch_bary       =  N/A
# T_sample         =  0.002
# Data Folded      =  7340032
# Data Avg         =  0.0467063023399012
# Data StdDev      =  2.9289402661869  
# Profile Bins     =  512
# Profile Avg      =  669.368735635196 
# Profile StdDev   =  350.690911436731 
# Reduced chi-sqr  =  0.929
# Prob(Noise)      <  0.874   (~0.0 sigma)
# P_topo (ms)      =  714.579709926225  +/- 0.00038
# P'_topo (s/s)    =  -0                +/- 2e-10
# P''_topo (s/s^2) =  0                 +/- 8.84e-14
# P_bary (ms)      =  N/A
# P'_bary (s/s)    =  N/A
# P''_bary (s/s^2) =  N/A
# P_orb (s)        =  N/A
# asin(i)/c (s)    =  N/A
# eccentricity     =  N/A
# w (rad)          =  N/A
# T_peri           =  N/A
######################################################
   0  705.9789
   1  670.9453
   2  898.7527
   3  969.5262
   4  626.7801
   5  547.9418
   6  922.9088
   7  993.5243
   8  864.3806
   9  762.8656
  10  645.2408
  11  1058.544
  12  899.099
  13  739.1408
  14  651.3031
  15  555.8157
  16  528.3536
  17  463.6938
  18  418.0667
  19  197.319
  20  469.4957
  21  804.5842
  22  516.6603
  23  334.9978
  24  434.8839
  25  712.6517
  26  844.7413
  27  887.4062
  28  621.4022
  29  906.5806
  30  890.2939
  31  771.7289
  32  615.5662
  33  520.773
  34  746.5314
  35  833.0757
  36  893.359
  37  901.5967
  38  996.9243
  39  885.1885
  40  597.7562
  41  541.9333
  42  547.3629
  43  606.959
  44  944.5861
  45  947.7332
  46  992.7663
  47  854.4272
  48  854.7319
  49  759.365
  50  713.4469
  51  816.4429
  52  722.92
  53  624.4227
  54  573.2354
  55  700.2401
  56  823.3106
  57  969.6534
  58  1094.969
  59  1144.537
  60  788.8549
  61  525.1085
  62  437.0249
  63  843.6039
  64  600.4088
  65  607.6526
  66  921.7825
  67  530.2013
  68  479.1829
  69  741.7518
  70  1151.619
  71  1179.861
  72  560.9185
  73  524.8969
  74  1081.634
  75  1936.955
  76  2361.209
  77  2366.897
  78  1932.126
  79  1511.637
  80  1159.401
  81  741.1843
  82  327.9113
  83  738.2453
  84  736.0713
  85  582.8138
  86  568.8279
  87  755.0892
  88  552.8923
  89  402.8256
  90  593.6574
  91  633.9119
  92  978.1628
  93  1100.797
  94  855.2213
  95  844.8265
  96  800.6671
  97  620.6418
  98  668.9301
  99  639.9377
 100  920.4084
 101  586.3104
 102  691.2604
 103  582.2762
 104  532.7429
 105  326.4833
 106  560.5886
 107  866.2807
 108  978.5066
 109  677.7631
 110  652.8647
 111  619.6698
 112  382.7289
 113  271.6414
 114  620.2201
 115  823.2874
 116  641.3206
 117  666.1123
 118  707.3608
 119  523.0736
 120  830.5887
 121  696.879
 122  660.6758
 123  725.278
 124  935.8035
 125  545.9521
 126  563.6885
 127  807.6291
 128  894.8641
 129  973.4709
 130  808.5822
 131  393.4423
 132  422.5562
 133  386.9694
 134  498.8708
 135  800.9737
 136  970.412
 137  723.1765
 138  569.868
 139  476.3664
 140  531.832
 141  621.2974
 142  577.8494
 143  630.7347
 144  439.0039
 145  623.1551
 146  496.9184
 147  743.8687
 148  738.3293
 149  816.5598
 150  723.6114
 151  714.3335
 152  786.0214
 153  715.4351
 154  727.1534
 155  891.4256
 156  880.8689
 157  703.6169
 158  488.9507
 159  602.0453
 160  712.9084
 161  744.9312
 162  630.4709
 163  754.9385
 164  499.8957
 165  519.4918
 166  567.4196
 167  394.3364
 168  575.8038
 169  575.0975
 170  605.0175
 171  469.334
 172  642.019
 173  671.8444
 174  611.1247
 175  832.1396
 176  681.4285
 177  824.8727
 178  787.6316
 179  882.4329
 180  499.7664
 181  320.7569
 182  204.6995
 183  481.353
 184  662.7554
 185  444.5695
 186  393.3242
 187  504.3737
 188  822.4165
 189  683.731
 190  659.1961
 191  740.2565
 192  801.9459
 193  857.1179
 194  861.5919
 195  849.149
 196  667.4674
 197  559.7872
 198  693.0638
 199  826.265
 200  716.4496
 201  315.0596
 202  647.921
 203  885.6199
 204  673.4377
 205  466.0488
 206  509.918
 207  312.2455
 208  573.2411
 209  750.3218
 210  607.0764
 211  568.7401
 212  711.7667
 213  796.0244
 214  934.9697
 215  911.6149
 216  617.5372
 217  869.2676
 218  569.0863
 219  676.2775
 220  640.6719
 221  608.3953
 222  958.1264
 223  675.3359
 224  829.8203
 225  869.6088
 226  506.3764
 227  846.2325
 228  972.1568
 229  893.5724
 230  807.2554
 231  760.5377
 232  757.8961
 233  692.4642
 234  379.0002
 235  533.176
 236  562.5936
 237  776.9176
 238  720.5184
 239  490.787
 240  422.7396
 241  500.2437
 242  660.8257
 243  318.418
 244  170.8458
 245  390.9595
 246  430.9931
 247  843.7215
 248  652.5229
 249  641.1855
 250  561.6689
 251  626.5092
 252  729.9345
 253  428.098
 254  132.5069
 255  366.451
 256  506.1082
 257  239.8806
 258  439.113
 259  605.5235
 260  671.1877
 261  789.8837
 262  1001.799
 263  733.4702
 264  540.0302
 265  584.1981
 266  801.858
 267  616.627
 268  559.8112
 269  477.5799
 270  276.2665
 271  557.0331
 272  534.6211
 273  264.7135
 274  342.9729
 275  831.7487
 276  760.489
 277  659.8899
 278  423.7454
 279  447.5583
 280  544.0984
 281  527.8131
 282  300.9315
 283  344.1299
 284  807.9047
 285  815.979
 286  644.4327
 287  558.9335
 288  701.405
 289  817.2994
 290  903.1827
 291  707.0914
 292  600.672
 293  487.9447
 294  617.8486
 295  809.7554
 296  402.1535
 297  362.6497
 298  330.5432
 299  432.1447
 300  332.8763
 301  260.4557
 302  551.0712
 303  430.4709
 304  282.1523
 305  721.9367
 306  681.9785
 307  737.5455
 308  790.192
 309  708.3857
 310  504.7734
 311  595.6088
 312  785.0157
 313  676.9734
 314  396.9458
 315  663.7289
 316  718.7527
 317  595.9816
 318  781.3007
 319  965.9709
 320  386.7782
 321  386.1044
 322  431.3152
 323  770.1547
 324  904.3405
 325  791.6644
 326  750.0327
 327  925.3258
 328  802.857
 329  341.929
 330  396.0266
 331  846.1022
 332  1060.141
 333  1057.135
 334  984.1868
 335  1227.748
 336  757.3433
 337  671.8559
 338  724.8008
 339  1057.265
 340  1097.222
 341  716.8129
 342  785.6695
 343  636.7807
 344  779.0171
 345  895.1668
 346  882.1065
 347  726.1631
 348  298.4014
 349  424.2189
 350  747.6691
 351  1077.183
 352  960.0826
 353  538.3323
 354  843.6851
 355  641.2155
 356  502.8838
 357  276.6137
 358  492.7302
 359  563.5878
 360  943.6315
 361  413.5081
 362  288.2891
 363  412.9726
 364  444.7388
 365  471.2825
 366  468.102
 367  578.591
 368  527.8964
 369  527.9979
 370  434.1564
 371  504.0153
 372  274.4951
 373  516.4993
 374  440.0745
 375  500.6189
 376  598.1929
 377  698.7576
 378  1054.54
 379  1068.326
 380  899.379
 381  772.1931
 382  732.9683
 383  664.1119
 384  727.4863
 385  734.5418
 386  961.346
 387  678.8582
 388  325.0889
 389  457.2976
 390  504.4506
 391  668.5365
 392  432.4242
 393  470.7727
 394  557.4706
 395  852.8829
 396  920.0099
 397  733.3321
 398  426.9458
 399  517.3361
 400  861.3713
 401  665.3352
 402  497.4076
 403  522.8337
 404  715.3704
 405  629.4911
 406  464.326
 407  660.6526
 408  823.0681
 409  685.4634
 410  501.642
 411  637.8263
 412  812.0817
 413  973.3464
 414  437.3008
 415  312.7148
 416  286.7669
 417  351.5107
 418  514.4592
 419  420.2296
 420  531.5309
 421  273.3875
 422  398.57
 423  858.6393
 424  676.8042
 425  428.8652
 426  591.2662
 427  618.7119
 428  786.851
 429  602.3847
 430  649.5529
 431  596.45
 432  704.2021
 433  1045.779
 434  1136.344
 435  1227.153
 436  775.2186
 437  516.1046
 438  908.4457
 439  760.5178
 440  612.7692
 441  352.2507
 442  379.9702
 443  776.0441
 444  435.594
 445  399.3094
 446  335.0656
 447  168.8613
 448  285.1405
 449  559.9092
 450  489.4814
 451  417.612
 452  504.1761
 453  628.3557
 454  419.9509
 455  446.1381
 456  583.5668
 457  667.2461
 458  487.8524
 459  498.1523
 460  610.8959
 461  377.3241
 462  520.1115
 463  543.9412
 464  701.4419
 465  699.9037
 466  683.7537
 467  677.3754
 468  750.9023
 469  712.4354
 470  551.6262
 471  701.2577
 472  686.8393
 473  1001.293
 474  589.264
 475  669.9886
 476  839.6599
 477  1049.447
 478  1045.482
 479  893.7022
 480  821.7117
 481  1008.707
 482  733.6636
 483  692.5055
 484  851.9067
 485  892.9647
 486  715.6833
 487  1092.934
 488  813.5124
 489  837.1059
 490  762.149
 491  605.3619
 492  888.6509
 493  699.8069
 494  586.9929
 495  492.643
 496  349.325
 497  534.7563
 498  383.6936
 499  211.2637
 500  446.084
 501  734.0649
 502  734.0279
 503  490.4002
 504  813.6031
 505  728.6917
 506  483.1327
 507  484.681
 508  768.9365
 509  693.9387
 510  647.9024
 511  690.8839
