# Input file       =  1202308865.112091_cleaned.dat
# Candidate        =  PSR_0332+5434
# Telescope        =  AR
# Epoch_topo       =  58159.612084630680
# Epoch_bary       =  N/A
# T_sample         =  0.002
# Data Folded      =  7340032
# Data Avg         =  0.0401078428304823
# Data StdDev      =  1.00013142011765 
# Profile Bins     =  512
# Profile Avg      =  575.024910195732 
# Profile StdDev   =  119.748771706493 
# Reduced chi-sqr  =  1.053
# Prob(Noise)      <  0.196   (~0.9 sigma)
# P_topo (ms)      =  714.579094041342  +/- 0.000431
# P'_topo (s/s)    =  -0                +/- 2.27e-10
# P''_topo (s/s^2) =  0                 +/- 1e-13
# P_bary (ms)      =  N/A
# P'_bary (s/s)    =  N/A
# P''_bary (s/s^2) =  N/A
# P_orb (s)        =  N/A
# asin(i)/c (s)    =  N/A
# eccentricity     =  N/A
# w (rad)          =  N/A
# T_peri           =  N/A
######################################################
   0  1009.285
   1  967.0776
   2  854.9889
   3  766.888
   4  732.4543
   5  691.5585
   6  678.8497
   7  760.8748
   8  683.1993
   9  622.8702
  10  636.0604
  11  655.8372
  12  619.6263
  13  512.4213
  14  595.9783
  15  618.8385
  16  569.6473
  17  567.1761
  18  567.2476
  19  522.3201
  20  496.552
  21  544.671
  22  572.8539
  23  591.5944
  24  624.9296
  25  654.9537
  26  561.6451
  27  531.4906
  28  547.0813
  29  656.6082
  30  768.0658
  31  757.3786
  32  572.7768
  33  492.5019
  34  508.6502
  35  603.816
  36  578.1529
  37  576.6376
  38  664.7218
  39  569.911
  40  628.2085
  41  628.8416
  42  626.0842
  43  602.0991
  44  557.1907
  45  621.7366
  46  544.2221
  47  573.7251
  48  607.8302
  49  603.6356
  50  575.1163
  51  487.2146
  52  486.7801
  53  608.9194
  54  609.5955
  55  571.0139
  56  564.7723
  57  500.0388
  58  570.5988
  59  579.9924
  60  564.55
  61  606.4294
  62  580.5305
  63  596.4622
  64  561.4062
  65  564.1433
  66  707.1349
  67  766.4769
  68  746.4553
  69  684.1627
  70  578.1181
  71  602.9774
  72  550.1183
  73  585.1343
  74  673.2703
  75  696.1515
  76  655.6461
  77  633.8615
  78  616.6892
  79  716.3214
  80  691.8821
  81  693.9682
  82  613.9998
  83  567.105
  84  535.0275
  85  654.915
  86  740.1427
  87  643.9295
  88  643.5778
  89  727.7205
  90  729.429
  91  722.0728
  92  556.5374
  93  601.0095
  94  604.6297
  95  601.3502
  96  636.6981
  97  684.9471
  98  629.8739
  99  559.0986
 100  572.6224
 101  514.3199
 102  612.2142
 103  586.6901
 104  642.8735
 105  623.8625
 106  548.3289
 107  579.8801
 108  636.7205
 109  598.9771
 110  535.3423
 111  657.8276
 112  623.863
 113  513.6987
 114  532.0032
 115  446.1719
 116  481.4012
 117  593.5547
 118  556.2612
 119  588.3513
 120  539.713
 121  553.179
 122  512.7666
 123  577.551
 124  572.8381
 125  512.4961
 126  536.3414
 127  497.449
 128  466.4496
 129  484.2375
 130  589.055
 131  542.7645
 132  565.5596
 133  641.9961
 134  632.1345
 135  540.315
 136  556.3594
 137  549.332
 138  511.119
 139  595.3345
 140  553.7357
 141  533.3328
 142  560.0767
 143  583.8555
 144  459.4601
 145  472.1337
 146  515.8998
 147  594.1678
 148  709.0087
 149  637.7974
 150  653.6161
 151  543.2993
 152  604.6741
 153  607.6093
 154  664.3764
 155  616.2449
 156  575.7462
 157  551.3876
 158  638.5994
 159  543.1007
 160  576.4289
 161  561.482
 162  423.1999
 163  451.4296
 164  534.8694
 165  574.5869
 166  540.3498
 167  546.0618
 168  508.1624
 169  584.9689
 170  532.6013
 171  489.7734
 172  395.1977
 173  506.5323
 174  502.5633
 175  463.2268
 176  512.9594
 177  574.7887
 178  505.7023
 179  526.5857
 180  615.8506
 181  560.9456
 182  503.0365
 183  570.4
 184  570.1082
 185  533.8174
 186  532.7933
 187  473.784
 188  525.903
 189  545.6617
 190  567.4224
 191  547.163
 192  520.9017
 193  563.0482
 194  577.8616
 195  572.7225
 196  531.9166
 197  597.5476
 198  518.8562
 199  580.1053
 200  403.2834
 201  395.3122
 202  407.252
 203  424.0097
 204  418.556
 205  456.8533
 206  507.9721
 207  410.8571
 208  365.8235
 209  463.4094
 210  461.7048
 211  488.7381
 212  534.7441
 213  569.8205
 214  545.3922
 215  512.154
 216  492.1542
 217  491.5757
 218  497.274
 219  528.3576
 220  592.6461
 221  525.358
 222  487.049
 223  445.6115
 224  556.8243
 225  613.6976
 226  567.1647
 227  587.1682
 228  469.8018
 229  521.225
 230  585.018
 231  511.5554
 232  554.8936
 233  492.4991
 234  491.0181
 235  507.7094
 236  529.282
 237  471.1149
 238  510.3614
 239  512.7095
 240  572.4641
 241  487.9677
 242  422.9931
 243  555.9788
 244  510.0608
 245  394.789
 246  405.5155
 247  475.4019
 248  496.6744
 249  294.975
 250  376.651
 251  473.4914
 252  458.5966
 253  502.8548
 254  522.3481
 255  463.1077
 256  556.4548
 257  531.2362
 258  489.8575
 259  466.0127
 260  488.6449
 261  369.6353
 262  609.6785
 263  617.3833
 264  492.4333
 265  538.6099
 266  547.5414
 267  549.5161
 268  462.9527
 269  560.8278
 270  422.5144
 271  338.8228
 272  359.2301
 273  484.2929
 274  479
 275  611.2618
 276  574.2219
 277  473.1754
 278  458.7209
 279  499.9527
 280  510.6295
 281  525.4118
 282  538.1556
 283  404.4254
 284  508.1055
 285  603.3488
 286  590.302
 287  500.6895
 288  594.3742
 289  554.2861
 290  427.8022
 291  490.2709
 292  562.5875
 293  574.2241
 294  479.3287
 295  581.5063
 296  514.8488
 297  485.3457
 298  528.0536
 299  551.1763
 300  558.5908
 301  537.605
 302  530.5137
 303  566.7675
 304  552.8995
 305  692.2358
 306  649.8521
 307  590.1054
 308  582.05
 309  534.3104
 310  588.3289
 311  615.0339
 312  603.7158
 313  665.3165
 314  616.1612
 315  569.3889
 316  632.4524
 317  562.4042
 318  639.4645
 319  699.2682
 320  610.5129
 321  520.7756
 322  595.5572
 323  621.0434
 324  557.5305
 325  623.1232
 326  517.3007
 327  548.0817
 328  540.5182
 329  490.4018
 330  683.9474
 331  625.5515
 332  571.3961
 333  634.0756
 334  698.6477
 335  636.6166
 336  510.7651
 337  617.9133
 338  587.8732
 339  602.1017
 340  675.4671
 341  636.0258
 342  512.379
 343  607.1709
 344  675.9863
 345  668.4374
 346  691.0153
 347  646.2941
 348  568.3098
 349  606.1102
 350  728.665
 351  702.4695
 352  612.0703
 353  499.4207
 354  559.5352
 355  640.8567
 356  565.1668
 357  596.5319
 358  547.7109
 359  502.1658
 360  579.3134
 361  574.2509
 362  621.1345
 363  639.5804
 364  569.9208
 365  547.2361
 366  629.0027
 367  684.9932
 368  648.9277
 369  612.9328
 370  639.4914
 371  617.6326
 372  504.7403
 373  433.0266
 374  650.5727
 375  548.8879
 376  609.925
 377  609.1988
 378  585.2867
 379  680.9553
 380  589.5833
 381  567.8343
 382  508.9066
 383  390.1424
 384  512.809
 385  525.4899
 386  579.4486
 387  552.4877
 388  564.4611
 389  557.1499
 390  603.3769
 391  605.2715
 392  636.5752
 393  543.5083
 394  602.3854
 395  663.4586
 396  610.7332
 397  516.1265
 398  570.4965
 399  607.7041
 400  685.0966
 401  664.8755
 402  616.6454
 403  700.3839
 404  752.3228
 405  706.8783
 406  641.1782
 407  748.3416
 408  800.5667
 409  788.9118
 410  734.8674
 411  598.2385
 412  614.5922
 413  644.9137
 414  590.2411
 415  612.5817
 416  712.9178
 417  629.9666
 418  650.5839
 419  629.4352
 420  507.4306
 421  578.8925
 422  602.5709
 423  627.4617
 424  715.9353
 425  666.8248
 426  572.6505
 427  548.056
 428  691.7821
 429  630.3507
 430  540.2149
 431  591.2527
 432  677.0448
 433  721.7166
 434  738.5386
 435  708.6136
 436  654.1987
 437  591.8304
 438  538.6488
 439  457.341
 440  532.7699
 441  536.9484
 442  559.084
 443  457.6131
 444  496.2161
 445  474.2147
 446  512.7067
 447  523.9327
 448  491.4215
 449  581.8234
 450  598.5231
 451  664.9837
 452  770.6171
 453  701.3581
 454  590.8145
 455  592.5011
 456  607.8753
 457  459.4469
 458  538.7752
 459  505.4023
 460  506.4861
 461  562.1229
 462  633.5347
 463  573.1607
 464  512.1238
 465  632.3469
 466  625.3659
 467  573.102
 468  501.979
 469  486.7078
 470  542.3303
 471  607.0663
 472  585.7028
 473  492.9783
 474  581.0731
 475  579.2101
 476  495.7528
 477  535.7896
 478  520.0171
 479  575.5075
 480  586.5799
 481  544.2626
 482  447.1635
 483  470.6861
 484  527.6923
 485  461.8617
 486  465.7949
 487  516.4403
 488  573.4757
 489  543.2491
 490  508.1696
 491  612.1541
 492  566.5896
 493  600.3491
 494  590.7612
 495  499.2078
 496  466.1188
 497  563.3994
 498  568.8266
 499  583.3388
 500  581.9738
 501  451.3011
 502  517.6891
 503  708.3075
 504  693.3666
 505  655.2354
 506  599.2927
 507  601.306
 508  679.5425
 509  850.8476
 510  992.6243
 511  1094.096
