# Input file       =  1202222673.110506_cleaned.dat
# Candidate        =  PSR_0332+5434
# Telescope        =  AR
# Epoch_topo       =  58158.614492019748
# Epoch_bary       =  N/A
# T_sample         =  0.002
# Data Folded      =  7340032
# Data Avg         =  0.185584887334179
# Data StdDev      =  5.13507906710374 
# Profile Bins     =  512
# Profile Avg      =  2658.81840702539 
# Profile StdDev   =  614.838608739102 
# Reduced chi-sqr  =  0.716
# Prob(Noise)      <  1   (~0.0 sigma)
# P_topo (ms)      =  714.578837092245  +/- 0.000566
# P'_topo (s/s)    =  -0                +/- 2.99e-10
# P''_topo (s/s^2) =  0                 +/- 1.32e-13
# P_bary (ms)      =  N/A
# P'_bary (s/s)    =  N/A
# P''_bary (s/s^2) =  N/A
# P_orb (s)        =  N/A
# asin(i)/c (s)    =  N/A
# eccentricity     =  N/A
# w (rad)          =  N/A
# T_peri           =  N/A
######################################################
   0  2197.139
   1  2555.337
   2  2625.244
   3  2231.324
   4  2115.937
   5  2027.9
   6  1952.025
   7  1988.875
   8  2741.114
   9  2347.441
  10  1912.028
  11  1891.91
  12  1890.869
  13  1749.156
  14  2064.334
  15  2122.214
  16  2467.837
  17  2409.59
  18  2487.906
  19  2226.566
  20  2337.177
  21  2346.102
  22  2546.495
  23  2531.444
  24  2551.861
  25  2822.05
  26  3035.554
  27  3272.219
  28  3162.889
  29  2908.45
  30  2539.737
  31  2492.949
  32  2644.848
  33  2287.245
  34  2172.06
  35  2394.342
  36  2521.471
  37  2281.346
  38  2233.719
  39  2286.013
  40  2093.156
  41  2338.274
  42  2391.639
  43  2283.748
  44  2745.773
  45  2676.866
  46  2893.006
  47  2406.123
  48  2699.583
  49  2839.099
  50  2496.017
  51  3074.972
  52  2819.538
  53  2652.718
  54  2410.688
  55  2117.253
  56  2072.514
  57  2029.377
  58  2414.91
  59  2066.376
  60  2088.4
  61  2035.675
  62  1916.095
  63  1932.967
  64  2136.332
  65  2256.69
  66  2434.021
  67  2428.27
  68  2149.32
  69  2051.522
  70  1929.605
  71  2171.965
  72  2037.983
  73  2276.746
  74  2441.364
  75  2386.67
  76  2393.056
  77  2072.691
  78  2320.581
  79  2301.37
  80  2032.018
  81  2401.239
  82  2727.523
  83  2572.444
  84  2665.143
  85  3007.364
  86  2864.943
  87  2883.948
  88  2849.287
  89  2409.588
  90  2550.525
  91  2617.149
  92  2837.086
  93  2907.964
  94  3003.301
  95  2919.973
  96  2873.886
  97  2423.06
  98  2504.292
  99  2683.588
 100  3071.513
 101  3227.82
 102  3160.876
 103  3598.813
 104  3612.756
 105  3901.406
 106  4144.723
 107  4093.254
 108  3777.105
 109  3396.254
 110  3209.966
 111  3186.107
 112  3299.937
 113  3245.049
 114  2993.138
 115  2858.167
 116  2706.463
 117  2813.778
 118  2854.462
 119  2984.647
 120  2956.677
 121  2765.849
 122  3240.399
 123  3155.834
 124  2942.828
 125  2698.507
 126  2782.634
 127  2808.615
 128  2685.513
 129  2573.985
 130  2913.6
 131  2965.518
 132  2821.034
 133  2744.774
 134  2470.991
 135  2701.607
 136  2631.965
 137  2728.126
 138  2482.396
 139  2292.856
 140  1902.664
 141  1834.773
 142  2137.114
 143  2313.577
 144  2185.137
 145  1867
 146  2155.669
 147  2132.775
 148  2241.139
 149  2291.221
 150  2183.383
 151  2302.344
 152  2474.238
 153  2448.669
 154  2365.721
 155  2558.991
 156  2707.688
 157  2709.013
 158  2649.687
 159  2574.487
 160  2398.959
 161  2630.667
 162  2614.28
 163  2702.077
 164  2555.483
 165  2707.097
 166  2985.617
 167  3410.283
 168  3412.715
 169  3041.566
 170  2893.076
 171  2798.728
 172  2838.58
 173  2989.576
 174  2672.146
 175  2716.672
 176  2719.1
 177  2568.237
 178  2817.458
 179  2303.111
 180  2261.931
 181  2626.03
 182  2910.241
 183  2640.559
 184  2614.886
 185  2387.108
 186  2385.421
 187  2786.252
 188  3144.853
 189  3575.881
 190  3312.629
 191  2832.764
 192  2882.803
 193  2729.029
 194  2905.718
 195  2878.503
 196  3373.926
 197  3413.328
 198  3421.567
 199  3148.731
 200  2955.482
 201  2729.573
 202  2941.939
 203  2635.304
 204  2321.351
 205  2522.872
 206  3288.902
 207  3324.828
 208  3057.871
 209  2773.714
 210  3026.271
 211  2588.901
 212  2447.136
 213  2540.001
 214  2578.676
 215  2497.866
 216  2641.818
 217  2600.427
 218  2363.024
 219  2446.321
 220  2545.81
 221  2710.436
 222  2852.207
 223  2272.074
 224  2489.186
 225  2687.013
 226  3112.091
 227  3019.804
 228  2728.847
 229  3056.931
 230  3127.96
 231  3437.013
 232  3228.112
 233  3264.718
 234  2938.191
 235  2581.154
 236  2948.18
 237  2741.728
 238  2733.289
 239  2882.069
 240  2911.9
 241  3103.944
 242  2609.1
 243  2400.838
 244  2268.475
 245  2649.369
 246  2756.863
 247  2421.835
 248  2384.058
 249  2091.027
 250  1844.801
 251  2185.325
 252  2146.367
 253  1953.791
 254  2124.237
 255  2336.243
 256  2055.463
 257  2055.873
 258  2331.589
 259  2513.157
 260  2461.536
 261  2577.987
 262  2702.785
 263  2840.684
 264  3175.487
 265  3129.306
 266  3105.625
 267  2714.292
 268  3192.923
 269  3391.389
 270  3375.429
 271  3392.083
 272  3433.297
 273  3179.873
 274  3140.387
 275  2858.657
 276  2781.047
 277  2925.896
 278  3012.245
 279  2916.541
 280  2836.387
 281  2839.759
 282  2800.39
 283  2868.611
 284  2681.351
 285  2625.048
 286  2881.342
 287  3135.078
 288  3102.633
 289  3161.708
 290  2960.633
 291  2603.192
 292  2624.733
 293  2855.758
 294  2680.296
 295  2504.698
 296  2827.385
 297  2907.137
 298  2940.566
 299  2626.121
 300  2448.666
 301  2418.587
 302  2746.876
 303  2325.077
 304  2127.451
 305  2435.16
 306  2187.825
 307  2026.254
 308  2343.95
 309  2478.374
 310  2358.383
 311  2347.58
 312  2245.041
 313  2332.121
 314  2858.263
 315  3238.951
 316  3257.261
 317  3011.862
 318  2683.929
 319  2631.638
 320  2777.253
 321  2669.194
 322  2509.86
 323  2650.795
 324  2907.467
 325  2889.158
 326  2678.571
 327  2578.53
 328  2260.918
 329  2387.596
 330  2604.347
 331  2994.447
 332  3188.047
 333  2709.375
 334  2949.542
 335  3020.535
 336  2579.731
 337  2393.411
 338  2397.768
 339  2823.265
 340  2875.385
 341  2131.258
 342  2106.311
 343  2317.793
 344  2447.016
 345  2122.269
 346  2409.784
 347  2543.745
 348  2237.753
 349  2101.063
 350  2182.275
 351  2216.022
 352  2222.462
 353  2187.174
 354  2417.227
 355  2740.685
 356  2853.731
 357  2743.338
 358  2311.593
 359  2596.738
 360  2470.895
 361  2439.3
 362  2557.155
 363  2846.558
 364  2897.428
 365  2996.314
 366  2766.199
 367  2659.799
 368  2787.67
 369  2650.204
 370  2579.737
 371  2535.693
 372  3034.97
 373  2928.427
 374  3104.729
 375  3149.203
 376  3260.172
 377  3201.785
 378  3150.949
 379  3128.202
 380  3119.32
 381  3283.444
 382  3063.01
 383  2775.425
 384  3255.381
 385  3023.448
 386  2914.944
 387  2714.675
 388  2973.076
 389  2781.227
 390  2340.324
 391  2510.624
 392  2666.658
 393  2576.81
 394  2496.747
 395  2878.125
 396  2749.422
 397  2931.423
 398  2806.423
 399  2897.973
 400  2827.271
 401  2852.209
 402  2824.858
 403  2402.027
 404  2559.206
 405  2831.828
 406  3004.455
 407  2763.491
 408  2539.405
 409  2567.965
 410  2310.033
 411  2326.675
 412  2490.125
 413  2518.928
 414  2562.924
 415  2340.344
 416  2366.859
 417  2780.469
 418  2921.253
 419  2624.025
 420  2586.676
 421  2570.715
 422  2773.643
 423  2883.298
 424  3118.377
 425  2681.01
 426  3074.071
 427  3085.397
 428  2504.549
 429  2668.819
 430  2834.77
 431  2935.839
 432  3072.532
 433  2925.036
 434  3085.192
 435  2539.933
 436  2725.418
 437  2821.474
 438  2708.775
 439  2933.89
 440  2956.986
 441  2911.069
 442  2655.188
 443  2518.191
 444  2906.439
 445  2963.747
 446  2936.402
 447  3423.515
 448  3477.298
 449  3282.388
 450  2894.684
 451  3022.208
 452  2892.559
 453  2720.95
 454  2874.726
 455  2511.792
 456  2346.25
 457  2657.039
 458  2928.931
 459  2950.152
 460  2571.107
 461  2652.348
 462  2775.41
 463  2816.977
 464  2871.604
 465  2703.595
 466  2544.327
 467  1939.938
 468  1953.04
 469  2604.421
 470  2569.613
 471  2432.648
 472  2604.405
 473  2632.231
 474  2593.21
 475  2494.08
 476  2741.448
 477  2983.452
 478  2982.65
 479  3117.278
 480  3050.688
 481  2789.545
 482  2554.802
 483  2706.255
 484  2545.367
 485  2563.904
 486  2103.923
 487  2188.007
 488  2385.385
 489  2484.789
 490  2520.619
 491  2545.885
 492  2480.351
 493  2210.734
 494  2528.802
 495  2233.727
 496  2414.326
 497  2204.095
 498  2204.955
 499  2326.275
 500  1998.701
 501  2148.912
 502  2037.855
 503  2345.37
 504  2348.35
 505  2240.29
 506  2160.023
 507  2411.152
 508  2512.403
 509  2382.38
 510  2339.907
 511  2362.183
