# Input file       =  1202668571.110739-PSRB0329-2ms-sampling-dd.dat
# Candidate        =  PSR_0332+5434
# Telescope        =  AR
# Epoch_topo       =  58163.775348503921
# Epoch_bary       =  N/A
# T_sample         =  0.002
# Data Folded      =  7340032
# Data Avg         =  -1.09443857407849e-11
# Data StdDev      =  4.799378176012   
# Profile Bins     =  512
# Profile Avg      =  0.101956249641809
# Profile StdDev   =  574.644121734303 
# Reduced chi-sqr  =  0.529
# Prob(Noise)      <  1   (~0.0 sigma)
# P_topo (ms)      =  714.580310999537  +/- 0.000449
# P'_topo (s/s)    =  -0                +/- 2.37e-10
# P''_topo (s/s^2) =  0                 +/- 1.05e-13
# P_bary (ms)      =  N/A
# P'_bary (s/s)    =  N/A
# P''_bary (s/s^2) =  N/A
# P_orb (s)        =  N/A
# asin(i)/c (s)    =  N/A
# eccentricity     =  N/A
# w (rad)          =  N/A
# T_peri           =  N/A
######################################################
   0  -306.4046
   1  91.17252
   2  23.0271
   3  -131.3797
   4  -159.363
   5  106.5396
   6  164.2669
   7  132.469
   8  146.878
   9  -361.5595
  10  -223.2184
  11  -178.0237
  12  287.9954
  13  -75.73045
  14  -93.46356
  15  192.5182
  16  10.6587
  17  -237.6374
  18  -342.7837
  19  -154.0706
  20  -163.6501
  21  255.7439
  22  33.97004
  23  113.3848
  24  97.3025
  25  118.1693
  26  176.616
  27  319.5291
  28  327.0601
  29  118.9767
  30  265.9102
  31  167.9257
  32  227.8564
  33  -16.78895
  34  126.6855
  35  -42.44348
  36  100.6497
  37  142.8884
  38  -89.56458
  39  280.0066
  40  65.01782
  41  -115.7014
  42  -270.345
  43  50.4848
  44  33.84037
  45  -124.0366
  46  14.28713
  47  229.2967
  48  41.85954
  49  -140.6815
  50  -141.2847
  51  -210.8531
  52  -372.3296
  53  -541.9536
  54  -349.7253
  55  -197.8809
  56  -90.68745
  57  -315.7895
  58  -373.4274
  59  -203.2111
  60  -291.9472
  61  -138.1079
  62  -65.29505
  63  182.0337
  64  44.52606
  65  28.27847
  66  210.0525
  67  189.9225
  68  203.7151
  69  -208.0325
  70  -192.797
  71  45.32211
  72  -54.60785
  73  214.8
  74  -83.34762
  75  -213.3502
  76  -266.8341
  77  -338.1342
  78  -398.7642
  79  -103.1341
  80  -22.13031
  81  -20.10829
  82  170.3853
  83  -153.6118
  84  -500.7092
  85  -465.955
  86  -400.5779
  87  -800.5222
  88  -494.261
  89  -183.5336
  90  -384.4538
  91  -249.963
  92  -377.2397
  93  -1.583828
  94  84.40409
  95  -192.9254
  96  -4.139648
  97  -287.955
  98  -303.5569
  99  -93.29414
 100  -122.8203
 101  199.8342
 102  601.0304
 103  177.31
 104  346.7105
 105  395.2387
 106  311.5678
 107  174.4056
 108  134.5666
 109  64.98342
 110  234.8735
 111  325.1474
 112  287.166
 113  255.7271
 114  161.445
 115  -91.56898
 116  -528.8074
 117  -574.7162
 118  -156.8313
 119  -4.034273
 120  -89.0357
 121  -248.8769
 122  -116.4931
 123  -222.6798
 124  -790.7007
 125  -654.2457
 126  -572.3517
 127  -393.5185
 128  -51.91562
 129  117.7495
 130  42.60851
 131  -406.6678
 132  -158.4767
 133  -47.83435
 134  -394.1796
 135  -821.5498
 136  -628.2394
 137  -631.2443
 138  -607.307
 139  -416.7776
 140  -174.9639
 141  -3.99803
 142  -141.4697
 143  -136.0724
 144  177.874
 145  173.1083
 146  31.67979
 147  385.4469
 148  335.1169
 149  194.1708
 150  -126.9882
 151  -321.9982
 152  -281.0277
 153  294.526
 154  545.3746
 155  305.2934
 156  89.87074
 157  1.147644
 158  -278.956
 159  -560.2862
 160  -134.1993
 161  15.33618
 162  69.79422
 163  76.09472
 164  -351.6913
 165  -54.70064
 166  -176.4633
 167  -295.7115
 168  -354.7195
 169  -122.6113
 170  -153.128
 171  -98.11597
 172  -1.602707
 173  -172.8602
 174  -72.86478
 175  -161.3
 176  -24.03568
 177  -87.55431
 178  45.5345
 179  113.2257
 180  109.5251
 181  -98.21556
 182  -84.06755
 183  -20.867
 184  60.99213
 185  102.2183
 186  -306.8691
 187  -404.6321
 188  -105.6458
 189  -165.6199
 190  -339.0549
 191  329.1337
 192  645.7153
 193  -21.55363
 194  -22.05834
 195  113.3713
 196  379.6656
 197  -53.95672
 198  -192.3309
 199  101.1505
 200  -24.051
 201  85.3002
 202  168.8536
 203  60.36257
 204  -71.36703
 205  -237.7448
 206  -109.9347
 207  -83.09467
 208  -295.1322
 209  -119.2339
 210  70.41149
 211  339.3962
 212  401.0229
 213  397.1445
 214  363.7725
 215  -252.2112
 216  -268.4103
 217  -578.1218
 218  -332.7426
 219  -347.9769
 220  -61.77439
 221  123.7313
 222  148.1238
 223  -74.48147
 224  -350.9307
 225  -553.9855
 226  -482.5797
 227  -273.1531
 228  97.57523
 229  342.8428
 230  159.1747
 231  9.350915
 232  -233.6574
 233  101.117
 234  17.81956
 235  -72.9796
 236  101.5741
 237  312.2722
 238  272.5935
 239  -4.751005
 240  257.6247
 241  -10.18117
 242  -45.49107
 243  488.4073
 244  312.5227
 245  326.1592
 246  345.9963
 247  150.281
 248  5.302675
 249  -70.36653
 250  -52.59673
 251  -4.577065
 252  56.14042
 253  24.40176
 254  -60.29332
 255  -186.112
 256  11.25825
 257  8.71973
 258  -507.1409
 259  -557.2812
 260  -324.9983
 261  -191.7613
 262  -320.9267
 263  -84.53412
 264  -596.7487
 265  -414.5127
 266  -357.9466
 267  -162.8825
 268  252.0026
 269  128.3866
 270  280.7079
 271  -110.0759
 272  -200.8099
 273  -71.40795
 274  125.2772
 275  332.6544
 276  49.13606
 277  389.3656
 278  332.8594
 279  67.47746
 280  -177.3406
 281  -335.0603
 282  -623.4739
 283  -381.5124
 284  119.9805
 285  410.9494
 286  144.5828
 287  203.6692
 288  -264.1619
 289  -443.8818
 290  -414.475
 291  -499.2244
 292  -421.3145
 293  -170.769
 294  148.2162
 295  -163.9997
 296  -44.12174
 297  -189.3288
 298  -205.3438
 299  -260.7296
 300  -372.6687
 301  -251.9989
 302  -345.9891
 303  -129.6055
 304  -250.8606
 305  -305.8936
 306  -30.62171
 307  -34.86368
 308  -17.9024
 309  283.0961
 310  147.1979
 311  -81.88059
 312  -187.4318
 313  -320.597
 314  114.7177
 315  170.6043
 316  119.0655
 317  10.27321
 318  -126.6253
 319  34.37645
 320  -430.3104
 321  -322.7017
 322  -191.0498
 323  -180.4761
 324  -138.3897
 325  -124.2027
 326  -34.4835
 327  -420.5467
 328  -389.9301
 329  -282.9319
 330  -84.43477
 331  -35.86073
 332  -500.9482
 333  -270.0623
 334  -305.355
 335  84.98278
 336  70.63647
 337  303.4124
 338  227.0316
 339  305.8849
 340  145.2162
 341  54.10106
 342  -114.9383
 343  -421.3027
 344  -120.356
 345  64.89481
 346  142.6187
 347  -42.79776
 348  -142.834
 349  -117.4274
 350  -116.2375
 351  156.8759
 352  108.2984
 353  -299.69
 354  -97.0274
 355  23.70813
 356  146.6552
 357  309.4859
 358  281.5257
 359  521.3117
 360  84.4825
 361  375.2467
 362  313.0858
 363  90.03883
 364  92.20398
 365  29.81836
 366  -8.781247
 367  -174.316
 368  50.20176
 369  488.8664
 370  215.8666
 371  226.0299
 372  18.05404
 373  -312.4419
 374  -98.61898
 375  297.5886
 376  520.2568
 377  74.6455
 378  120.4024
 379  199.2353
 380  -146.6532
 381  -127.1462
 382  -134.328
 383  -29.34459
 384  76.56467
 385  3.341568
 386  75.35207
 387  334.3317
 388  275.2488
 389  -12.3937
 390  244.8254
 391  285.1753
 392  47.4651
 393  -54.37473
 394  -65.29798
 395  82.7449
 396  112.3399
 397  290.3512
 398  239.1311
 399  18.71892
 400  26.81647
 401  13.11184
 402  -119.8025
 403  -47.50784
 404  123.3271
 405  700.0242
 406  893.6989
 407  631.689
 408  433.683
 409  165.326
 410  340.1284
 411  375.9828
 412  113.4192
 413  292.3329
 414  544.5994
 415  269.6416
 416  111.327
 417  6.743706
 418  40.84059
 419  -249.0712
 420  -359.181
 421  -152.9074
 422  118.1757
 423  -248.0369
 424  -100.3939
 425  116.1622
 426  362.87
 427  135.8856
 428  194.8589
 429  12.46888
 430  -379.097
 431  -469.8147
 432  -506.9034
 433  -177.5842
 434  51.89299
 435  15.34157
 436  -81.86282
 437  233.7269
 438  7.750984
 439  -46.40838
 440  250.2719
 441  350.1096
 442  301.1326
 443  925.3758
 444  1678.437
 445  1893.912
 446  1466.991
 447  1190.635
 448  571.278
 449  243.3606
 450  368.073
 451  947.7811
 452  745.4545
 453  99.00862
 454  -191.0807
 455  101.2032
 456  130.1436
 457  245.8051
 458  265.7916
 459  -166.9291
 460  -48.22512
 461  74.34788
 462  358.528
 463  375.3439
 464  306.0575
 465  -162.3807
 466  -233.7634
 467  71.43389
 468  305.2214
 469  319.5614
 470  36.16237
 471  63.97912
 472  175.6452
 473  349.2548
 474  -29.80783
 475  -40.71099
 476  87.0602
 477  73.46075
 478  -152.9639
 479  348.8307
 480  -308.4023
 481  -653.9139
 482  -325.372
 483  -25.9014
 484  107.8583
 485  69.41779
 486  228.6513
 487  5.768116
 488  163.9289
 489  301.9398
 490  245.8767
 491  262.0542
 492  413.6125
 493  361.6228
 494  116.5592
 495  -283.0468
 496  -202.9114
 497  -188.9644
 498  -231.9909
 499  -161.3906
 500  103.033
 501  76.33358
 502  -131.8916
 503  -40.27567
 504  262.7396
 505  358.5709
 506  73.24355
 507  150.8958
 508  249.558
 509  437.4109
 510  253.1855
 511  -30.7523
