# Input file       =  1202567454.139856_cleaned.dat
# Candidate        =  PSR_0332+5434
# Telescope        =  AR
# Epoch_topo       =  58162.605013192777
# Epoch_bary       =  N/A
# T_sample         =  0.002
# Data Folded      =  7340032
# Data Avg         =  0.378070769024944
# Data StdDev      =  6.88074436180385 
# Profile Bins     =  1024
# Profile Avg      =  2710.04868927177 
# Profile StdDev   =  582.55162932297  
# Reduced chi-sqr  =  0.508
# Prob(Noise)      <  1   (~0.0 sigma)
# P_topo (ms)      =  714.579759075603  +/- 0.000817
# P'_topo (s/s)    =  -0                +/- 4.31e-10
# P''_topo (s/s^2) =  0                 +/- 1.9e-13
# P_bary (ms)      =  N/A
# P'_bary (s/s)    =  N/A
# P''_bary (s/s^2) =  N/A
# P_orb (s)        =  N/A
# asin(i)/c (s)    =  N/A
# eccentricity     =  N/A
# w (rad)          =  N/A
# T_peri           =  N/A
######################################################
   0  2800.858
   1  2870.934
   2  2725.967
   3  2617.271
   4  2599.159
   5  2610.995
   6  2572.153
   7  2519.524
   8  2450.196
   9  2444.158
  10  2644.257
  11  2788.885
  12  2748.532
  13  2628.35
  14  2647.632
  15  2807.084
  16  2809.127
  17  2783.028
  18  2693.515
  19  2620.292
  20  2628.724
  21  2593.568
  22  2561.498
  23  2471.867
  24  2589.868
  25  2692.963
  26  2675.161
  27  2559.422
  28  2616.881
  29  2704.362
  30  2741.372
  31  2783.097
  32  2680.76
  33  2584.311
  34  2612.757
  35  2555.634
  36  2631.995
  37  2580.568
  38  2565.061
  39  2519.402
  40  2599.241
  41  2702.177
  42  2627.603
  43  2572.683
  44  2510.647
  45  2426.942
  46  2444.794
  47  2402.005
  48  2422.071
  49  2488.01
  50  2557.869
  51  2569.78
  52  2547.587
  53  2541.628
  54  2471.075
  55  2402.335
  56  2384.72
  57  2390.216
  58  2459.967
  59  2423.815
  60  2476.784
  61  2486.608
  62  2481.541
  63  2511.771
  64  2509.342
  65  2616.455
  66  2451.125
  67  2455.095
  68  2510.167
  69  2639.458
  70  2691.185
  71  2686.569
  72  2586.857
  73  2619.035
  74  2617.155
  75  2580.209
  76  2606.42
  77  2580.778
  78  2518.063
  79  2454.132
  80  2417.53
  81  2405.582
  82  2480.29
  83  2577.523
  84  2494.015
  85  2407.557
  86  2302.28
  87  2263.222
  88  2287.386
  89  2332.234
  90  2222.714
  91  2278.245
  92  2215.878
  93  2298.111
  94  2377.894
  95  2383.082
  96  2357.585
  97  2309.914
  98  2396.513
  99  2396.314
 100  2428.388
 101  2518.585
 102  2524.002
 103  2592.516
 104  2637.476
 105  2541.885
 106  2441.224
 107  2441.748
 108  2572.874
 109  2585.64
 110  2573.698
 111  2615.499
 112  2592.065
 113  2631.304
 114  2568.496
 115  2651.811
 116  2713.838
 117  2729.656
 118  2783.892
 119  2792.681
 120  2877.375
 121  2876.45
 122  2939.333
 123  2875.353
 124  2788.596
 125  2711.026
 126  2676.248
 127  2735.035
 128  2675.042
 129  2628
 130  2637.444
 131  2691.888
 132  2671.467
 133  2651.172
 134  2659.84
 135  2720.532
 136  2703.234
 137  2696.432
 138  2700.319
 139  2664.851
 140  2602.741
 141  2569.983
 142  2530.542
 143  2509.882
 144  2536.603
 145  2466.8
 146  2495.667
 147  2649.902
 148  2737.075
 149  2749.818
 150  2705.436
 151  2730.427
 152  2722.404
 153  2781.171
 154  2764.838
 155  2811.653
 156  2780.623
 157  2658.673
 158  2747.846
 159  2856.572
 160  2897.234
 161  2831.756
 162  2803.529
 163  2840.361
 164  2690.152
 165  2583.411
 166  2619.676
 167  2727.047
 168  2812.072
 169  2922.135
 170  3103.347
 171  3168.941
 172  3104.196
 173  3058.222
 174  3080.984
 175  3151.758
 176  3088.868
 177  3095.494
 178  2996.593
 179  2908.969
 180  2910.12
 181  2918.015
 182  2873.005
 183  2753.905
 184  2847.242
 185  2937.507
 186  2871.824
 187  2888.672
 188  2866.074
 189  3129.349
 190  3168.987
 191  3145.051
 192  3084.151
 193  3082.939
 194  2994.161
 195  2839.167
 196  2710.18
 197  2714.414
 198  2860.986
 199  2926.675
 200  2862.382
 201  2785.617
 202  2829.587
 203  2898.721
 204  2849.667
 205  2821.463
 206  2873.856
 207  2900.171
 208  2848.619
 209  2711.926
 210  2666.087
 211  2622.638
 212  2655.575
 213  2721.264
 214  2740.068
 215  2726.876
 216  2709.543
 217  2730.569
 218  2819.384
 219  2831.166
 220  2745.26
 221  2501.89
 222  2486.894
 223  2577.781
 224  2615.922
 225  2576.159
 226  2381.221
 227  2395.729
 228  2455.263
 229  2584.289
 230  2714.578
 231  2747.171
 232  2775.008
 233  2716.636
 234  2797.028
 235  2803.674
 236  2785.58
 237  2775.596
 238  2705.142
 239  2576.312
 240  2417.988
 241  2394.062
 242  2538.516
 243  2670.931
 244  2598.385
 245  2515.797
 246  2564.417
 247  2642.631
 248  2578.87
 249  2683.143
 250  2542.726
 251  2556.749
 252  2555.526
 253  2640.971
 254  2564.337
 255  2547.991
 256  2628.092
 257  2650.885
 258  2526.005
 259  2377.567
 260  2295.815
 261  2397.459
 262  2446.889
 263  2528.174
 264  2505.645
 265  2425.497
 266  2434.075
 267  2649.099
 268  2697.499
 269  2498.332
 270  2423.625
 271  2526.49
 272  2666.763
 273  2591.355
 274  2595.721
 275  2641.527
 276  2740.897
 277  2747.322
 278  2748.042
 279  2767.311
 280  2680.293
 281  2614.395
 282  2598.551
 283  2619.017
 284  2615.968
 285  2579.006
 286  2562.277
 287  2685.935
 288  2664.331
 289  2610.214
 290  2581.945
 291  2657.6
 292  2748.672
 293  2654.403
 294  2671.572
 295  2676.948
 296  2687.236
 297  2786.306
 298  2933.719
 299  3004.58
 300  3010.135
 301  2916.26
 302  2874.876
 303  2795.824
 304  2745.111
 305  2629.56
 306  2771.492
 307  2826.908
 308  2886.564
 309  2938.228
 310  2896.105
 311  2950.761
 312  2957.813
 313  3005.311
 314  3082.9
 315  3014.313
 316  2999.301
 317  2972.537
 318  2981.275
 319  2952.432
 320  2878.547
 321  2880.997
 322  2857.361
 323  2947.421
 324  2959.337
 325  2995.279
 326  2827.478
 327  2913.643
 328  2882.037
 329  2932.379
 330  2920.483
 331  2983.711
 332  3066.51
 333  3166.389
 334  3259.691
 335  3195.637
 336  2999.34
 337  2855.008
 338  2866.426
 339  3043.288
 340  3148.911
 341  3168.377
 342  3168.942
 343  3103.001
 344  3131.128
 345  3137.106
 346  3220.11
 347  3089.364
 348  2957.738
 349  2872.413
 350  2940.684
 351  2971.154
 352  2949.298
 353  3056.355
 354  3074.447
 355  3113.631
 356  3049.885
 357  3063.82
 358  3053.994
 359  3093.303
 360  3088.081
 361  3157.592
 362  3227.963
 363  3152.433
 364  3029.648
 365  2955.066
 366  3018.092
 367  3017.868
 368  2936.418
 369  2934.764
 370  3026.32
 371  3260.4
 372  3160.478
 373  3135.807
 374  3037.947
 375  3044.689
 376  2992.131
 377  3023.689
 378  3060.347
 379  3080.154
 380  3116.902
 381  3066.422
 382  3039.974
 383  3098.972
 384  3127.254
 385  3214.717
 386  3135.589
 387  3147.704
 388  3158.11
 389  3208.999
 390  3209.785
 391  3281.043
 392  3250.616
 393  3193.156
 394  3088.579
 395  3085.179
 396  2993.776
 397  2932.278
 398  2902.328
 399  2970.993
 400  2961.242
 401  3068.003
 402  3155.893
 403  3218.915
 404  3201.071
 405  3210.185
 406  3175.402
 407  3012.917
 408  2775.609
 409  2689.487
 410  2619.172
 411  2702.992
 412  2810.566
 413  2947.767
 414  3083.744
 415  3107.421
 416  3097.039
 417  2991.048
 418  2896.72
 419  2846.843
 420  2788.175
 421  2699.379
 422  2767.393
 423  2762.161
 424  2816.814
 425  2883.312
 426  2839.828
 427  2721.645
 428  2677.333
 429  2595.713
 430  2573.223
 431  2572.562
 432  2590.232
 433  2503.865
 434  2430.488
 435  2427.374
 436  2437.11
 437  2572.206
 438  2638.481
 439  2731.287
 440  2775.725
 441  2654.528
 442  2666.391
 443  2700.067
 444  2713.62
 445  2730.269
 446  2692.407
 447  2730.017
 448  2673.011
 449  2691.941
 450  2790.603
 451  2690.056
 452  2597.531
 453  2433.176
 454  2513.525
 455  2622.451
 456  2581.158
 457  2507.583
 458  2482.372
 459  2472.566
 460  2419.258
 461  2430.387
 462  2502.417
 463  2529.912
 464  2533.145
 465  2468.965
 466  2477.781
 467  2562.569
 468  2590.141
 469  2656.929
 470  2739.013
 471  2775.255
 472  2625.219
 473  2507.783
 474  2470.687
 475  2415.168
 476  2503.949
 477  2558.624
 478  2584.524
 479  2580.396
 480  2584.33
 481  2633.43
 482  2578.574
 483  2442.299
 484  2409.509
 485  2512.146
 486  2654.231
 487  2691.011
 488  2655.529
 489  2534.377
 490  2443.937
 491  2413.536
 492  2502.547
 493  2591.284
 494  2485.734
 495  2502.768
 496  2508.879
 497  2600.079
 498  2424.708
 499  2512.309
 500  2528.977
 501  2555.419
 502  2478.824
 503  2547.325
 504  2611.173
 505  2619.814
 506  2519.293
 507  2577.018
 508  2548.245
 509  2460.393
 510  2411.9
 511  2417.995
 512  2424.339
 513  2372.104
 514  2359.892
 515  2422.855
 516  2403.824
 517  2443.488
 518  2365.149
 519  2285.091
 520  2240.495
 521  2399
 522  2474.221
 523  2506.027
 524  2425.181
 525  2415.733
 526  2338.782
 527  2226.984
 528  2251.989
 529  2236.315
 530  2298.778
 531  2289.764
 532  2310.907
 533  2423.886
 534  2430.071
 535  2517.396
 536  2470.079
 537  2315.828
 538  2308.717
 539  2389.529
 540  2488.469
 541  2429.86
 542  2512.653
 543  2522.407
 544  2451.905
 545  2430.528
 546  2432.516
 547  2476.616
 548  2447.861
 549  2556.053
 550  2666.075
 551  2538.567
 552  2410.26
 553  2363.982
 554  2487.272
 555  2475.518
 556  2520.126
 557  2502.94
 558  2433.153
 559  2429.478
 560  2396.156
 561  2345.612
 562  2350.742
 563  2394.863
 564  2544.186
 565  2434.429
 566  2344.774
 567  2353.911
 568  2375.62
 569  2460.123
 570  2524.306
 571  2730.018
 572  2650.232
 573  2623.23
 574  2642.319
 575  2683.152
 576  2766.974
 577  2760.384
 578  2780.64
 579  2752.964
 580  2651.902
 581  2584.97
 582  2620.578
 583  2818.074
 584  2771.092
 585  2655.248
 586  2434.419
 587  2388.489
 588  2415.524
 589  2456.75
 590  2614.731
 591  2691.527
 592  2703.93
 593  2604.906
 594  2558.338
 595  2605.022
 596  2691.496
 597  2650.648
 598  2604.351
 599  2548.414
 600  2641.064
 601  2640.826
 602  2659.496
 603  2594.503
 604  2781.41
 605  2905.18
 606  2966.76
 607  2951.651
 608  2925.847
 609  3095.037
 610  3219.042
 611  3218.014
 612  3096.186
 613  3070.607
 614  3194.26
 615  3233.483
 616  3229.775
 617  3058.601
 618  2916.438
 619  2610.503
 620  2422.074
 621  2410.593
 622  2525.555
 623  2606.656
 624  2533.08
 625  2449.315
 626  2479.301
 627  2488.965
 628  2619.752
 629  2631.9
 630  2668.389
 631  2637.784
 632  2598.793
 633  2579.635
 634  2531.856
 635  2573.835
 636  2614.066
 637  2558.052
 638  2534.868
 639  2517.323
 640  2628.025
 641  2541.093
 642  2522.953
 643  2518.933
 644  2481.223
 645  2486.867
 646  2466.036
 647  2471.871
 648  2477.371
 649  2489.661
 650  2487.553
 651  2410.841
 652  2554.35
 653  2653.749
 654  2624.156
 655  2366.79
 656  2167.796
 657  2150.625
 658  2181.57
 659  2133.28
 660  2158.675
 661  2250.912
 662  2417.987
 663  2449.573
 664  2471.724
 665  2496.675
 666  2441.354
 667  2568.769
 668  2551.279
 669  2601.661
 670  2454.921
 671  2388.025
 672  2279.192
 673  2138.309
 674  2190.959
 675  2251.346
 676  2290.142
 677  2078.56
 678  2119.846
 679  2275.785
 680  2330.915
 681  2342.915
 682  2332.378
 683  2343.755
 684  2229.217
 685  2132.159
 686  2268.274
 687  2373.994
 688  2369.713
 689  2311.68
 690  2300.101
 691  2251.693
 692  2248.115
 693  2334.806
 694  2456.507
 695  2576.44
 696  2565.91
 697  2647.538
 698  2645.031
 699  2557.887
 700  2578.724
 701  2567.695
 702  2570.046
 703  2559.698
 704  2656.22
 705  2613.71
 706  2486.646
 707  2487.673
 708  2525.01
 709  2503.039
 710  2548.088
 711  2604.099
 712  2744.278
 713  2748.755
 714  2814.142
 715  2801.851
 716  2797.535
 717  2714.017
 718  2566.508
 719  2562.278
 720  2597.072
 721  2701.52
 722  2808.543
 723  2659.121
 724  2569.073
 725  2575.331
 726  2732.251
 727  2796.471
 728  2779.318
 729  2742.564
 730  2666.078
 731  2628.944
 732  2677.464
 733  2773.953
 734  2906.946
 735  2887.776
 736  2841.016
 737  2788.563
 738  2764.481
 739  2783.223
 740  2817.058
 741  2828.619
 742  2796.091
 743  2813.781
 744  2817.174
 745  2758.111
 746  2803.852
 747  2796.669
 748  2725.947
 749  2511.206
 750  2534.415
 751  2547.191
 752  2616.499
 753  2638.03
 754  2697.462
 755  2788.675
 756  2763.848
 757  2828.022
 758  2820.853
 759  2807.243
 760  2740.465
 761  2731.646
 762  2814.466
 763  2744.908
 764  2762.039
 765  2767.991
 766  2853.311
 767  2902.311
 768  2821.478
 769  2863.11
 770  2910.351
 771  2815.887
 772  2761.533
 773  2640.278
 774  2562.262
 775  2522.37
 776  2580.208
 777  2671.165
 778  2645.553
 779  2674.959
 780  2616.654
 781  2721.053
 782  2757.589
 783  2768.558
 784  2649.267
 785  2603.588
 786  2601.987
 787  2594.025
 788  2609.709
 789  2656.626
 790  2620.56
 791  2628.055
 792  2603.435
 793  2713.455
 794  2801.209
 795  2915.827
 796  2755.781
 797  2745.704
 798  2905.321
 799  3111.973
 800  3053.546
 801  3091.55
 802  3113.782
 803  3143.464
 804  3018.052
 805  2858.809
 806  2703.014
 807  2766.955
 808  2948.125
 809  3036.685
 810  2942.548
 811  2884.108
 812  3017.677
 813  3079.064
 814  2998.314
 815  3031.286
 816  3071.753
 817  3150.582
 818  3095.504
 819  3068.745
 820  2952.856
 821  2947.352
 822  2992.197
 823  3028.285
 824  2992.979
 825  3021.364
 826  3046.608
 827  3098.389
 828  2952.015
 829  2912.472
 830  2783.336
 831  2800.958
 832  2861.209
 833  2947.01
 834  3077.292
 835  2980.392
 836  2928.828
 837  2847.83
 838  2783.721
 839  2761.855
 840  2864.921
 841  2934.976
 842  2833.583
 843  2848.112
 844  2896.501
 845  2877.097
 846  2870.281
 847  2887.819
 848  3031.278
 849  3079.634
 850  3047.42
 851  2947.315
 852  2831.982
 853  2791.56
 854  2868.006
 855  2942.344
 856  3040.818
 857  3049.256
 858  3177.122
 859  3052.509
 860  2986.637
 861  2943.752
 862  2936.561
 863  2912.128
 864  2930.746
 865  2991.158
 866  2990.866
 867  2984.591
 868  3053.891
 869  3141.233
 870  3076.743
 871  3001.14
 872  2928.792
 873  2918.92
 874  2840.382
 875  2851.923
 876  2875.537
 877  2863.667
 878  2798.559
 879  2813.813
 880  2840.938
 881  2804.504
 882  2865.341
 883  2879.547
 884  2849.268
 885  2744.982
 886  2820.053
 887  2783.692
 888  2790.216
 889  2720.292
 890  2870.99
 891  2907.592
 892  2901.972
 893  2802.717
 894  2854.01
 895  2735.522
 896  2703.333
 897  2663.038
 898  2729.24
 899  2679.438
 900  2825.578
 901  2843.316
 902  2812.627
 903  2718.686
 904  2675.559
 905  2754.661
 906  2742.002
 907  2733.454
 908  2743.542
 909  2737.21
 910  2796.143
 911  2802.439
 912  2697.415
 913  2451.953
 914  2495.281
 915  2550.162
 916  2592.825
 917  2573.429
 918  2751.572
 919  2844.503
 920  2821.117
 921  2613.411
 922  2578.751
 923  2610.407
 924  2806.603
 925  2880.019
 926  2907.695
 927  2738.831
 928  2669.509
 929  2789.706
 930  2868.474
 931  2859.238
 932  2825.022
 933  2844.494
 934  2853.577
 935  2808.814
 936  2782.158
 937  2808.866
 938  2758.582
 939  2773.656
 940  2670.851
 941  2724.686
 942  2712.953
 943  2849.032
 944  2814.472
 945  2745.649
 946  2627.302
 947  2558.126
 948  2614.565
 949  2598.702
 950  2614.953
 951  2554.246
 952  2571.798
 953  2604.924
 954  2560.19
 955  2484.836
 956  2629.344
 957  2689.346
 958  2593.084
 959  2459.73
 960  2446.55
 961  2471.602
 962  2472.441
 963  2557.258
 964  2569.805
 965  2639.413
 966  2680.45
 967  2783.93
 968  2688.456
 969  2661.205
 970  2782.773
 971  2778.762
 972  2721.092
 973  2580.298
 974  2659.392
 975  2705.353
 976  2809.327
 977  2753.975
 978  2635.644
 979  2768.91
 980  2881.133
 981  2888.005
 982  2867.104
 983  2915.025
 984  2886.104
 985  2824.356
 986  2801.092
 987  2958.64
 988  2949.57
 989  2900.605
 990  2871.569
 991  2923.641
 992  2841.815
 993  2827.562
 994  2908.459
 995  2805.693
 996  2781.417
 997  2892.087
 998  3073.895
 999  3138.031
1000  3021.059
1001  3020.45
1002  2937.996
1003  2983.018
1004  3008.946
1005  2979.076
1006  3104.459
1007  3082.363
1008  3030.872
1009  2980.051
1010  2946.841
1011  2915.296
1012  2958.205
1013  2867.014
1014  2801.423
1015  2778.583
1016  2891.077
1017  2885.665
1018  2908.803
1019  2889.474
1020  2958.045
1021  3005.35
1022  2947.033
1023  2856.655
