# Input file       =  1202237599.111301-PSRB0329-2ms-sampling-dd.dat
# Candidate        =  PSR_0332+5434
# Telescope        =  AR
# Epoch_topo       =  58158.787246658576
# Epoch_bary       =  N/A
# T_sample         =  0.002
# Data Folded      =  7340032
# Data Avg         =  1.04253879883763e-10
# Data StdDev      =  7.46239831858401 
# Profile Bins     =  512
# Profile Avg      =  0.138113049113918
# Profile StdDev   =  893.495609336937 
# Reduced chi-sqr  =  0.718
# Prob(Noise)      <  1   (~0.0 sigma)
# P_topo (ms)      =  714.57921902968   +/- 0.00036
# P'_topo (s/s)    =  -0                +/- 1.9e-10
# P''_topo (s/s^2) =  0                 +/- 8.38e-14
# P_bary (ms)      =  N/A
# P'_bary (s/s)    =  N/A
# P''_bary (s/s^2) =  N/A
# P_orb (s)        =  N/A
# asin(i)/c (s)    =  N/A
# eccentricity     =  N/A
# w (rad)          =  N/A
# T_peri           =  N/A
######################################################
   0  1107.014
   1  265.3707
   2  -343.8816
   3  -654.0015
   4  -539.1434
   5  -205.52
   6  -180.9721
   7  -555.6498
   8  -633.5201
   9  -823.3222
  10  -871.9322
  11  -715.9363
  12  -272.474
  13  311.0008
  14  -28.24984
  15  -635.4193
  16  -520.7968
  17  -330.0031
  18  -9.476388
  19  -683.8969
  20  -475.1203
  21  -296.8178
  22  -430.6085
  23  -322.5603
  24  -224.1896
  25  -314.9964
  26  -86.85104
  27  -12.32018
  28  -37.46997
  29  -90.23613
  30  594.8419
  31  305.8169
  32  -300.9849
  33  -217.3134
  34  -320.1722
  35  -554.1067
  36  -400.842
  37  -313.5072
  38  -155.2421
  39  11.18403
  40  -29.04447
  41  -204.2086
  42  -304.1843
  43  -180.8082
  44  -485.6038
  45  -316.551
  46  -105.4273
  47  -64.12515
  48  161.4309
  49  -102.9206
  50  -172.6487
  51  -176.5256
  52  -55.52333
  53  56.71483
  54  250.7642
  55  346.3609
  56  -156.9835
  57  -101.962
  58  -212.3823
  59  -85.56087
  60  -124.7865
  61  -667.286
  62  -818.6697
  63  -761.1564
  64  -232.1979
  65  -56.29871
  66  205.8086
  67  85.41152
  68  -573.1216
  69  -715.7227
  70  -970.1058
  71  -262.647
  72  -99.23003
  73  -338.3168
  74  -538.1412
  75  -163.3757
  76  -392.3033
  77  -529.3466
  78  -362.5678
  79  231.7764
  80  463.4163
  81  940.3701
  82  710.805
  83  126.0545
  84  -62.84998
  85  115.535
  86  34.07345
  87  -93.12647
  88  211.3918
  89  137.2191
  90  232.6296
  91  295.8553
  92  320.3209
  93  129.8473
  94  100.6294
  95  41.4087
  96  498.0943
  97  182.6291
  98  -294.4781
  99  -444.6612
 100  -347.2009
 101  -344.7572
 102  -299.3307
 103  -256.6407
 104  -191.8295
 105  -65.12361
 106  -159.7428
 107  -207.0781
 108  -400.2887
 109  -486.0847
 110  -253.3282
 111  -146.9366
 112  267.9832
 113  967.3905
 114  483.5048
 115  135.8086
 116  432.0191
 117  890.1522
 118  775.2807
 119  949.7457
 120  437.0671
 121  502.8583
 122  773.8073
 123  750.0119
 124  883.8105
 125  912.1069
 126  679.3784
 127  97.61998
 128  -65.75134
 129  119.2015
 130  175.1855
 131  -581.1876
 132  -255.9222
 133  424.1096
 134  846.5854
 135  605.0614
 136  -182.7404
 137  -202.9777
 138  -359.8086
 139  -730.212
 140  -631.3171
 141  -270.1288
 142  -142.178
 143  -385.1514
 144  -799.5963
 145  -323.351
 146  -52.81878
 147  -55.46928
 148  -238.6726
 149  -70.7374
 150  -366.8132
 151  -592.0024
 152  -185.6785
 153  294.4587
 154  383.9805
 155  140.0053
 156  301.5822
 157  354.2737
 158  104.1862
 159  5.610753
 160  254.1201
 161  -109.254
 162  751.0813
 163  1021.529
 164  1081.149
 165  616.8787
 166  548.8724
 167  282.3258
 168  -32.71706
 169  -612.8314
 170  -433.9575
 171  -245.7927
 172  -200.3945
 173  -177.0609
 174  -68.4458
 175  216.0908
 176  -254.3188
 177  -527.8656
 178  -49.50907
 179  265.8848
 180  467.9229
 181  61.75959
 182  -157.0594
 183  -220.8657
 184  -139.7042
 185  -164.6411
 186  202.6717
 187  123.4515
 188  -110.3983
 189  -273.9214
 190  -191.8469
 191  148.0511
 192  609.1347
 193  813.2679
 194  1505.514
 195  1972.788
 196  1515.007
 197  937.6213
 198  498.473
 199  147.4629
 200  -75.36944
 201  95.34583
 202  -57.95628
 203  -258.2246
 204  63.24133
 205  -172.6262
 206  -593.8867
 207  -380.2501
 208  235.115
 209  331.2083
 210  -232.37
 211  -320.9878
 212  -152.3896
 213  -228.4294
 214  105.5474
 215  308.2552
 216  220.6341
 217  -293.5021
 218  -333.4236
 219  -529.7472
 220  -201.4869
 221  -166.9218
 222  -186.4868
 223  -205.9123
 224  -61.22474
 225  470.4657
 226  86.75231
 227  -490.2064
 228  -170.0832
 229  435.858
 230  291.0381
 231  -519.3671
 232  -491.7204
 233  94.6789
 234  -59.3262
 235  -182.381
 236  32.78183
 237  -24.57117
 238  -339.9759
 239  -354.4667
 240  169.2461
 241  484.6686
 242  379.2051
 243  -51.4132
 244  -272.7562
 245  -192.3764
 246  -303.4042
 247  -61.23507
 248  332.4969
 249  104.3206
 250  131.0107
 251  526.4668
 252  760.399
 253  458.2248
 254  392.8011
 255  567.6617
 256  283.9238
 257  -21.05668
 258  184.283
 259  478.994
 260  382.9525
 261  496.4995
 262  -28.11292
 263  -233.0061
 264  -675.1384
 265  -152.9633
 266  524.5677
 267  514.3703
 268  195.9614
 269  199.8726
 270  190.2424
 271  -90.37188
 272  -344.1934
 273  -11.29314
 274  273.067
 275  689.5118
 276  623.5372
 277  192.456
 278  83.03307
 279  -581.2421
 280  -710.7722
 281  94.52364
 282  757.1389
 283  978.5507
 284  663.1852
 285  297.8394
 286  261.4135
 287  -142.3222
 288  -259.2245
 289  71.76307
 290  120.5261
 291  960.4184
 292  1068.878
 293  544.241
 294  123.0407
 295  181.5629
 296  -107.4081
 297  -57.04059
 298  233.6154
 299  17.94202
 300  128.6448
 301  -234.7078
 302  -298.5573
 303  28.37961
 304  -1.288765
 305  -252.158
 306  -490.7982
 307  85.21358
 308  -47.24128
 309  -378.9274
 310  -416.1797
 311  -387.719
 312  -103.059
 313  -369.0989
 314  -293.4886
 315  -135.6075
 316  -357.1828
 317  -403.9353
 318  -131.1434
 319  -396.9927
 320  -394.7735
 321  -11.85478
 322  303.252
 323  1211.8
 324  2373.029
 325  1520.968
 326  558.0674
 327  779.6204
 328  1516.78
 329  2492.722
 330  2528.651
 331  2908.874
 332  2095.693
 333  889.7637
 334  721.4366
 335  -297.2715
 336  167.6723
 337  -301.9612
 338  -386.9825
 339  -83.98183
 340  213.0609
 341  542.4486
 342  357.1095
 343  96.31073
 344  -39.42118
 345  -415.3438
 346  -397.816
 347  -386.8088
 348  -126.674
 349  157.2683
 350  266.0189
 351  331.649
 352  -152.4146
 353  -808.6275
 354  -760.6729
 355  -612.4793
 356  -103.1472
 357  147.3584
 358  283.9917
 359  374.1772
 360  -47.99355
 361  -34.09182
 362  -190.4527
 363  91.69002
 364  -481.5755
 365  -302.7651
 366  -40.2593
 367  -639.3727
 368  -602.0035
 369  -449.0697
 370  -671.369
 371  -736.1796
 372  -488.8293
 373  -339.2189
 374  -137.3255
 375  -441.6755
 376  -166.6881
 377  -74.63301
 378  -359.0564
 379  -455.8739
 380  -66.7962
 381  315.3958
 382  -172.2541
 383  -123.937
 384  -153.833
 385  -126.5715
 386  -196.203
 387  -73.94589
 388  175.0576
 389  677.9108
 390  623.3249
 391  427.3466
 392  380.0615
 393  183.8385
 394  -439.5827
 395  -467.883
 396  -501.0146
 397  -474.0345
 398  -523.3719
 399  -144.4895
 400  -239.4913
 401  -434.8483
 402  -386.0727
 403  -251.5375
 404  -788.1359
 405  -714.7184
 406  -534.2813
 407  37.28091
 408  -275.1829
 409  -319.3849
 410  -149.0919
 411  -437.5261
 412  -682.1647
 413  -962.1821
 414  -763.5084
 415  -504.7272
 416  -43.54885
 417  172.7234
 418  177.6585
 419  159.6705
 420  -376.0205
 421  -621.1821
 422  -71.56432
 423  347.5303
 424  267.3926
 425  -181.082
 426  -142.1851
 427  -241.7992
 428  73.23428
 429  -187.4868
 430  -206.7645
 431  104.1524
 432  -326.1674
 433  -487.7428
 434  -396.9941
 435  -68.89066
 436  -504.9366
 437  -383.3756
 438  -184.2091
 439  38.60511
 440  -289.1626
 441  -437.9989
 442  -221.357
 443  -211.6612
 444  -393.4173
 445  -460.8429
 446  -461.5497
 447  -319.6017
 448  -293.55
 449  -251.8051
 450  -164.8554
 451  -160.8353
 452  -96.98719
 453  -488.8625
 454  -83.37846
 455  66.31172
 456  286.8357
 457  272.2301
 458  212.564
 459  421.3318
 460  402.2409
 461  637.6081
 462  198.7121
 463  33.788
 464  -175.4465
 465  -118.5382
 466  287.2966
 467  410.063
 468  540.9875
 469  220.5478
 470  53.0563
 471  -173.5838
 472  412.6543
 473  113.0157
 474  -48.46855
 475  -406.9547
 476  -224.4644
 477  -721.8948
 478  -986.0694
 479  -1039.432
 480  -808.5761
 481  -484.0078
 482  -565.7305
 483  -452.6404
 484  -188.5645
 485  -722.4769
 486  -898.3401
 487  -837.4033
 488  -641.7875
 489  -227.908
 490  -319.391
 491  -503.8912
 492  -540.2642
 493  -449.0694
 494  -273.3839
 495  -459.1083
 496  -676.8737
 497  -685.7375
 498  -500.7994
 499  -338.9035
 500  -489.8132
 501  -98.85651
 502  1099.494
 503  1177.811
 504  1525.737
 505  2030.803
 506  321.5304
 507  184.3229
 508  56.8772
 509  2401.46
 510  2519.776
 511  2052.033
