# Input file       =  1202050963.106889_cleaned.dat
# Candidate        =  PSR_0332+5434
# Telescope        =  AR
# Epoch_topo       =  58156.627107718625
# Epoch_bary       =  N/A
# T_sample         =  0.002
# Data Folded      =  7340032
# Data Avg         =  0.256155032037765
# Data StdDev      =  9.16102965965375 
# Profile Bins     =  512
# Profile Avg      =  3671.75076111193 
# Profile StdDev   =  1096.87789748796 
# Reduced chi-sqr  =  0.686
# Prob(Noise)      <  1   (~0.0 sigma)
# P_topo (ms)      =  714.578280623514  +/- 0.000646
# P'_topo (s/s)    =  -0                +/- 3.41e-10
# P''_topo (s/s^2) =  0                 +/- 1.51e-13
# P_bary (ms)      =  N/A
# P'_bary (s/s)    =  N/A
# P''_bary (s/s^2) =  N/A
# P_orb (s)        =  N/A
# asin(i)/c (s)    =  N/A
# eccentricity     =  N/A
# w (rad)          =  N/A
# T_peri           =  N/A
######################################################
   0  2865.21
   1  2896.119
   2  2549.82
   3  3157.222
   4  3638.668
   5  4313.575
   6  3301.674
   7  3072.328
   8  3113.951
   9  3500.957
  10  3612.785
  11  3821.681
  12  4600.602
  13  4210.362
  14  4003.058
  15  3822.146
  16  3665.865
  17  3931.901
  18  4359.113
  19  4906.483
  20  5223.638
  21  4337.823
  22  4502.705
  23  4559.505
  24  4266.835
  25  4270.349
  26  5479.667
  27  5509.481
  28  4878.603
  29  4931.172
  30  3964.565
  31  3645.401
  32  4715.395
  33  4966.676
  34  5271.902
  35  4797.658
  36  4438.321
  37  4757.271
  38  4860.929
  39  4921.912
  40  5227.942
  41  4606.043
  42  3955.799
  43  3893.391
  44  3985.771
  45  3838.802
  46  3209.75
  47  3935.562
  48  3957.264
  49  3161.129
  50  3838.276
  51  3701.591
  52  3445.61
  53  3853.729
  54  3703.364
  55  3975.697
  56  3388.694
  57  3804.333
  58  3765.661
  59  3862.304
  60  3297.255
  61  4044.649
  62  4482.285
  63  3945.484
  64  3697.576
  65  3637.792
  66  3756.348
  67  2775.685
  68  2786.56
  69  3713.63
  70  4198.032
  71  4075.406
  72  3739.141
  73  3183.398
  74  3308.624
  75  3605.4
  76  4134.781
  77  4273.907
  78  4475.719
  79  4169.991
  80  3323.317
  81  3497.761
  82  3398.137
  83  4078.122
  84  4318.702
  85  4058.927
  86  3735.813
  87  3874.045
  88  3755.161
  89  3070.559
  90  3266.346
  91  3735.569
  92  3663.206
  93  4044.886
  94  4340.396
  95  4184.33
  96  3971.138
  97  3936.129
  98  3706.058
  99  3544.981
 100  3771.719
 101  3573.163
 102  3515.014
 103  3370.052
 104  3745.175
 105  3307.908
 106  4098.325
 107  3665.44
 108  3927.437
 109  3683.206
 110  3462.644
 111  4057.808
 112  4379.441
 113  4159.553
 114  4019.482
 115  4622.53
 116  3941.507
 117  3646.918
 118  3659.26
 119  3257.177
 120  3536.212
 121  3670.612
 122  3710.971
 123  2875.629
 124  3085.804
 125  3386.877
 126  3198.967
 127  3359.229
 128  3900.746
 129  4284.437
 130  4281.304
 131  3658.184
 132  4021.019
 133  3634.778
 134  4172.22
 135  5135.5
 136  5201.478
 137  4781.034
 138  3810.365
 139  4664.019
 140  4706.5
 141  4419.61
 142  4340.472
 143  3845.983
 144  3677.166
 145  4028.695
 146  3896.377
 147  3957.85
 148  4301.086
 149  3857.58
 150  3424.538
 151  3275.162
 152  3592.941
 153  4161.396
 154  3925.8
 155  3274.98
 156  3707.91
 157  3222.988
 158  2781.123
 159  3384.413
 160  3466.988
 161  3756.318
 162  3453.531
 163  3120.946
 164  3201.707
 165  2939.18
 166  3587.883
 167  3404.037
 168  3985.135
 169  4654.302
 170  4483.469
 171  4577.725
 172  4901.002
 173  4746.744
 174  4331.521
 175  5392.086
 176  5108.658
 177  5323.616
 178  5545.326
 179  5542.218
 180  4965.821
 181  5058.683
 182  5104.967
 183  4986.925
 184  5738.402
 185  4805.483
 186  4080.665
 187  3867.485
 188  3576.904
 189  4340.95
 190  4940.861
 191  4021.566
 192  4042.465
 193  4004.876
 194  4061.449
 195  4103.788
 196  4315.54
 197  4162.553
 198  3637.225
 199  3157.316
 200  3501.555
 201  3532.322
 202  3027
 203  3020.264
 204  3285.991
 205  3113.018
 206  3356.137
 207  3261.561
 208  3113.361
 209  3315.725
 210  3303.977
 211  3089.025
 212  3078.098
 213  3043.873
 214  3027.495
 215  3008.598
 216  3688.875
 217  3559.308
 218  3197.148
 219  3015.871
 220  3378.646
 221  3336.154
 222  2877.989
 223  3761.001
 224  3858.594
 225  3228.779
 226  2862.146
 227  3450.627
 228  3192.287
 229  3300.308
 230  2647.14
 231  2126.688
 232  1322.405
 233  1778.857
 234  2949.637
 235  2834.239
 236  2951.356
 237  3085.233
 238  3041.086
 239  2656.586
 240  2697.813
 241  3021.524
 242  3582.363
 243  3500.8
 244  3703.916
 245  3247.972
 246  2184.609
 247  2286.772
 248  2791.405
 249  2784.271
 250  2733.456
 251  3005.844
 252  2798.978
 253  2653.379
 254  2120.851
 255  2693.783
 256  2831.525
 257  3162.021
 258  3342.68
 259  3239.434
 260  3331.157
 261  3440.568
 262  4096.652
 263  3894.857
 264  3764.629
 265  4036.867
 266  2996.033
 267  2962.874
 268  3280.369
 269  3033.997
 270  3575.311
 271  3792.048
 272  3963.941
 273  4172.735
 274  3585.46
 275  2968.085
 276  3012.364
 277  3231.517
 278  3092.138
 279  2990.817
 280  3104.48
 281  3254.24
 282  2486.295
 283  2509.429
 284  2248.346
 285  2745.749
 286  3287.896
 287  3725.425
 288  3206.141
 289  2704.318
 290  3317.078
 291  3796.385
 292  2851.152
 293  2318.129
 294  2526.59
 295  2252.421
 296  3215.06
 297  3284.75
 298  3155.474
 299  3678.11
 300  4098.404
 301  4840.145
 302  4883.064
 303  4853.916
 304  4681.924
 305  4655.841
 306  4585.917
 307  4236.593
 308  4327.938
 309  3539.49
 310  3132.659
 311  3654.971
 312  3846.144
 313  3831.57
 314  3806.646
 315  3962.159
 316  3473.182
 317  3317.792
 318  4077.981
 319  4654.857
 320  4669.836
 321  3870.205
 322  4028.442
 323  3994.948
 324  3798.93
 325  3024.145
 326  3271.954
 327  3976.627
 328  4040.386
 329  4288.639
 330  4460.083
 331  4664.782
 332  3791.25
 333  3622.893
 334  3261.47
 335  3857.216
 336  3618.495
 337  3785.421
 338  3758.294
 339  3079.969
 340  3152.108
 341  2883.18
 342  2934.071
 343  3131.822
 344  4266.237
 345  3939.347
 346  3488.2
 347  2813.35
 348  3205.172
 349  4245.911
 350  4424.802
 351  4624.792
 352  4276.51
 353  3073.487
 354  2379.169
 355  2324.348
 356  2934.845
 357  3040.527
 358  3453.044
 359  3566.013
 360  3019.08
 361  2530.089
 362  2942.367
 363  3250.882
 364  3135.636
 365  3401.846
 366  4141.334
 367  3979.94
 368  2807.982
 369  3008.998
 370  3131.902
 371  3207.888
 372  3263.408
 373  3344.962
 374  3779.003
 375  4207.104
 376  4344.985
 377  3853.326
 378  3909.603
 379  3640.587
 380  3735.417
 381  3753.775
 382  3551.974
 383  3042.02
 384  3098.623
 385  3102.32
 386  3103.004
 387  3217.083
 388  3430.504
 389  2612.326
 390  2234.412
 391  2548.343
 392  2489.881
 393  2416.266
 394  2602.433
 395  3263.59
 396  3788.898
 397  3340.777
 398  2692.438
 399  2130.125
 400  2408.724
 401  2771.411
 402  2949.983
 403  3182.947
 404  3615.523
 405  4333.628
 406  3936.844
 407  3478.846
 408  3434.5
 409  3268.137
 410  3076.047
 411  3437.495
 412  4314.69
 413  3940.631
 414  3460.469
 415  3349.104
 416  3867.157
 417  3906.812
 418  3799.817
 419  4427.834
 420  4258.763
 421  3986.993
 422  3616.984
 423  4168.061
 424  4209.433
 425  4262.541
 426  4172.145
 427  3690.603
 428  3045.748
 429  3042.365
 430  3297.007
 431  3989.923
 432  3519.54
 433  3914.595
 434  3585.09
 435  4318.361
 436  4465.666
 437  4392.453
 438  4409.642
 439  3636.785
 440  3835.385
 441  3983.288
 442  3890.791
 443  3488.571
 444  3505.861
 445  4191.235
 446  3701.206
 447  3599.517
 448  3859.63
 449  3591.633
 450  3315.237
 451  3242.327
 452  3803.874
 453  3797.413
 454  3200.863
 455  3515.339
 456  3561.137
 457  3376.209
 458  3607.887
 459  4190.492
 460  4635.181
 461  4422.074
 462  4017.686
 463  3727.139
 464  4527.7
 465  4533.705
 466  4458.035
 467  4251.647
 468  3793.57
 469  3579.866
 470  3637.984
 471  2931.769
 472  3197.317
 473  3952.957
 474  3930.602
 475  3942.238
 476  3163.307
 477  3018.427
 478  3505.407
 479  3497.679
 480  3463.551
 481  3435.618
 482  3707.324
 483  3867.921
 484  3762.53
 485  3653.261
 486  3796.128
 487  3658.721
 488  3575.392
 489  3373.933
 490  3572.749
 491  4168.6
 492  4391.891
 493  3904.963
 494  3898.567
 495  3657.884
 496  3576.21
 497  3665.727
 498  3817.921
 499  3870.258
 500  3913.835
 501  3470.939
 502  3255.242
 503  3460.389
 504  3890.968
 505  4008.475
 506  3813.423
 507  3770.77
 508  3457.471
 509  3059.024
 510  2506.272
 511  2524.156
