# Input file       =  1202121883.110952_cleaned.dat
# Candidate        =  PSR_0332+5434
# Telescope        =  AR
# Epoch_topo       =  58157.447941098981
# Epoch_bary       =  N/A
# T_sample         =  0.002
# Data Folded      =  7143424
# Data Avg         =  0.166564901339088
# Data StdDev      =  5.23082338681149 
# Profile Bins     =  512
# Profile Avg      =  2323.87376413264 
# Profile StdDev   =  617.857454124819 
# Reduced chi-sqr  =  0.916
# Prob(Noise)      <  0.914   (~0.0 sigma)
# P_topo (ms)      =  714.578498194975  +/- 3.81e-05
# P'_topo (s/s)    =  -0                +/- 2.06e-11
# P''_topo (s/s^2) =  0                 +/- 9.36e-15
# P_bary (ms)      =  N/A
# P'_bary (s/s)    =  N/A
# P''_bary (s/s^2) =  N/A
# P_orb (s)        =  N/A
# asin(i)/c (s)    =  N/A
# eccentricity     =  N/A
# w (rad)          =  N/A
# T_peri           =  N/A
######################################################
   0  2330.643
   1  2673.611
   2  2906.6
   3  3142.6
   4  2594.995
   5  2318.238
   6  2027.5
   7  1983.149
   8  1827.819
   9  2189.886
  10  2569.991
  11  2611.959
  12  2338.773
  13  1616.465
  14  1547.27
  15  1926.066
  16  2242.067
  17  2734.159
  18  2747.758
  19  2655.641
  20  2523.132
  21  2376.674
  22  2428.439
  23  2370.648
  24  2105.049
  25  2181.552
  26  2285.79
  27  2448.517
  28  2370.318
  29  2432.368
  30  2308.253
  31  2176.931
  32  2533.021
  33  2996.571
  34  2741.082
  35  2883.777
  36  3140.176
  37  2693.144
  38  2353.049
  39  2308.664
  40  2321.113
  41  2102.991
  42  2456.558
  43  2407.001
  44  2342.194
  45  2342.823
  46  2112.353
  47  1899.183
  48  1829.516
  49  2155.721
  50  2436.364
  51  3014.548
  52  3181.067
  53  3143.536
  54  2566.9
  55  2245.215
  56  2167.94
  57  1999.111
  58  2001.878
  59  2005.556
  60  2179.25
  61  2222.241
  62  2239.525
  63  2073.532
  64  1862.008
  65  2182.811
  66  2284.835
  67  2697.017
  68  2856.148
  69  2947.122
  70  2483.333
  71  2138.253
  72  2027.275
  73  2034.911
  74  2287.937
  75  2442.573
  76  2593.211
  77  2559.271
  78  2234.886
  79  1974.353
  80  1718.123
  81  1922.909
  82  2183.117
  83  2863.65
  84  2792.855
  85  2938.123
  86  2758.844
  87  2448.578
  88  2349.07
  89  1926.417
  90  1940.499
  91  1909.937
  92  2262.728
  93  2579.007
  94  2790.914
  95  2382.343
  96  1791.636
  97  1680.898
  98  1929.623
  99  2566.001
 100  2976.218
 101  3000.69
 102  3184.299
 103  3017.33
 104  2314.161
 105  2143.58
 106  2232.979
 107  2390.969
 108  2496.14
 109  2177.992
 110  2375.277
 111  2532.357
 112  2211.275
 113  2133.057
 114  2103.578
 115  2406.817
 116  2466.031
 117  2847.408
 118  3497.126
 119  3026.938
 120  2329.595
 121  2070.212
 122  1991.24
 123  1876.797
 124  2401.804
 125  2679.825
 126  2530.585
 127  2481.23
 128  2253.89
 129  1845.314
 130  2050.492
 131  2063.337
 132  2595.808
 133  2970.181
 134  2982.022
 135  2966.414
 136  3052.458
 137  2210.41
 138  1867.827
 139  2446.118
 140  2445.692
 141  2498.803
 142  2518.14
 143  2540.797
 144  2458.733
 145  2197.024
 146  2261.908
 147  2290.107
 148  2440.406
 149  2527.374
 150  3057.562
 151  3152.79
 152  3326.072
 153  3254.132
 154  3001.059
 155  2949.747
 156  3488.253
 157  3735.929
 158  3961.031
 159  3988.025
 160  3254.421
 161  2231.968
 162  1661.244
 163  1696.664
 164  1714.627
 165  2090.821
 166  2877.079
 167  3044.572
 168  2942.518
 169  2978.757
 170  2588.033
 171  2085.839
 172  1849.175
 173  2175.129
 174  2299.606
 175  2466.022
 176  2841.5
 177  2530.039
 178  2039.972
 179  1951.746
 180  1961.711
 181  2212.719
 182  2827.25
 183  3240.704
 184  3274.166
 185  2842.093
 186  2334.418
 187  1736.537
 188  1958.836
 189  2221.847
 190  2308.437
 191  2175.365
 192  2403.345
 193  2228.824
 194  1910.565
 195  1553.976
 196  1608.628
 197  1841.536
 198  2184.336
 199  2380.517
 200  2694.402
 201  3155.282
 202  2814.835
 203  2153.021
 204  1982.496
 205  1833.292
 206  1525.363
 207  1788.772
 208  2431.454
 209  2587.569
 210  2575.451
 211  1889.191
 212  1818.103
 213  1758.875
 214  2392.483
 215  2692.788
 216  2980.677
 217  3456.57
 218  3308.651
 219  2596.219
 220  1759.002
 221  1621.786
 222  1719.041
 223  1956.023
 224  2242.666
 225  2501.58
 226  2307.508
 227  2003.347
 228  1829.104
 229  1876.775
 230  1906.618
 231  2122.197
 232  2404.725
 233  2712.985
 234  3054.086
 235  2882.578
 236  2738.909
 237  2132.519
 238  1804.059
 239  2049.42
 240  2225
 241  2546.446
 242  2672.438
 243  2603.657
 244  2109.861
 245  1621.978
 246  1656.986
 247  1971.365
 248  2386.204
 249  3176.887
 250  3545.191
 251  3385.107
 252  2273.483
 253  2249.886
 254  2259.686
 255  2328.52
 256  2511.229
 257  2406.525
 258  2174.436
 259  2022.628
 260  1992.047
 261  2139.141
 262  1771.336
 263  2119.467
 264  2101.574
 265  2448.174
 266  2953.454
 267  2607.719
 268  2619.096
 269  2279.894
 270  1809.568
 271  2029.698
 272  2250.74
 273  2079.158
 274  1918.385
 275  2360.733
 276  2268.92
 277  1979.202
 278  1773.337
 279  1730.21
 280  2325.785
 281  2981.186
 282  3163.141
 283  3148.618
 284  2904.821
 285  2143.24
 286  2136.838
 287  2260.35
 288  2182.658
 289  2158.828
 290  2101.634
 291  2313.519
 292  2370.131
 293  2419.056
 294  1703.142
 295  1812.885
 296  1479.328
 297  1645.391
 298  2478.242
 299  3100.59
 300  3189.52
 301  2361.43
 302  1991.331
 303  1880.079
 304  1774.192
 305  1885.91
 306  2110.45
 307  2391.009
 308  2436.104
 309  2534.765
 310  2376.986
 311  1977.351
 312  1522.951
 313  2022.564
 314  2563.193
 315  2702.837
 316  2433.446
 317  2425.044
 318  2215.108
 319  2103.995
 320  2262.328
 321  2088.731
 322  1988.9
 323  1660.479
 324  2157.436
 325  2182.308
 326  1969.946
 327  1971.196
 328  1919.964
 329  1785.48
 330  2078.536
 331  2688.817
 332  2954.387
 333  3167.907
 334  2799.189
 335  2370.721
 336  2132.858
 337  1853.316
 338  1569.397
 339  2095.201
 340  2106.055
 341  1711.931
 342  1985.814
 343  2087.232
 344  1874.69
 345  1844.023
 346  1838.612
 347  2411.492
 348  2469.637
 349  2781.535
 350  2482.508
 351  2404.714
 352  2629.292
 353  2326.728
 354  1951.796
 355  1758.031
 356  1859.987
 357  2102.577
 358  1953.794
 359  2193.783
 360  2165.297
 361  1539.772
 362  1768.35
 363  1664.251
 364  2334.881
 365  3279.688
 366  2883.071
 367  2465.857
 368  1812.295
 369  1786.318
 370  1810.361
 371  2048.258
 372  2302.967
 373  2167.068
 374  2259.06
 375  2248.362
 376  1830.625
 377  1901.738
 378  1893.396
 379  1549.877
 380  2141.184
 381  2591.559
 382  2687.111
 383  2614.312
 384  2488.769
 385  1957.963
 386  1847.74
 387  2037.245
 388  2125.131
 389  2414.024
 390  2239.611
 391  2118.148
 392  2091.109
 393  1863.546
 394  2237.092
 395  2216.214
 396  2136.019
 397  2386.569
 398  2547.847
 399  2624.139
 400  2283.411
 401  2241.989
 402  1887.622
 403  2037.329
 404  2096.786
 405  1997.872
 406  2150.299
 407  2159.823
 408  1958.285
 409  1690.243
 410  1709.333
 411  2118.38
 412  1901.102
 413  2158.399
 414  2653.676
 415  2985.484
 416  3093.483
 417  2833.396
 418  2074.594
 419  1887.494
 420  1615.026
 421  1819.908
 422  1952.962
 423  2169.871
 424  2347.803
 425  2012.23
 426  2076.51
 427  2039.872
 428  2200.255
 429  2335.745
 430  2538.044
 431  2948.239
 432  2669.801
 433  2506.151
 434  2482.695
 435  2132.552
 436  2346.324
 437  2310.602
 438  2181.13
 439  2373.912
 440  2129.484
 441  2068.752
 442  2178.454
 443  1874.06
 444  2136.614
 445  2533.384
 446  2283.882
 447  2374.512
 448  3098.758
 449  2874.15
 450  2712.244
 451  2363.215
 452  2290.071
 453  2258.633
 454  2225.201
 455  2165.211
 456  2224.812
 457  2389.447
 458  2411.999
 459  1829.079
 460  1894.672
 461  1867.223
 462  2262.772
 463  2878.628
 464  3168.327
 465  2691.335
 466  2703.882
 467  2535.734
 468  2435.845
 469  2565.929
 470  2299.233
 471  2206.36
 472  2051.623
 473  2062.091
 474  2404.875
 475  2293.058
 476  2065.419
 477  1837.945
 478  2083.889
 479  2369.892
 480  3239.559
 481  3366.257
 482  3292.219
 483  2746.82
 484  1965.19
 485  1895.228
 486  1957.733
 487  1971.497
 488  2357.593
 489  2313.088
 490  1951.427
 491  1833.306
 492  2029.286
 493  1960.763
 494  2236.784
 495  2458.059
 496  2682.484
 497  2636.67
 498  2653.619
 499  2580.264
 500  2306.8
 501  2301.952
 502  1899.551
 503  2180.066
 504  2287.563
 505  2253.625
 506  2176.595
 507  2222.164
 508  2150.358
 509  2064.913
 510  1897.577
 511  1930.863
