# Input file       =  1202481266.11084_cleaned.dat
# Candidate        =  PSR_0332+5434
# Telescope        =  AR
# Epoch_topo       =  58161.607466560650
# Epoch_bary       =  N/A
# T_sample         =  0.002
# Data Folded      =  7340032
# Data Avg         =  0.0335097784956961
# Data StdDev      =  1.00006656331928 
# Profile Bins     =  512
# Profile Avg      =  480.80837620518  
# Profile StdDev   =  119.741006205095 
# Reduced chi-sqr  =  1.195
# Prob(Noise)      <  0.00155   (~3.0 sigma)
# P_topo (ms)      =  714.579555465993  +/- 0.000287
# P'_topo (s/s)    =  -0                +/- 1.51e-10
# P''_topo (s/s^2) =  0                 +/- 6.68e-14
# P_bary (ms)      =  N/A
# P'_bary (s/s)    =  N/A
# P''_bary (s/s^2) =  N/A
# P_orb (s)        =  N/A
# asin(i)/c (s)    =  N/A
# eccentricity     =  N/A
# w (rad)          =  N/A
# T_peri           =  N/A
######################################################
   0  1109.768
   1  1015.058
   2  860.3828
   3  602.7661
   4  443.1302
   5  410.4909
   6  450.5628
   7  455.6916
   8  424.7722
   9  422.0455
  10  360.4579
  11  301.6518
  12  403.3196
  13  489.0626
  14  490.892
  15  478.3982
  16  486.9258
  17  447.0465
  18  373.6048
  19  415.0352
  20  534.2421
  21  496.2999
  22  456.4714
  23  499.7064
  24  455.7288
  25  457.7258
  26  448.0147
  27  434.7245
  28  483.6212
  29  530.4843
  30  444.4186
  31  457.1657
  32  468.9755
  33  505.192
  34  475.2936
  35  462.7994
  36  465.3786
  37  368.5648
  38  386.6704
  39  472.7017
  40  523.4263
  41  525.6077
  42  446.7924
  43  418.9897
  44  378.9686
  45  350.1433
  46  408.8765
  47  315.2103
  48  326.9685
  49  379.0147
  50  393.2074
  51  389.7365
  52  443.0927
  53  480.9399
  54  557.855
  55  569.7038
  56  482.9514
  57  474.6017
  58  471.2227
  59  389.7081
  60  429.178
  61  450.2722
  62  295.6243
  63  416.2058
  64  437.9084
  65  407.5185
  66  437.74
  67  406.523
  68  396.1754
  69  360.3475
  70  375.5726
  71  418.1327
  72  431.5937
  73  325.6581
  74  306.5362
  75  412.2769
  76  411.6253
  77  502.6401
  78  549.0762
  79  481.9038
  80  329.7218
  81  450.4358
  82  464.054
  83  449.2783
  84  434.841
  85  463.1176
  86  381.2955
  87  239.5602
  88  331.4264
  89  460.773
  90  369.7878
  91  361.4703
  92  364.4305
  93  419.0146
  94  438.5944
  95  495.7865
  96  452.7264
  97  496.1461
  98  605.8945
  99  516.0106
 100  472.1405
 101  479.3552
 102  456.1725
 103  415.1619
 104  356.0666
 105  411.1893
 106  388.1079
 107  440.3756
 108  454.4839
 109  380.3567
 110  444.5743
 111  468.7296
 112  455.0188
 113  523.6894
 114  505.5804
 115  465.0064
 116  437.5327
 117  424.9131
 118  464.5362
 119  496.1078
 120  443.4076
 121  507.2533
 122  495.9154
 123  491.2373
 124  537.4443
 125  605.1738
 126  595.9226
 127  509.6514
 128  451.4192
 129  454.0715
 130  464.8603
 131  519.914
 132  561.5485
 133  424.3238
 134  393.9382
 135  389.1648
 136  464.0285
 137  399.9008
 138  319.3918
 139  392.4473
 140  362.3172
 141  318.4198
 142  314.0164
 143  383.1595
 144  509.3629
 145  504.1351
 146  448.1605
 147  433.7256
 148  386.2952
 149  422.0107
 150  466.3414
 151  424.6331
 152  484.6225
 153  570.0898
 154  415.4868
 155  332.9371
 156  320.7996
 157  296.3131
 158  258.8706
 159  373.6073
 160  445.6844
 161  426.3077
 162  438.9583
 163  479.0098
 164  419.3183
 165  411.2214
 166  510.2972
 167  564.9191
 168  563.4149
 169  625.0795
 170  536.7839
 171  532.4255
 172  573.322
 173  541.6348
 174  485.4415
 175  456.8694
 176  557.1102
 177  415.3585
 178  536.5062
 179  543.1903
 180  463.2888
 181  409.1439
 182  489.8262
 183  498.5271
 184  494.8531
 185  514.0227
 186  419.6349
 187  414.9414
 188  449.5287
 189  396.7317
 190  424.6694
 191  391.1578
 192  404.1935
 193  500.7566
 194  395.4304
 195  427.4492
 196  558.1593
 197  528.7623
 198  550.3682
 199  589.5733
 200  603.4636
 201  548.9894
 202  488.6153
 203  447.6184
 204  446.9598
 205  396.5852
 206  363.9438
 207  303.7832
 208  393.5032
 209  484.1113
 210  554.7302
 211  528.7776
 212  431.8152
 213  339.5782
 214  377.9047
 215  422.3697
 216  440.1337
 217  376.6154
 218  430.062
 219  520.6406
 220  511.9393
 221  410.8607
 222  362.8945
 223  393.1693
 224  359.9546
 225  398.0744
 226  439.2313
 227  502.632
 228  514.8074
 229  451.1017
 230  354.1277
 231  450.6655
 232  397.6366
 233  385.7729
 234  482.0886
 235  544.4551
 236  573.8527
 237  589.5558
 238  570.9662
 239  539.7142
 240  433.1239
 241  478.5144
 242  569.3061
 243  550.3448
 244  452.8402
 245  482.0685
 246  471.8187
 247  595.6659
 248  538.5137
 249  492.8867
 250  514.3828
 251  387.9825
 252  509.7575
 253  464.9258
 254  456.5146
 255  553.49
 256  537.701
 257  440.3548
 258  470.7466
 259  483.8365
 260  465.9754
 261  556.8829
 262  471.0678
 263  417.088
 264  453.1278
 265  588.1163
 266  622.5122
 267  526.506
 268  408.7036
 269  580.757
 270  500.9561
 271  520.649
 272  516.6918
 273  565.3097
 274  596.3589
 275  574.3577
 276  409.6954
 277  545.2966
 278  538.5661
 279  545.7881
 280  449.2521
 281  363.6301
 282  410.0411
 283  529.4758
 284  461.5666
 285  431.8869
 286  482.0709
 287  387.1951
 288  411.541
 289  417.4064
 290  351.3855
 291  364.6998
 292  499.2848
 293  532.0908
 294  438.3053
 295  397.7693
 296  475.773
 297  496.0229
 298  513.6766
 299  573.759
 300  618.4002
 301  659.4875
 302  556.871
 303  505.6633
 304  486.3686
 305  447.7484
 306  480.1379
 307  549.8373
 308  458.6196
 309  501.631
 310  590.1183
 311  567.6257
 312  511.6031
 313  584.8594
 314  510.3776
 315  418.4067
 316  322.9041
 317  453.6245
 318  486.5886
 319  404.3461
 320  452.945
 321  527.013
 322  510.312
 323  524.3457
 324  567.2527
 325  572.1745
 326  512.5942
 327  564.6782
 328  587.753
 329  695.154
 330  631.823
 331  503.7971
 332  560.182
 333  571.5452
 334  562.4028
 335  520.5238
 336  526.8652
 337  512.4421
 338  553.4508
 339  511.5246
 340  442.556
 341  409.3908
 342  403.9801
 343  395.7064
 344  343.4013
 345  446.965
 346  467.8434
 347  362.1971
 348  494.3395
 349  484.4052
 350  501.2316
 351  447.741
 352  564.2426
 353  542.5815
 354  491.4993
 355  416.7622
 356  474.4593
 357  475.9525
 358  489.0852
 359  466.3732
 360  459.4908
 361  495.2273
 362  472.4618
 363  451.7099
 364  436.7174
 365  418.4421
 366  450.6842
 367  421.1331
 368  456.553
 369  449.2422
 370  425.549
 371  468.5681
 372  460.5802
 373  447.3539
 374  515.4623
 375  549.8653
 376  470.9996
 377  374.5951
 378  392.0096
 379  454.7096
 380  445.2642
 381  605.8719
 382  524.124
 383  402.6326
 384  490.5187
 385  472.9301
 386  475.5427
 387  560.3149
 388  669.41
 389  680.0016
 390  525.5225
 391  572.8803
 392  497.8608
 393  503.5732
 394  575.5784
 395  566.5025
 396  518.8851
 397  494.3773
 398  559.2302
 399  604.851
 400  607.1308
 401  533.6246
 402  531.2239
 403  593.4883
 404  575.7416
 405  558.9233
 406  586.2339
 407  643.6734
 408  462.8185
 409  487.8059
 410  654.9102
 411  589.6812
 412  489.1575
 413  475.2464
 414  470.2128
 415  414.376
 416  530.7959
 417  608.515
 418  523.8447
 419  431.7549
 420  536.2671
 421  450.7608
 422  461.815
 423  566.3415
 424  608.9531
 425  530.2354
 426  577.3954
 427  558.2563
 428  415.1075
 429  422.1714
 430  476.0003
 431  482.0571
 432  422.2862
 433  446.3011
 434  465.1721
 435  407.8594
 436  529.9373
 437  512.6219
 438  520.3766
 439  440.2517
 440  444.1998
 441  466.3289
 442  428.5869
 443  554.7095
 444  592.2415
 445  560.6074
 446  626.9062
 447  597.9277
 448  567.451
 449  597.7801
 450  499.1466
 451  469.0142
 452  507.9491
 453  449.2867
 454  516.1996
 455  483.4477
 456  375.4558
 457  491.4208
 458  459.8063
 459  530.6801
 460  660.2588
 461  483.7557
 462  580.0339
 463  581.7256
 464  583.8138
 465  557.9544
 466  498.2004
 467  454.6743
 468  429.6209
 469  518.7103
 470  501.0493
 471  553.1484
 472  378.1821
 473  386.0904
 474  458.322
 475  393.8806
 476  347.8849
 477  424.1
 478  498.8913
 479  506.2004
 480  454.3023
 481  413.7141
 482  372.2313
 483  419.5445
 484  498.1314
 485  499.2046
 486  453.7312
 487  418.1399
 488  438.0971
 489  493.8608
 490  556.6763
 491  443.2021
 492  430.0519
 493  512.7245
 494  530.6075
 495  472.5093
 496  454.5124
 497  502.1526
 498  528.8746
 499  522.9908
 500  525.1992
 501  458.6208
 502  493.0168
 503  503.9899
 504  446.6013
 505  468.5879
 506  530.7076
 507  528.6801
 508  642.6278
 509  794.9849
 510  1053.763
 511  1246.804
