# Input file       =  1202121883.110952_cleaned.dat
# Candidate        =  PSR_0332+5434
# Telescope        =  AR
# Epoch_topo       =  58157.447941098981
# Epoch_bary       =  N/A
# T_sample         =  0.002
# Data Folded      =  7143424
# Data Avg         =  0.0168355628662588
# Data StdDev      =  1.00012195319797 
# Profile Bins     =  512
# Profile Avg      =  234.871843518611 
# Profile StdDev   =  118.132989420985 
# Reduced chi-sqr  =  1.728
# Prob(Noise)      <  2.62e-22   (~9.6 sigma)
# P_topo (ms)      =  714.578497167784  +/- 0.000143
# P'_topo (s/s)    =  -0                +/- 7.75e-11
# P''_topo (s/s^2) =  0                 +/- 3.52e-14
# P_bary (ms)      =  N/A
# P'_bary (s/s)    =  N/A
# P''_bary (s/s^2) =  N/A
# P_orb (s)        =  N/A
# asin(i)/c (s)    =  N/A
# eccentricity     =  N/A
# w (rad)          =  N/A
# T_peri           =  N/A
######################################################
   0  972.5433
   1  1018.204
   2  875.1746
   3  579.9176
   4  362.5078
   5  182.3682
   6  192.3424
   7  49.72619
   8  84.9929
   9  221.4624
  10  239.5783
  11  257.0438
  12  341.1934
  13  380.2217
  14  276.9181
  15  228.389
  16  286.9562
  17  267.0024
  18  274.095
  19  373.8977
  20  264.6665
  21  207.8546
  22  248.9972
  23  173.347
  24  220.774
  25  363.0335
  26  384.3207
  27  279.9561
  28  228.4921
  29  187.5784
  30  123.2756
  31  266.5283
  32  325.5212
  33  241.1872
  34  153.3879
  35  289.8113
  36  267.8242
  37  105.842
  38  84.53872
  39  148.6984
  40  199.0164
  41  216.8556
  42  221.5591
  43  257.5642
  44  386.8906
  45  298.0965
  46  156.4009
  47  218.3686
  48  123.2276
  49  -1.405968
  50  120.0935
  51  259.2501
  52  343.1642
  53  219.8849
  54  200.6831
  55  213.204
  56  160.3664
  57  338.6878
  58  286.9324
  59  258.0762
  60  380.6163
  61  350.8611
  62  276.5916
  63  157.4083
  64  114.7066
  65  110.3671
  66  146.3954
  67  216.9626
  68  256.409
  69  204.5981
  70  184.3943
  71  178.9124
  72  208.7654
  73  259.0518
  74  285.6382
  75  202.3925
  76  251.3572
  77  311.4061
  78  325.6444
  79  326.6395
  80  263.8087
  81  206.2907
  82  202.1876
  83  308.3433
  84  344.2325
  85  372.7541
  86  389.5702
  87  295.9301
  88  133.9342
  89  101.3284
  90  149.0808
  91  209.9823
  92  407.6521
  93  492.2155
  94  465.354
  95  188.9037
  96  246.5495
  97  266.1422
  98  316.3767
  99  360.0729
 100  282.3399
 101  173.5158
 102  143.8669
 103  159.0245
 104  180.7438
 105  57.61114
 106  216.0392
 107  172.9022
 108  226.2327
 109  257.9065
 110  80.57662
 111  166.5722
 112  193.4856
 113  191.66
 114  342.2559
 115  322.6354
 116  153.468
 117  76.4841
 118  160.4942
 119  198.4064
 120  251.5087
 121  229.9053
 122  148.6849
 123  267.052
 124  365.8761
 125  305.9669
 126  251.4081
 127  265.8134
 128  115.2209
 129  249.347
 130  277.6317
 131  208.5496
 132  109.067
 133  91.85098
 134  149.402
 135  217.4803
 136  272.3416
 137  130.0732
 138  88.23734
 139  1.001352
 140  9.946092
 141  155.3227
 142  242.8307
 143  203.7323
 144  96.55449
 145  133.3573
 146  171.159
 147  161.7943
 148  139.1093
 149  156.0845
 150  179.9257
 151  256.6621
 152  286.1499
 153  267.2948
 154  222.0398
 155  80.72786
 156  146.7112
 157  248.0485
 158  251.0394
 159  139.5424
 160  142.8589
 161  155.1624
 162  246.0834
 163  224.4683
 164  192.7101
 165  75.64295
 166  13.35504
 167  118.7538
 168  118.1648
 169  222.4651
 170  269.4238
 171  252.2494
 172  85.81647
 173  139.4482
 174  313.0941
 175  201.1183
 176  279.4337
 177  248.4154
 178  222.833
 179  264.083
 180  133.9405
 181  78.38017
 182  143.9818
 183  144.8391
 184  27.42428
 185  156.7197
 186  235.5132
 187  218.7242
 188  207.8116
 189  237.1688
 190  329.1363
 191  194.7917
 192  207.9809
 193  140.8071
 194  194.3464
 195  320.9611
 196  250.4516
 197  91.9371
 198  58.46863
 199  131.2032
 200  185.0565
 201  91.82822
 202  234.7988
 203  214.8557
 204  46.63985
 205  33.47493
 206  -3.979895
 207  173.5238
 208  321.6351
 209  251.9354
 210  179.8306
 211  76.89228
 212  126.7349
 213  196.4319
 214  208.2734
 215  215.0618
 216  185.4604
 217  179.1784
 218  182.6105
 219  118.2688
 220  206.5345
 221  143.0184
 222  8.945483
 223  128.571
 224  184.5431
 225  170.1362
 226  133.1704
 227  177.5043
 228  136.1846
 229  193.295
 230  258.0493
 231  278.0959
 232  265.9876
 233  171.6108
 234  135.8748
 235  124.4324
 236  228.2336
 237  363.3566
 238  291.8086
 239  146.0175
 240  69.46716
 241  76.65788
 242  140.7117
 243  216.0063
 244  206.7365
 245  218.6027
 246  291.6062
 247  183.9034
 248  104.6759
 249  181.2106
 250  184.9525
 251  133.756
 252  107.1044
 253  227.7176
 254  349.55
 255  206.845
 256  169.7443
 257  315.812
 258  303.5803
 259  243.5534
 260  185.0512
 261  61.65652
 262  65.90773
 263  74.14499
 264  217.9724
 265  189.6658
 266  196.9147
 267  209.9407
 268  103.1785
 269  206.7287
 270  205.3881
 271  264.8067
 272  230.9472
 273  274.5037
 274  295.9328
 275  272.5409
 276  230.0233
 277  183.5109
 278  219.4739
 279  260.0783
 280  241.8757
 281  221.0457
 282  284.4574
 283  225.2492
 284  196.5671
 285  232.8648
 286  109.4526
 287  219.6374
 288  322.6757
 289  158.4663
 290  129.3689
 291  318.0195
 292  233.7213
 293  251.0387
 294  195.7637
 295  285.2684
 296  303.785
 297  244.7032
 298  215.569
 299  254.9506
 300  199.665
 301  264.8304
 302  146.8398
 303  169.916
 304  138.8304
 305  260.0495
 306  322.6754
 307  266.9508
 308  187.9509
 309  297.2898
 310  343.0602
 311  327.543
 312  347.8044
 313  279.7885
 314  227.4257
 315  160.8412
 316  196.7374
 317  253.2162
 318  235.2909
 319  223.2209
 320  154.8766
 321  200.8751
 322  294.6182
 323  438.6194
 324  368.9069
 325  438.2613
 326  279.7089
 327  119.3791
 328  219.1747
 329  139.6531
 330  146.635
 331  243.9882
 332  184.6735
 333  134.1903
 334  99.83138
 335  217.7724
 336  219.2386
 337  208.2618
 338  299.6755
 339  309.1927
 340  174.6021
 341  203.9367
 342  243.7871
 343  189.0238
 344  142.3103
 345  62.89671
 346  173.1733
 347  249.1765
 348  218.9052
 349  253.6032
 350  215.1968
 351  231.5518
 352  191.1123
 353  154.1579
 354  152.093
 355  179.6543
 356  179.5477
 357  223.8902
 358  296.6907
 359  256.6327
 360  280.0491
 361  220.4877
 362  133.7215
 363  71.98967
 364  148.4972
 365  267.8868
 366  330.8586
 367  220.9578
 368  15.6806
 369  21.0626
 370  178.4641
 371  207.3851
 372  195.7109
 373  183.0574
 374  131.1971
 375  199.976
 376  216.9433
 377  248.2071
 378  225.4673
 379  207.802
 380  230.4653
 381  268.9099
 382  301.9615
 383  274.9238
 384  260.4436
 385  288.3009
 386  242.7346
 387  381.2961
 388  455.5696
 389  214.2267
 390  214.0783
 391  323.3514
 392  290.3648
 393  314.7529
 394  258.7946
 395  258.9766
 396  219.0036
 397  364.8993
 398  350.4872
 399  235.7645
 400  279.6227
 401  265.9054
 402  157.9799
 403  107.0431
 404  120.5728
 405  303.009
 406  368.1322
 407  427.1866
 408  325.6191
 409  160.6512
 410  191.17
 411  203.3863
 412  221.7238
 413  162.246
 414  181.7216
 415  185.154
 416  212.6959
 417  174.7263
 418  208.024
 419  218.3237
 420  182.7092
 421  225.3302
 422  278.855
 423  241.7048
 424  234.6296
 425  187.7857
 426  173.8643
 427  197.2556
 428  165.7263
 429  223.3872
 430  300.7523
 431  302.6763
 432  383.0015
 433  285.7733
 434  207.9891
 435  193.2703
 436  77.51956
 437  160.4298
 438  289.7899
 439  312.7827
 440  306.4779
 441  200.0779
 442  163.7131
 443  286.7737
 444  235.161
 445  253.2966
 446  122.5143
 447  146.4802
 448  321.0374
 449  401.3437
 450  290.926
 451  226.9944
 452  201.4891
 453  194.3329
 454  269.1565
 455  370.4164
 456  307.435
 457  430.4858
 458  403.5321
 459  301.6912
 460  251.0456
 461  318.9073
 462  352.2678
 463  356.5942
 464  236.7996
 465  320.7997
 466  319.0462
 467  244.9414
 468  177.6695
 469  203.4431
 470  287.625
 471  283.5346
 472  407.5298
 473  428.6946
 474  332.8506
 475  246.6893
 476  219.6268
 477  234.8518
 478  240.9297
 479  381.0682
 480  410.3862
 481  296.1806
 482  257.9375
 483  317.5919
 484  299.548
 485  310.3189
 486  307.0763
 487  377.44
 488  315.3444
 489  224.8186
 490  342.3151
 491  445.2156
 492  273.445
 493  212.8857
 494  263.4633
 495  290.1614
 496  363.3127
 497  333.1275
 498  306.9628
 499  331.2463
 500  280.9557
 501  394.2945
 502  320.4543
 503  288.0888
 504  281.8945
 505  337.4578
 506  312.7963
 507  453.9496
 508  584.9424
 509  614.4985
 510  735.7004
 511  921.4135
