# Input file       =  1202653658.112638_cleaned.dat
# Candidate        =  PSR_0332+5434
# Telescope        =  AR
# Epoch_topo       =  58163.602744359239
# Epoch_bary       =  N/A
# T_sample         =  0.002
# Data Folded      =  7340032
# Data Avg         =  -0.0288998456673802
# Data StdDev      =  1.00102019143504 
# Profile Bins     =  512
# Profile Avg      =  -414.30608734867 
# Profile StdDev   =  119.855186994969 
# Reduced chi-sqr  =  0.998
# Prob(Noise)      <  0.502   (~0.0 sigma)
# P_topo (ms)      =  714.579942528011  +/- 0.000384
# P'_topo (s/s)    =  -0                +/- 2.02e-10
# P''_topo (s/s^2) =  0                 +/- 8.93e-14
# P_bary (ms)      =  N/A
# P'_bary (s/s)    =  N/A
# P''_bary (s/s^2) =  N/A
# P_orb (s)        =  N/A
# asin(i)/c (s)    =  N/A
# eccentricity     =  N/A
# w (rad)          =  N/A
# T_peri           =  N/A
######################################################
   0  136.4377
   1  12.10319
   2  -11.23563
   3  -131.3224
   4  -200.75
   5  -196.858
   6  -283.0427
   7  -369.0278
   8  -401.6266
   9  -323.1734
  10  -368.5974
  11  -324.1637
  12  -434.2355
  13  -356.193
  14  -338.5799
  15  -323.0443
  16  -329.7816
  17  -265.6373
  18  -253.0857
  19  -257.5051
  20  -339.8185
  21  -326.9159
  22  -361.3968
  23  -359.8379
  24  -361.5212
  25  -398.5133
  26  -422.7518
  27  -430.863
  28  -474.2693
  29  -495.7641
  30  -452.8052
  31  -441.1792
  32  -438.2808
  33  -400.2066
  34  -365.8577
  35  -344.1786
  36  -460.93
  37  -431.1184
  38  -442.7899
  39  -494.8397
  40  -451.1959
  41  -347.3174
  42  -391.2261
  43  -408.5565
  44  -401.3731
  45  -438.7145
  46  -413.704
  47  -422.9915
  48  -514.672
  49  -459.3289
  50  -426.2113
  51  -424.8055
  52  -418.2408
  53  -451.2386
  54  -478.1472
  55  -535.421
  56  -507.2329
  57  -502.4748
  58  -447.2038
  59  -387.9486
  60  -354.1852
  61  -414.9286
  62  -510.5997
  63  -447.2032
  64  -489.0362
  65  -430.9887
  66  -416.7492
  67  -481.5256
  68  -507.3487
  69  -540.1121
  70  -516.6335
  71  -431.5251
  72  -472.377
  73  -500.9604
  74  -528.4293
  75  -538.949
  76  -510.604
  77  -537.613
  78  -473.2523
  79  -407.1158
  80  -443.2365
  81  -408.1473
  82  -442.9344
  83  -415.2324
  84  -460.9189
  85  -445.5531
  86  -357.9407
  87  -332.5352
  88  -421.57
  89  -530.9487
  90  -419.2165
  91  -383.3296
  92  -364.0822
  93  -451.5598
  94  -449.082
  95  -441.7875
  96  -495.2628
  97  -494.8818
  98  -472.149
  99  -410.597
 100  -368.382
 101  -305.7544
 102  -483.4724
 103  -483.321
 104  -451.2738
 105  -425.3367
 106  -514.1768
 107  -467.3508
 108  -432.537
 109  -476.6788
 110  -482.7672
 111  -485.7563
 112  -392.6311
 113  -462.0118
 114  -467.3324
 115  -431.4346
 116  -457.0932
 117  -473.9015
 118  -482.9527
 119  -418.2502
 120  -479.866
 121  -542.6737
 122  -495.4614
 123  -485.8755
 124  -452.8964
 125  -428.7548
 126  -511.0097
 127  -523.1655
 128  -451.023
 129  -485.6357
 130  -445.5287
 131  -430.3421
 132  -430.5562
 133  -547.6257
 134  -447.4997
 135  -345.9597
 136  -357.4659
 137  -322.235
 138  -340.3131
 139  -275.8376
 140  -376.4513
 141  -281.9491
 142  -391.195
 143  -417.6748
 144  -355.8517
 145  -433.6608
 146  -427.0739
 147  -405.9639
 148  -477.5027
 149  -465.8607
 150  -494.4311
 151  -439.0246
 152  -409.14
 153  -456.8975
 154  -443.4178
 155  -497.4067
 156  -500.9685
 157  -505.5959
 158  -540.6817
 159  -399.9658
 160  -417.0233
 161  -488.9572
 162  -461.9226
 163  -467.5144
 164  -478.4112
 165  -431.7625
 166  -499.3623
 167  -554.2891
 168  -572.6893
 169  -515.5514
 170  -488.6843
 171  -567.4662
 172  -489.1376
 173  -519.8987
 174  -548.2517
 175  -576.4136
 176  -493.3802
 177  -454.2553
 178  -424.2219
 179  -408.7424
 180  -331.5478
 181  -373.2353
 182  -334.5457
 183  -367.4371
 184  -421.5909
 185  -390.146
 186  -437.1733
 187  -390.5284
 188  -391.4204
 189  -464.1606
 190  -561.4092
 191  -464.5892
 192  -373.7263
 193  -373.4092
 194  -435.2311
 195  -372.1323
 196  -298.3212
 197  -392.9353
 198  -462.045
 199  -413.4137
 200  -455.0722
 201  -410.2587
 202  -395.0162
 203  -327.7375
 204  -261.9019
 205  -402.8959
 206  -366.3016
 207  -406.0489
 208  -365.9088
 209  -411.5492
 210  -395.8371
 211  -395.1699
 212  -357.0437
 213  -432.1041
 214  -402.7435
 215  -433.6437
 216  -486.2563
 217  -465.9443
 218  -343.2212
 219  -328.2302
 220  -381.8367
 221  -397.3231
 222  -405.9654
 223  -341.9127
 224  -357.9984
 225  -336.2314
 226  -374.9974
 227  -351.0522
 228  -358.12
 229  -382.2778
 230  -453.4754
 231  -440.0009
 232  -379.0528
 233  -399.0946
 234  -364.1914
 235  -360.5792
 236  -378.7176
 237  -407.7946
 238  -420.3326
 239  -411.9996
 240  -449.0362
 241  -499.2063
 242  -475.3186
 243  -431.8909
 244  -461.2525
 245  -388.5628
 246  -376.8297
 247  -364.7953
 248  -310.7487
 249  -357.4941
 250  -377.1289
 251  -403.9696
 252  -288.2978
 253  -361.6872
 254  -445.5529
 255  -466.9122
 256  -538.199
 257  -527.0376
 258  -451.0951
 259  -445.0182
 260  -401.8426
 261  -406.2022
 262  -387.3036
 263  -404.503
 264  -473.1835
 265  -497.9608
 266  -422.5654
 267  -479.3828
 268  -452.3643
 269  -509.8686
 270  -498.1864
 271  -416.097
 272  -433.6541
 273  -433.6632
 274  -493.6296
 275  -397.2521
 276  -335.2582
 277  -377.9985
 278  -464.4818
 279  -429.0772
 280  -379.0307
 281  -399.1399
 282  -429.9654
 283  -462.8466
 284  -431.3518
 285  -415.1912
 286  -476.1674
 287  -484.0653
 288  -509.0792
 289  -435.0139
 290  -464.8211
 291  -467.5164
 292  -447.2795
 293  -449.2733
 294  -470.5458
 295  -474.7125
 296  -458.8404
 297  -458.2397
 298  -492.5225
 299  -418.495
 300  -498.5463
 301  -488.9389
 302  -467.5357
 303  -364.0372
 304  -435.8368
 305  -436.2699
 306  -484.9788
 307  -484.1871
 308  -472.2984
 309  -509.6248
 310  -538.6161
 311  -433.0369
 312  -419.3915
 313  -412.6503
 314  -477.942
 315  -595.1172
 316  -526.7905
 317  -541.8275
 318  -550.1979
 319  -545.0098
 320  -505.7074
 321  -471.9551
 322  -434.4624
 323  -416.7198
 324  -421.9126
 325  -497.6432
 326  -523.8262
 327  -527.012
 328  -547.65
 329  -514.2867
 330  -481.5258
 331  -511.1044
 332  -514.6052
 333  -495.342
 334  -488.5097
 335  -513.5992
 336  -529.4597
 337  -532.2773
 338  -403.9058
 339  -444.3424
 340  -458.9481
 341  -393.539
 342  -361.4233
 343  -423.9254
 344  -417.1639
 345  -400.9669
 346  -367.9151
 347  -388.9513
 348  -389.59
 349  -300.9189
 350  -309.4537
 351  -408.685
 352  -463.0152
 353  -452.3646
 354  -431.8807
 355  -427.2153
 356  -444.7859
 357  -453.1381
 358  -378.219
 359  -390.7126
 360  -402.8764
 361  -364.4157
 362  -423.6845
 363  -424.1352
 364  -420.4906
 365  -367.8548
 366  -332.4608
 367  -360.1459
 368  -378.4925
 369  -341.3312
 370  -343.5993
 371  -343.0751
 372  -416.3056
 373  -408.4187
 374  -347.2343
 375  -462.9841
 376  -473.8574
 377  -528.2634
 378  -587.407
 379  -504.4113
 380  -435.5121
 381  -413.6955
 382  -463.9316
 383  -478.2969
 384  -485.0415
 385  -448.3431
 386  -460.372
 387  -386.105
 388  -380.9251
 389  -484.424
 390  -453.6095
 391  -388.2823
 392  -363.872
 393  -430.1199
 394  -479.3327
 395  -472.1168
 396  -461.1841
 397  -433.3435
 398  -439.9654
 399  -434.7912
 400  -350.4146
 401  -382.9173
 402  -417.0374
 403  -409.7391
 404  -468.9422
 405  -395.5953
 406  -402.883
 407  -485.648
 408  -495.5693
 409  -453.8762
 410  -384.4104
 411  -416.5826
 412  -393.2954
 413  -364.4177
 414  -330.2474
 415  -366.5722
 416  -426.3147
 417  -380.576
 418  -368.6139
 419  -378.2151
 420  -354.7206
 421  -503.7309
 422  -462.2448
 423  -373.7296
 424  -411.3454
 425  -331.1019
 426  -392.1378
 427  -306.9511
 428  -353.704
 429  -443.5209
 430  -481.2898
 431  -394.3575
 432  -251.7086
 433  -246.5875
 434  -269.0199
 435  -291.7223
 436  -373.4954
 437  -394.9377
 438  -393.7599
 439  -413.5529
 440  -393.2077
 441  -405.4803
 442  -336.6198
 443  -284.4552
 444  -357.5357
 445  -337.2696
 446  -314.2197
 447  -274.6665
 448  -304.23
 449  -423.2821
 450  -393.5998
 451  -384.0924
 452  -388.3554
 453  -413.14
 454  -432.4904
 455  -383.5327
 456  -414.6118
 457  -455.598
 458  -396.6425
 459  -388.254
 460  -365.5983
 461  -270.6563
 462  -331.9706
 463  -356.1875
 464  -409.2878
 465  -444.1842
 466  -489.4854
 467  -413.5228
 468  -484.0079
 469  -498.4265
 470  -487.4894
 471  -366.6772
 472  -417.3282
 473  -577.2067
 474  -481.4871
 475  -437.1303
 476  -441.6757
 477  -472.8522
 478  -461.3285
 479  -491.5956
 480  -481.4723
 481  -392.1455
 482  -402.8269
 483  -385.9892
 484  -396.9987
 485  -423.0454
 486  -278.5635
 487  -305.8349
 488  -371.6097
 489  -370.6507
 490  -366.7528
 491  -364.406
 492  -397.81
 493  -287.6048
 494  -229.0408
 495  -268.2897
 496  -244.5898
 497  -250.8137
 498  -317.2061
 499  -292.6873
 500  -308.8933
 501  -384.7252
 502  -340.6824
 503  -371.9808
 504  -410.4944
 505  -375.1713
 506  -278.3713
 507  -224.9315
 508  -219.3381
 509  -21.25852
 510  94.06503
 511  122.9668
