# Input file       =  1202035820.109980-PSRB0329-2ms-sampling-dd.dat
# Candidate        =  PSR_0332+5434
# Telescope        =  AR
# Epoch_topo       =  58156.451841550697
# Epoch_bary       =  N/A
# T_sample         =  0.002
# Data Folded      =  7471104
# Data Avg         =  -9.3502735513152e-10
# Data StdDev      =  13.706736360682  
# Profile Bins     =  512
# Profile Avg      =  -0.67088066909485
# Profile StdDev   =  1655.73744273687 
# Reduced chi-sqr  =  0.827
# Prob(Noise)      <  0.998   (~0.0 sigma)
# P_topo (ms)      =  714.578201544927  +/- 0.000212
# P'_topo (s/s)    =  -0                +/- 1.1e-10
# P''_topo (s/s^2) =  0                 +/- 4.76e-14
# P_bary (ms)      =  N/A
# P'_bary (s/s)    =  N/A
# P''_bary (s/s^2) =  N/A
# P_orb (s)        =  N/A
# asin(i)/c (s)    =  N/A
# eccentricity     =  N/A
# w (rad)          =  N/A
# T_peri           =  N/A
######################################################
   0  -722.6921
   1  -877.0555
   2  -734.2598
   3  104.3338
   4  124.4393
   5  -751.8616
   6  -1053.782
   7  -848.6561
   8  -1350.584
   9  -1238.574
  10  -780.1246
  11  -397.7276
  12  -508.9857
  13  -166.6071
  14  -384.9998
  15  -1090.085
  16  -1512.166
  17  -1237.015
  18  -1382.139
  19  -929.8217
  20  -547.0199
  21  -129.6555
  22  -815.7764
  23  -737.6158
  24  -621.9499
  25  -643.8766
  26  -352.8577
  27  -383.1761
  28  -150.7405
  29  -120.3197
  30  -94.68768
  31  -547.194
  32  -580.0389
  33  -349.9872
  34  -469.464
  35  -792.2765
  36  -645.9193
  37  -68.72092
  38  -462.4861
  39  -566.7286
  40  -799.0714
  41  -613.6228
  42  -654.5283
  43  -659.4324
  44  -550.6437
  45  -521.6514
  46  -453.1286
  47  -157.1392
  48  -345.6048
  49  -251.6819
  50  -227.0119
  51  -485.3108
  52  -697.4202
  53  0.641092
  54  727.4568
  55  720.2606
  56  584.1676
  57  819.1392
  58  758.2725
  59  588.9272
  60  338.331
  61  99.36564
  62  -0.4909849
  63  -580.7963
  64  -610.0012
  65  -502.9578
  66  -366.5258
  67  -601.1531
  68  179.6791
  69  981.1214
  70  1425.772
  71  1723.834
  72  1740.229
  73  773.0481
  74  -281.6592
  75  652.4471
  76  2172.902
  77  2705.19
  78  2619.26
  79  2376.112
  80  250.4193
  81  -981.3745
  82  -989.9514
  83  -1307.809
  84  -1440.732
  85  -1091.027
  86  -524.7341
  87  -635.6231
  88  -836.2377
  89  -1548.866
  90  -1511.75
  91  -1133.414
  92  -728.7982
  93  -494.7118
  94  266.2116
  95  819.3997
  96  370.3444
  97  -831.3022
  98  -685.5314
  99  -149.0974
 100  54.91847
 101  131.2982
 102  675.3959
 103  -29.49759
 104  -406.7961
 105  -1103.487
 106  -776.9528
 107  -1086.144
 108  -1246.72
 109  -908.8115
 110  -591.0363
 111  -151.6208
 112  1314.349
 113  1648.958
 114  1918.047
 115  1577.634
 116  1214.492
 117  647.9172
 118  75.54312
 119  1744.139
 120  3026.356
 121  3556.542
 122  2598.682
 123  1814.49
 124  1218.038
 125  657.584
 126  1733.438
 127  2386.67
 128  2452.424
 129  616.7511
 130  707.8351
 131  1566.178
 132  2649.63
 133  2396.286
 134  2306.316
 135  1418.208
 136  -200.316
 137  -956.5512
 138  -304.3848
 139  -178.6674
 140  -256.8288
 141  -475.8302
 142  -643.5372
 143  -445.9507
 144  -359.4645
 145  -449.5593
 146  32.90742
 147  -554.5284
 148  -734.5438
 149  -855.566
 150  -699.2358
 151  -398.8051
 152  -380.1181
 153  -85.29404
 154  -387.4565
 155  -840.4774
 156  -864.7751
 157  -808.5284
 158  -727.438
 159  -658.1774
 160  -362.9052
 161  -457.0495
 162  -1123.062
 163  -978.6682
 164  -930.8456
 165  -865.5804
 166  -590.2555
 167  -593.4313
 168  -633.4099
 169  -639.5677
 170  -829.9944
 171  -862.6043
 172  -505.0086
 173  -665.2659
 174  -480.3031
 175  -167.958
 176  81.30705
 177  150.2443
 178  -120.3262
 179  -193.1167
 180  -678.975
 181  -1197.372
 182  -701.4026
 183  -446.0529
 184  299.1352
 185  505.0984
 186  407.2874
 187  -187.5592
 188  -595.497
 189  -621.8089
 190  -161.3465
 191  1191.376
 192  1796.052
 193  2898.729
 194  2658.098
 195  2307.11
 196  852.5962
 197  516.8792
 198  2217.471
 199  3424.686
 200  3850.523
 201  2759.541
 202  2039.553
 203  407.8585
 204  -292.8884
 205  -306.3206
 206  -506.4445
 207  -346.7818
 208  -196.8745
 209  -31.62391
 210  97.23178
 211  198.1763
 212  170.3328
 213  25.95311
 214  162.1549
 215  -14.14893
 216  -256.3572
 217  211.0854
 218  459.4441
 219  159.4998
 220  -116.5675
 221  -584.3401
 222  -393.4171
 223  1.849354
 224  165.6685
 225  -108.5783
 226  -106.4286
 227  -239.1843
 228  -329.1577
 229  -505.7729
 230  -969.4826
 231  -1075.125
 232  -1116.521
 233  -735.4969
 234  -408.4501
 235  229.2563
 236  -135.2687
 237  -655.6904
 238  -961.0927
 239  -765.1196
 240  -1460.924
 241  -951.0356
 242  -149.0289
 243  -330.4968
 244  -196.4281
 245  -410.7857
 246  -792.5226
 247  -360.0556
 248  -278.9944
 249  105.0536
 250  -197.7749
 251  232.4312
 252  -204.5267
 253  -775.8963
 254  -844.6283
 255  -517.1311
 256  -525.3246
 257  -748.3472
 258  -164.8106
 259  -332.0319
 260  -231.4534
 261  -411.6304
 262  -802.664
 263  -1019.919
 264  -1256.349
 265  -999.3129
 266  -1019.336
 267  -375.3738
 268  -319.0131
 269  -189.3593
 270  -810.4245
 271  -748.3261
 272  -195.789
 273  806.8376
 274  1748.613
 275  1774.939
 276  2052.996
 277  1059.954
 278  458.6661
 279  1258.509
 280  3332.674
 281  3614.644
 282  3314.226
 283  2050.844
 284  667.3613
 285  -407.5308
 286  -935.7001
 287  -583.2219
 288  -322.0475
 289  -563.4443
 290  -809.9324
 291  -729.1528
 292  -303.0974
 293  -100.6032
 294  -250.8674
 295  -539.921
 296  -1163.546
 297  -1487.176
 298  -1502.774
 299  -1177.661
 300  -502.5503
 301  -380.9784
 302  -538.4598
 303  -833.8119
 304  -1214.404
 305  -1438.385
 306  -1059.057
 307  -792.6442
 308  -812.4328
 309  -330.2344
 310  -190.7096
 311  -701.1822
 312  -787.9166
 313  -564.1271
 314  -657.2454
 315  -703.0649
 316  -492.1703
 317  -672.0808
 318  -56.05366
 319  -132.9385
 320  -10.14213
 321  32.05741
 322  27.61552
 323  43.20297
 324  223.9894
 325  -20.50229
 326  174.5418
 327  -105.7694
 328  -438.1519
 329  -924.7625
 330  -770.4088
 331  -589.5175
 332  -774.0236
 333  -613.377
 334  -348.0026
 335  -828.2844
 336  -1159.387
 337  -1016.875
 338  -544.3743
 339  -588.8386
 340  -642.825
 341  -77.89061
 342  -52.07458
 343  -308.8801
 344  -89.65961
 345  -20.77014
 346  101.5482
 347  -300.0794
 348  -263.2779
 349  -551.0961
 350  -154.3549
 351  -108.5177
 352  -232.1141
 353  -301.8253
 354  -218.3595
 355  -72.39793
 356  289.7994
 357  383.4782
 358  1037.827
 359  1775.505
 360  2823.654
 361  3188.056
 362  3190.553
 363  1400.606
 364  603.7368
 365  679.06
 366  3675.127
 367  4916.739
 368  4632.56
 369  3384.092
 370  454.121
 371  -189.4684
 372  -211.1941
 373  192.0484
 374  938.8023
 375  908.237
 376  685.556
 377  -659.7448
 378  758.2628
 379  1013.875
 380  1583.59
 381  1699.023
 382  771.6436
 383  562.8033
 384  51.75627
 385  -252.98
 386  -271.3437
 387  -280.5251
 388  -321.0533
 389  -548.8377
 390  -206.1135
 391  -469.254
 392  -474.5781
 393  -136.4107
 394  -787.9966
 395  -838.0996
 396  -684.6303
 397  -664.1625
 398  -849.7782
 399  -999.7701
 400  -949.2534
 401  -1360.4
 402  -1087.033
 403  -1059.725
 404  -775.8233
 405  -587.9421
 406  -392.365
 407  -319.3521
 408  11.20847
 409  -102.4254
 410  -647.4915
 411  -980.8991
 412  -1107.981
 413  -1138.3
 414  -1145.677
 415  -382.9467
 416  33.17974
 417  372.7736
 418  -44.95885
 419  -960.1118
 420  -1069.952
 421  -1267.236
 422  -954.0161
 423  -589.4561
 424  -341.8919
 425  -292.9035
 426  -610.3173
 427  -879.2667
 428  -909.5837
 429  -731.6878
 430  54.29576
 431  603.283
 432  993.1089
 433  1996.776
 434  1710.427
 435  512.9221
 436  112.7712
 437  1806.146
 438  2677.837
 439  3685.833
 440  3958.326
 441  2982.491
 442  1601.894
 443  -65.46816
 444  -491.313
 445  -1084.261
 446  -787.2938
 447  -817.4692
 448  -250.0238
 449  710.3746
 450  426.091
 451  8.452252
 452  -400.9951
 453  -844.1725
 454  -836.3299
 455  -622.6379
 456  -448.0039
 457  -96.06544
 458  -129.4436
 459  -79.65292
 460  -754.1069
 461  -840.8994
 462  -646.4534
 463  -962.7902
 464  -748.3989
 465  -642.8149
 466  -424.1368
 467  -185.0316
 468  -558.0478
 469  -706.8546
 470  -647.5039
 471  -552.2297
 472  -489.1647
 473  -125.2746
 474  417.5967
 475  817.0198
 476  302.614
 477  -255.3809
 478  -400.4309
 479  -43.78401
 480  -32.27338
 481  277.785
 482  -9.267802
 483  516.9664
 484  -121.3225
 485  -707.9122
 486  -1313.995
 487  -802.221
 488  -1052.125
 489  -679.3441
 490  -384.2251
 491  79.26479
 492  152.3223
 493  510.2197
 494  1171.114
 495  1458.171
 496  1454.943
 497  177.4454
 498  -287.5383
 499  134.9194
 500  1442.585
 501  2309.572
 502  2554.051
 503  2123.988
 504  106.0988
 505  -406.2519
 506  -488.9431
 507  78.07274
 508  -94.21191
 509  -311.1992
 510  -649.1616
 511  -767.4314
