# Input file       =  1202481266.110840-PSRB0329-2ms-sampling-dd.dat
# Candidate        =  PSR_0332+5434
# Telescope        =  AR
# Epoch_topo       =  58161.607466560650
# Epoch_bary       =  N/A
# T_sample         =  0.002
# Data Folded      =  7340032
# Data Avg         =  -7.72102141077661e-10
# Data StdDev      =  7.89778961070692 
# Profile Bins     =  512
# Profile Avg      =  0.522415115191136
# Profile StdDev   =  945.626330754817 
# Reduced chi-sqr  =  1.121
# Prob(Noise)      <  0.0299   (~1.9 sigma)
# P_topo (ms)      =  714.579556474167  +/- 0.000399
# P'_topo (s/s)    =  -0                +/- 2.1e-10
# P''_topo (s/s^2) =  0                 +/- 9.29e-14
# P_bary (ms)      =  N/A
# P'_bary (s/s)    =  N/A
# P''_bary (s/s^2) =  N/A
# P_orb (s)        =  N/A
# asin(i)/c (s)    =  N/A
# eccentricity     =  N/A
# w (rad)          =  N/A
# T_peri           =  N/A
######################################################
   0  -549.2198
   1  -201.3805
   2  -210.5803
   3  215.3483
   4  281.6484
   5  77.08261
   6  -184.6482
   7  -36.7953
   8  -203.8414
   9  -136.436
  10  -21.29516
  11  -59.1201
  12  -277.0746
  13  -605.2289
  14  -347.4369
  15  -336.9211
  16  -385.6124
  17  -295.4528
  18  -255.7899
  19  -115.9872
  20  -316.4248
  21  -13.88418
  22  -331.8915
  23  -92.80404
  24  -228.0088
  25  -509.5478
  26  -493.8326
  27  -488.4741
  28  -470.6236
  29  -717.6441
  30  -416.9871
  31  -481.3606
  32  -636.9115
  33  -652.3364
  34  -820.9298
  35  -868.5139
  36  -452.7832
  37  -286.4759
  38  -589.6516
  39  -390.5092
  40  -586.1478
  41  -605.3552
  42  -461.8217
  43  -280.0274
  44  14.47664
  45  -83.83008
  46  -233.5311
  47  -320.9585
  48  -283.3301
  49  27.09775
  50  578.3368
  51  629.3095
  52  568.978
  53  165.5937
  54  -53.94452
  55  -52.08219
  56  62.38159
  57  361.9928
  58  154.072
  59  -359.3044
  60  -355.2994
  61  -248.4684
  62  -72.76337
  63  -406.6911
  64  -475.7589
  65  -461.5588
  66  -839.7868
  67  -990.4421
  68  -898.2039
  69  -341.0455
  70  40.37148
  71  79.61793
  72  -182.3557
  73  -360.5897
  74  -791.3508
  75  -678.3851
  76  -494.3226
  77  -432.3121
  78  -124.4498
  79  -144.7619
  80  -702.9898
  81  -886.1448
  82  -927.6722
  83  -925.4688
  84  -757.2478
  85  -335.0056
  86  -267.5107
  87  -461.6066
  88  -329.469
  89  -315.9276
  90  -578.3827
  91  -308.0139
  92  7.857783
  93  -90.55558
  94  -76.29544
  95  106.8159
  96  -283.7646
  97  -33.97677
  98  -44.30294
  99  -78.06441
 100  -199.8343
 101  34.06221
 102  98.00266
 103  34.36844
 104  524.158
 105  473.3869
 106  127.9515
 107  -72.32849
 108  61.72579
 109  214.8443
 110  460.0724
 111  266.3754
 112  -14.63851
 113  52.76009
 114  -159.6304
 115  -236.9036
 116  -401.6006
 117  -476.2351
 118  -220.2616
 119  68.13334
 120  -284.441
 121  -79.25784
 122  254.1268
 123  58.34055
 124  -86.34867
 125  -45.11025
 126  -13.19123
 127  -144.6644
 128  -352.9778
 129  -346.0985
 130  -268.2955
 131  -436.4963
 132  -611.9708
 133  -704.6775
 134  -380.3159
 135  -223.0689
 136  241.1597
 137  16.26234
 138  -262.7908
 139  -603.3437
 140  -496.0676
 141  -351.727
 142  -413.1178
 143  -331.8195
 144  -51.05859
 145  -131.8223
 146  -371.2686
 147  -644.7849
 148  -543.9153
 149  -716.8348
 150  -673.9003
 151  -611.5333
 152  -339.577
 153  -321.8472
 154  -416.016
 155  -623.3472
 156  -545.3406
 157  -394.4562
 158  -576.8517
 159  -598.313
 160  -445.3484
 161  -434.3062
 162  -238.8602
 163  -117.0615
 164  8.766431
 165  -220.394
 166  -266.6723
 167  -31.34814
 168  232.2383
 169  -73.09416
 170  -362.1565
 171  -494.5056
 172  -168.1665
 173  262.5446
 174  136.0415
 175  223.0218
 176  -305.8035
 177  -554.0054
 178  84.42947
 179  75.35043
 180  190.6771
 181  375.1656
 182  -131.0699
 183  -125.7431
 184  -63.60217
 185  125.6955
 186  142.8633
 187  308.4484
 188  -331.6727
 189  -376.1646
 190  -9.619591
 191  849.0521
 192  704.1893
 193  250.0454
 194  123.0621
 195  -186.0361
 196  -179.617
 197  99.85691
 198  56.31335
 199  185.7522
 200  281.6142
 201  -32.23275
 202  -392.233
 203  -241.0578
 204  -161.0597
 205  -314.6608
 206  -570.2158
 207  -635.5432
 208  -395.6964
 209  -483.1841
 210  -630.6973
 211  -424.9669
 212  -492.537
 213  -684.4162
 214  -687.0908
 215  -537.9484
 216  -767.9173
 217  -471.5626
 218  -238.9619
 219  -312.1455
 220  -372.6334
 221  -466.1915
 222  -235.4075
 223  -274.7879
 224  -422.4423
 225  -285.9549
 226  -69.53832
 227  -3.736677
 228  -353.1378
 229  -499.0669
 230  -635.3184
 231  -564.2871
 232  -357.9427
 233  -596.7618
 234  -785.459
 235  -357.1437
 236  -61.10474
 237  -279.1864
 238  -189.0555
 239  -116.1468
 240  -65.23226
 241  -381.4781
 242  -166.5918
 243  125.7302
 244  -13.73565
 245  -199.2482
 246  -184.7657
 247  129.07
 248  -29.29711
 249  114.994
 250  126.8835
 251  -57.84388
 252  20.93783
 253  116.6415
 254  113.5685
 255  128.5052
 256  44.11941
 257  -134.112
 258  60.04272
 259  -93.02408
 260  -125.3243
 261  -102.2775
 262  -189.3756
 263  -148.5363
 264  -154.9886
 265  -124.0744
 266  -487.7992
 267  -220.4052
 268  -155.4064
 269  -229.089
 270  -327.5687
 271  -21.82265
 272  -301.9234
 273  -437.3498
 274  39.6944
 275  -76.19964
 276  -60.62415
 277  94.48783
 278  322.6852
 279  -53.85851
 280  -280.8614
 281  -304.3532
 282  -58.00815
 283  -169.5944
 284  -155.5172
 285  -469.6128
 286  -330.4197
 287  -375.4348
 288  -349.4919
 289  -285.9787
 290  -197.6719
 291  -308.464
 292  -413.0029
 293  -562.7195
 294  -611.9022
 295  -622.0284
 296  -546.4323
 297  -416.9171
 298  -578.7443
 299  -496.9601
 300  -231.0985
 301  -182.6699
 302  -476.0101
 303  -460.0116
 304  -453.5121
 305  -409.888
 306  -227.0025
 307  382.3685
 308  159.5965
 309  16.24816
 310  56.83568
 311  -241.3376
 312  -326.2491
 313  27.38102
 314  660.595
 315  688.6105
 316  411.7164
 317  96.45991
 318  -320.5399
 319  -367.2261
 320  -240.4467
 321  -394.6415
 322  -458.2687
 323  -434.3873
 324  -295.0648
 325  -181.4187
 326  -346.1086
 327  -475.5853
 328  -334.1365
 329  -41.59799
 330  17.23299
 331  -241.2108
 332  -45.0238
 333  46.39398
 334  -262.0605
 335  150.6054
 336  450.1652
 337  88.88039
 338  -248.5291
 339  -294.7383
 340  -723.5034
 341  -552.2517
 342  -97.7794
 343  26.29408
 344  -187.9321
 345  -344.5197
 346  4.876304
 347  -127.3304
 348  81.82285
 349  384.7326
 350  567.4567
 351  316.1755
 352  726.9313
 353  515.6797
 354  600.6226
 355  366.9677
 356  403.1883
 357  282.077
 358  233.2236
 359  136.8977
 360  102.6451
 361  -29.27358
 362  197.9324
 363  174.1069
 364  39.57529
 365  -158.9962
 366  -44.23027
 367  261.8244
 368  397.8205
 369  900.3364
 370  914.6592
 371  867.7777
 372  699.6339
 373  526.4024
 374  455.9053
 375  688.8021
 376  492.6044
 377  439.8994
 378  349.1249
 379  513.7543
 380  727.1439
 381  337.7574
 382  204.8146
 383  24.62835
 384  -148.3421
 385  415.1694
 386  536.0379
 387  424.7586
 388  693.201
 389  559.1586
 390  292.2882
 391  -159.6679
 392  -281.5418
 393  -529.0347
 394  -32.9478
 395  196.6972
 396  329.3652
 397  160.8602
 398  -562.6132
 399  -111.269
 400  -144.4312
 401  -265.4388
 402  -133.7892
 403  -181.6409
 404  18.86696
 405  -154.8642
 406  -145.8247
 407  -643.405
 408  -409.2757
 409  -97.38311
 410  74.62341
 411  18.16073
 412  -26.5129
 413  104.8379
 414  141.8203
 415  201.979
 416  143.5873
 417  -31.83977
 418  -5.220515
 419  -1.868424
 420  -115.5767
 421  -233.7959
 422  -154.4086
 423  315.2485
 424  280.956
 425  451.5077
 426  427.214
 427  25.60197
 428  179.8236
 429  213.1131
 430  221.7517
 431  772.3121
 432  691.364
 433  311.5905
 434  3175.413
 435  4369.692
 436  5730.256
 437  6952.425
 438  5111.723
 439  3141.287
 440  727.1845
 441  3124.084
 442  4073.968
 443  3322.452
 444  2427.001
 445  1507.749
 446  68.09115
 447  -501.1842
 448  -789.6478
 449  -705.3797
 450  -392.7111
 451  -130.8586
 452  -194.2915
 453  -118.6386
 454  35.15734
 455  169.9648
 456  644.5474
 457  1057.306
 458  1371.024
 459  1005.093
 460  465.709
 461  820.4171
 462  750.5007
 463  1181.976
 464  972.6487
 465  978.1473
 466  1001.368
 467  513.4028
 468  244.5703
 469  287.5359
 470  142.4821
 471  -45.66993
 472  -130.0996
 473  80.06863
 474  -91.54934
 475  -193.5509
 476  -32.81829
 477  127.7915
 478  263.7458
 479  237.5197
 480  -147.5676
 481  -147.1651
 482  -133.3375
 483  -166.4311
 484  -334.5125
 485  -189.9383
 486  119.8424
 487  339.0291
 488  433.5041
 489  433.7286
 490  438.1193
 491  288.0827
 492  353.989
 493  384.1718
 494  484.8637
 495  992.3833
 496  954.4128
 497  753.3713
 498  680.6378
 499  232.7783
 500  9.507531
 501  191.3052
 502  44.17488
 503  -64.73557
 504  75.59909
 505  -11.33922
 506  -175.8079
 507  -91.70188
 508  -6.165018
 509  -29.73018
 510  -59.94839
 511  -370.0325
