# Input file       =  1202582396.276990-PSRB0329-2ms-sampling-dd.dat
# Candidate        =  PSR_0332+5434
# Telescope        =  AR
# Epoch_topo       =  58162.777954594792
# Epoch_bary       =  N/A
# T_sample         =  0.002
# Data Folded      =  7340032
# Data Avg         =  1.13903552618029e-09
# Data StdDev      =  5.96205332578521 
# Profile Bins     =  512
# Profile Avg      =  -0.530609266154432
# Profile StdDev   =  713.85474773646  
# Reduced chi-sqr  =  0.576
# Prob(Noise)      <  1   (~0.0 sigma)
# P_topo (ms)      =  714.58013024625   +/- 0.000116
# P'_topo (s/s)    =  -0                +/- 6.13e-11
# P''_topo (s/s^2) =  0                 +/- 2.71e-14
# P_bary (ms)      =  N/A
# P'_bary (s/s)    =  N/A
# P''_bary (s/s^2) =  N/A
# P_orb (s)        =  N/A
# asin(i)/c (s)    =  N/A
# eccentricity     =  N/A
# w (rad)          =  N/A
# T_peri           =  N/A
######################################################
   0  -638.1669
   1  -433.1991
   2  -257.4789
   3  -203.0863
   4  137.3011
   5  -29.90345
   6  -316.1541
   7  -451.4821
   8  -515.1949
   9  26.29433
  10  207.9332
  11  -62.55473
  12  338.3962
  13  80.34803
  14  -0.4583595
  15  -332.6025
  16  -129.0177
  17  329.6944
  18  -241.7013
  19  57.74891
  20  -343.1765
  21  -190.5015
  22  74.71941
  23  -98.52677
  24  96.25702
  25  144.5964
  26  212.5284
  27  154.7256
  28  11.70062
  29  -63.66291
  30  -243.9515
  31  -858.4768
  32  -882.9789
  33  -726.1795
  34  -487.477
  35  -373.772
  36  -94.51599
  37  -154.2473
  38  -337.7258
  39  -432.4464
  40  -684.1007
  41  -906.3011
  42  -701.4428
  43  -242.7322
  44  102.348
  45  287.4872
  46  469.1446
  47  76.60362
  48  -200.6045
  49  -123.0284
  50  -313.1666
  51  -71.34063
  52  43.59074
  53  271.9524
  54  139.8845
  55  251.1086
  56  423.2264
  57  -20.97458
  58  448.6099
  59  679.0136
  60  618.0269
  61  381.191
  62  -162.1524
  63  -85.74469
  64  -291.643
  65  -181.5773
  66  -284.9357
  67  -193.7206
  68  52.51167
  69  212.8413
  70  797.3198
  71  86.43505
  72  -395.5723
  73  -111.0306
  74  81.4727
  75  390.8694
  76  592.7677
  77  534.0251
  78  249.071
  79  -186.8403
  80  -132.7563
  81  8.837477
  82  -71.70119
  83  165.4286
  84  260.7219
  85  -217.6498
  86  -185.1714
  87  204.1262
  88  473.9102
  89  384.2101
  90  -32.90468
  91  -0.1894947
  92  194.4975
  93  191.7063
  94  330.4612
  95  1168.489
  96  1186.222
  97  194.6725
  98  -109.9727
  99  -143.2408
 100  -23.86115
 101  -215.7503
 102  -38.8016
 103  292.1611
 104  98.86587
 105  -316.0844
 106  -374.4901
 107  -445.1935
 108  -615.1323
 109  -515.4772
 110  25.96862
 111  289.4904
 112  175.1734
 113  26.7757
 114  -357.2779
 115  -494.1319
 116  -615.3837
 117  -425.988
 118  -218.089
 119  -124.3749
 120  -164.213
 121  14.83451
 122  -151.15
 123  -275.5429
 124  -258.6483
 125  -79.17239
 126  -192.2779
 127  -136.3813
 128  -229.0462
 129  -316.3289
 130  205.9056
 131  -84.90018
 132  -229.4016
 133  -125.4228
 134  344.1068
 135  330.589
 136  82.56774
 137  358.358
 138  386.1358
 139  613.4171
 140  56.59895
 141  -67.49983
 142  232.5709
 143  275.0948
 144  363.2035
 145  250.3103
 146  13.4805
 147  -52.00464
 148  -132.6578
 149  328.4244
 150  395.6945
 151  172.1182
 152  294.0487
 153  437.5841
 154  511.872
 155  679.7401
 156  464.2932
 157  487.9331
 158  53.70774
 159  88.32259
 160  200.2891
 161  748.7308
 162  1065.24
 163  546.9737
 164  103.9026
 165  -346.4265
 166  -358.6457
 167  184.183
 168  160.214
 169  210.551
 170  265.987
 171  195.8242
 172  -64.69374
 173  -33.43736
 174  332.5138
 175  370.084
 176  554.4487
 177  479.2158
 178  596.2567
 179  472.4518
 180  299.7968
 181  12.43782
 182  191.3219
 183  45.77034
 184  307.9278
 185  72.18983
 186  324.972
 187  -116.7308
 188  -70.65265
 189  74.16898
 190  -171.0909
 191  -235.3288
 192  -301.1338
 193  282.6098
 194  135.8325
 195  276.0328
 196  418.9683
 197  477.1928
 198  -143.2084
 199  -6.143027
 200  -5.001332
 201  113.6161
 202  247.8289
 203  476.2167
 204  152.9376
 205  -173.7975
 206  -594.5767
 207  -592.8148
 208  -683.3884
 209  -64.84114
 210  -132.6954
 211  -103.4846
 212  4.639386
 213  -216.8532
 214  -289.4704
 215  -235.7161
 216  28.05981
 217  -279.9627
 218  95.0218
 219  311.1955
 220  304.5947
 221  395.3425
 222  -122.1515
 223  -334.7397
 224  -269.9227
 225  -203.4285
 226  -349.1454
 227  -338.9747
 228  520.174
 229  224.526
 230  -301.6242
 231  -350.8033
 232  -294.7918
 233  -240.7178
 234  -119.5664
 235  118.5544
 236  -61.81512
 237  122.4161
 238  90.04659
 239  106.5417
 240  -111.1207
 241  -73.14315
 242  -144.6148
 243  61.62053
 244  -79.41483
 245  -48.70075
 246  -380.0496
 247  -1009.569
 248  -685.4418
 249  -530.8804
 250  25.43866
 251  -207.804
 252  -376.9519
 253  -27.24114
 254  -158.2028
 255  -294.2714
 256  -263.6525
 257  -303.6572
 258  197.3514
 259  31.91375
 260  483.2189
 261  288.86
 262  698.0548
 263  598.2895
 264  265.703
 265  20.97372
 266  245.5166
 267  153.2952
 268  -102.0025
 269  -69.92812
 270  -173.346
 271  -184.2551
 272  -393.36
 273  -272.5783
 274  -65.08832
 275  103.0657
 276  82.22961
 277  -407.7901
 278  -586.1248
 279  -129.9946
 280  -92.68333
 281  -621.6896
 282  -230.2748
 283  -18.18566
 284  -282.581
 285  -243.7498
 286  -597.8768
 287  27.48363
 288  -184.589
 289  -285.7654
 290  -450.4776
 291  -168.5949
 292  649.0373
 293  564.3247
 294  355.6155
 295  114.1634
 296  20.85896
 297  107.9896
 298  -189.8945
 299  -353.085
 300  -243.5116
 301  361.1272
 302  496.1213
 303  120.8793
 304  41.25296
 305  -408.8175
 306  -630.5457
 307  -967.6
 308  -682.5363
 309  -390.8167
 310  -407.2895
 311  -17.10823
 312  -1.133181
 313  -163.9355
 314  -451.9669
 315  -666.2986
 316  -439.0525
 317  -334.2519
 318  -0.9745855
 319  -160.4088
 320  -658.9301
 321  -614.3481
 322  -610.5154
 323  -842.7309
 324  -258.7856
 325  -85.96639
 326  -272.5054
 327  -242.9789
 328  -530.9946
 329  -255.6833
 330  -449.0984
 331  -59.57676
 332  39.12061
 333  71.22269
 334  404.0171
 335  325.7238
 336  182.7237
 337  -12.68737
 338  -15.86006
 339  218.9221
 340  -83.80056
 341  -7.509177
 342  198.2337
 343  556.4966
 344  586.5897
 345  687.9509
 346  323.3214
 347  212.9103
 348  52.84099
 349  375.7918
 350  768.2591
 351  740.9682
 352  585.7977
 353  919.8281
 354  573.8077
 355  260.3826
 356  437.3042
 357  87.06924
 358  228.0861
 359  167.7351
 360  -182.8802
 361  -49.15848
 362  373.0322
 363  730.356
 364  124.7566
 365  -103.5129
 366  302.6455
 367  422.3509
 368  728.499
 369  535.4549
 370  -126.0734
 371  -251.2863
 372  -174.9502
 373  172.5248
 374  14.65494
 375  113.89
 376  57.46352
 377  -94.17459
 378  -223.7066
 379  -418.3447
 380  -472.0052
 381  -210.6936
 382  -706.8777
 383  -383.7011
 384  11.06571
 385  -46.31491
 386  33.60668
 387  -60.29412
 388  -470.2357
 389  -781.1569
 390  -742.6009
 391  -586.7793
 392  -134.7283
 393  22.25488
 394  -129.2251
 395  -464.9083
 396  -402.869
 397  -279.4762
 398  405.6516
 399  307.1203
 400  403.3945
 401  -121.5165
 402  -175.5161
 403  -549.7324
 404  -276.8315
 405  159.6394
 406  -240.387
 407  192.1093
 408  237.3028
 409  -258.9783
 410  -512.6965
 411  -807.0994
 412  -867.8731
 413  -557.9428
 414  -455.5428
 415  -368.1468
 416  -605.5116
 417  -523.1895
 418  -200.9733
 419  -542.0067
 420  -583.6206
 421  -587.5585
 422  -277.3207
 423  -215.6622
 424  -429.8572
 425  192.3015
 426  -226.5246
 427  -294.2564
 428  229.3552
 429  58.05034
 430  -140.3247
 431  -126.1697
 432  454.6173
 433  491.8263
 434  5.081966
 435  180.6642
 436  131.4288
 437  -217.1634
 438  -70.23688
 439  272.0929
 440  214.2529
 441  -269.6725
 442  -159.2518
 443  -447.4574
 444  42.86458
 445  -149.9645
 446  -398.4945
 447  -479.4712
 448  -113.6107
 449  -181.213
 450  -368.7844
 451  174.7488
 452  -39.88529
 453  -450.8293
 454  -515.3149
 455  -466.1274
 456  -262.0885
 457  -83.55396
 458  69.99761
 459  106.3362
 460  -239.2123
 461  -292.817
 462  -111.3663
 463  -179.808
 464  15.93244
 465  -61.83383
 466  722.0494
 467  1115.729
 468  930.2103
 469  1185.821
 470  1558.282
 471  1537.671
 472  1534.422
 473  1411.214
 474  1035.284
 475  605.6187
 476  385.8591
 477  -267.7397
 478  136.8098
 479  -26.00243
 480  184.1689
 481  239.5322
 482  313.4861
 483  470.8584
 484  270.438
 485  -74.85414
 486  -194.9728
 487  200.921
 488  -39.82285
 489  269.3671
 490  274.9937
 491  151.095
 492  191.4232
 493  312.1221
 494  418.1562
 495  31.99876
 496  75.57729
 497  597.0394
 498  887.7939
 499  1048.408
 500  -10.31192
 501  -85.05078
 502  -96.03229
 503  -68.99035
 504  225.8648
 505  2.470514
 506  469.4746
 507  276.6293
 508  105.108
 509  -276.3387
 510  -678.5322
 511  -430.116
