# Input file       =  1202208038.118441_cleaned.dat
# Candidate        =  PSR_0332+5434
# Telescope        =  AR
# Epoch_topo       =  58158.445105537510
# Epoch_bary       =  N/A
# T_sample         =  0.002
# Data Folded      =  7208960
# Data Avg         =  0.0156457952362509
# Data StdDev      =  0.999959089404653
# Profile Bins     =  512
# Profile Avg      =  220.273247593137 
# Profile StdDev   =  118.654321376006 
# Reduced chi-sqr  =  1.917
# Prob(Noise)      <  7.93e-32   (~11.7 sigma)
# P_topo (ms)      =  714.5787765458    +/- 0.00011
# P'_topo (s/s)    =  -0                +/- 5.92e-11
# P''_topo (s/s^2) =  0                 +/- 2.66e-14
# P_bary (ms)      =  N/A
# P'_bary (s/s)    =  N/A
# P''_bary (s/s^2) =  N/A
# P_orb (s)        =  N/A
# asin(i)/c (s)    =  N/A
# eccentricity     =  N/A
# w (rad)          =  N/A
# T_peri           =  N/A
######################################################
   0  293.1186
   1  397.2096
   2  339.2157
   3  218.3941
   4  243.1396
   5  321.6194
   6  272.6989
   7  189.7123
   8  63.80468
   9  98.84696
  10  180.2213
  11  206.2714
  12  222.634
  13  156.5362
  14  193.8409
  15  231.929
  16  208.5451
  17  237.2619
  18  181.8033
  19  160.0008
  20  273.6003
  21  156.8243
  22  113.6522
  23  261.1022
  24  261.6719
  25  121.6651
  26  69.34754
  27  162.0355
  28  211.2298
  29  181.0539
  30  130.9889
  31  173.551
  32  210.5952
  33  211.9315
  34  87.68781
  35  5.063194
  36  53.21391
  37  12.26318
  38  83.9232
  39  188.1508
  40  122.4797
  41  156.1302
  42  133.7134
  43  58.33803
  44  58.28094
  45  136.5387
  46  108.0165
  47  178.7215
  48  43.07804
  49  124.4849
  50  245.5276
  51  230.5103
  52  202.0158
  53  110.3433
  54  198.4869
  55  316.582
  56  328.8195
  57  142.5918
  58  95.68106
  59  89.96695
  60  176.0851
  61  175.8329
  62  164.0822
  63  225.9575
  64  236.5488
  65  189.8774
  66  313.3083
  67  317.8549
  68  190.5645
  69  253.7898
  70  226.3961
  71  148.5378
  72  166.8669
  73  150.8929
  74  132.3682
  75  245.6244
  76  103.9264
  77  183.729
  78  295.4977
  79  320.7546
  80  338.097
  81  368.3653
  82  420.092
  83  278.3259
  84  298.6941
  85  385.5262
  86  253.157
  87  202.8378
  88  247.6355
  89  152.4343
  90  196.185
  91  259.2017
  92  220.0893
  93  83.34265
  94  111.4696
  95  237.4714
  96  298.1721
  97  251.3961
  98  293.668
  99  255.5533
 100  281.4913
 101  263.9449
 102  242.6888
 103  255.0918
 104  274.443
 105  274.0872
 106  234.3013
 107  343.1182
 108  227.2479
 109  190.5396
 110  171.9013
 111  217.3784
 112  336.153
 113  375.7886
 114  414.7376
 115  323.8964
 116  229.4934
 117  118.0829
 118  224.2249
 119  320.8846
 120  210.2397
 121  200.9672
 122  426.4832
 123  293.6693
 124  66.65173
 125  10.53518
 126  174.7493
 127  142.2304
 128  235.8094
 129  349.5219
 130  393.5215
 131  177.9053
 132  51.52274
 133  145.9653
 134  150.189
 135  174.5355
 136  259.9419
 137  212.519
 138  230.8579
 139  201.2544
 140  262.7752
 141  163.9101
 142  -7.458869
 143  46.60209
 144  235.6097
 145  135.26
 146  183.0628
 147  299.4378
 148  290.6907
 149  297.8513
 150  256.6163
 151  199.4651
 152  165.5565
 153  217.1243
 154  290.2091
 155  243.5239
 156  189.4825
 157  185.0172
 158  50.43022
 159  126.1861
 160  289.864
 161  317.6468
 162  344.8863
 163  321.4676
 164  266.6408
 165  201.4882
 166  195.1045
 167  252.9104
 168  339.092
 169  294.4172
 170  273.275
 171  129.0627
 172  214.8318
 173  260.2868
 174  150.1537
 175  206.9743
 176  250.6606
 177  31.51575
 178  136.4655
 179  314.1988
 180  372.2708
 181  352.3115
 182  299.7509
 183  267.3041
 184  269.5018
 185  197.3421
 186  158.6385
 187  226.8665
 188  396.6231
 189  286.2802
 190  208.9868
 191  202.8087
 192  201.7775
 193  83.61199
 194  134.4387
 195  146.4315
 196  271.1639
 197  289.6044
 198  228.5685
 199  69.96786
 200  95.35674
 201  129.2805
 202  318.9962
 203  237.5026
 204  285.1927
 205  242.5309
 206  189.0145
 207  95.07762
 208  30.4952
 209  103.3715
 210  266.6698
 211  312.3248
 212  366.1602
 213  184.5419
 214  340.8244
 215  296.5837
 216  225.2348
 217  318.6033
 218  317.6458
 219  60.69435
 220  175.2007
 221  187.1629
 222  237.3303
 223  303.917
 224  238.3235
 225  110.0521
 226  92.61189
 227  135.0402
 228  54.45884
 229  207.9467
 230  423.511
 231  292.6178
 232  181.0376
 233  233.9378
 234  200.671
 235  208.938
 236  265.3767
 237  346.0547
 238  423.8781
 239  417.4422
 240  310.2379
 241  302.7559
 242  153.3895
 243  105.456
 244  161.2631
 245  216.7264
 246  194.6727
 247  254.6967
 248  164.3795
 249  339.0766
 250  198.9038
 251  59.59518
 252  219.1485
 253  186.9377
 254  327.5303
 255  316.6841
 256  233.1743
 257  164.9567
 258  59.54662
 259  185.4385
 260  210.3543
 261  113.4353
 262  198.5254
 263  281.3067
 264  134.3419
 265  206.1924
 266  290.2878
 267  373.0649
 268  327.9448
 269  221.9925
 270  200.89
 271  235.4471
 272  229.9982
 273  275.1482
 274  251.5196
 275  139.5096
 276  216.0252
 277  174.7615
 278  298.7647
 279  315.2627
 280  136.85
 281  162.1595
 282  207.6851
 283  163.3404
 284  136.293
 285  76.98251
 286  53.65643
 287  94.12235
 288  210.0674
 289  294.8294
 290  265.9479
 291  105.6149
 292  157.1496
 293  267.4697
 294  258.2647
 295  306.1904
 296  210.5626
 297  197.213
 298  193.6579
 299  87.89481
 300  249.851
 301  254.7504
 302  248.5178
 303  273.2319
 304  277.7657
 305  184.3015
 306  97.24811
 307  116.4464
 308  55.05183
 309  -58.67555
 310  137.6613
 311  226.0322
 312  213.5699
 313  181.0082
 314  195.8461
 315  297.3032
 316  316.1372
 317  303.0222
 318  174.0807
 319  80.23494
 320  133.1292
 321  303.7689
 322  272.1511
 323  272.039
 324  252.4286
 325  170.797
 326  132.6392
 327  74.42478
 328  144.8306
 329  283.8394
 330  305.6146
 331  210.1697
 332  84.62075
 333  158.0523
 334  165.4759
 335  -88.31313
 336  39.55256
 337  244.5606
 338  189.6503
 339  237.8134
 340  149.4315
 341  134.2266
 342  191.7732
 343  153.2582
 344  140.523
 345  238.1653
 346  280.5034
 347  251.7229
 348  5.482604
 349  58.32637
 350  131.8825
 351  105.7639
 352  104.9038
 353  142.1105
 354  275.1513
 355  260.5483
 356  202.9267
 357  207.0747
 358  70.47246
 359  154.4925
 360  203.7407
 361  173.8891
 362  143.1911
 363  299.1519
 364  357.867
 365  431.6376
 366  295.212
 367  153.686
 368  84.95442
 369  98.77807
 370  124.0035
 371  193.5209
 372  103.0397
 373  81.29322
 374  21.58163
 375  67.85453
 376  289.4366
 377  364.4342
 378  293.8047
 379  273.5424
 380  355.3294
 381  269.5739
 382  110.2631
 383  194.8501
 384  167.5685
 385  187.3665
 386  74.08567
 387  199.8044
 388  189.1753
 389  86.51828
 390  127.5695
 391  257.4395
 392  328.7347
 393  219.5777
 394  247.4002
 395  293.5851
 396  388.347
 397  298.2637
 398  376.1621
 399  424.6331
 400  216.2764
 401  196.9253
 402  399.4015
 403  606.8908
 404  774.7155
 405  989.7473
 406  1018.101
 407  961.0659
 408  760.9683
 409  611.2238
 410  404.5287
 411  336.8458
 412  322.9761
 413  248.8695
 414  295.3183
 415  260.6684
 416  129.1888
 417  322.4583
 418  404.2686
 419  311.8138
 420  250.0811
 421  211.0702
 422  92.42796
 423  81.43042
 424  197.2565
 425  87.10603
 426  192.0879
 427  231.4203
 428  250.0094
 429  304.3175
 430  338.9936
 431  274.1704
 432  174.3949
 433  103.5426
 434  140.1628
 435  298.9342
 436  429.8539
 437  323.9408
 438  163.076
 439  140.4555
 440  62.56173
 441  70.4462
 442  181.0626
 443  194.4755
 444  263.0622
 445  342.4821
 446  170.3216
 447  81.22121
 448  166.8812
 449  205.363
 450  159.6343
 451  141.7866
 452  151.8139
 453  73.17754
 454  -23.58379
 455  -18.54139
 456  -16.44556
 457  235.1869
 458  275.8783
 459  162.2493
 460  146.1044
 461  337.2078
 462  380.1664
 463  191.6159
 464  57.31551
 465  158.7298
 466  102.308
 467  -46.02426
 468  70.8306
 469  288.5036
 470  273.4122
 471  266.4102
 472  169.1469
 473  199.3113
 474  240.5223
 475  302.0792
 476  338.5583
 477  294.9918
 478  379.0042
 479  440.0891
 480  327.9209
 481  181.987
 482  279.2159
 483  294.4692
 484  324.7733
 485  370.1296
 486  409.2332
 487  382.1839
 488  301.7589
 489  275.8878
 490  250.1999
 491  155.1586
 492  95.7485
 493  254.2854
 494  363.6426
 495  248.3284
 496  156.6293
 497  232.5044
 498  273.2308
 499  111.6966
 500  66.62194
 501  153.63
 502  235.3153
 503  318.0564
 504  179.9756
 505  159.4377
 506  167.2264
 507  144.7077
 508  217.1833
 509  272.1538
 510  317.5206
 511  273.6677
