# Input file       =  1202208038.118441-PSRB0329-2ms-sampling-dd.dat
# Candidate        =  PSR_0332+5434
# Telescope        =  AR
# Epoch_topo       =  58158.445105537510
# Epoch_bary       =  N/A
# T_sample         =  0.002
# Data Folded      =  7208960
# Data Avg         =  1.26994708271446e-09
# Data StdDev      =  6.2506881859227  
# Profile Bins     =  512
# Profile Avg      =  -0.0389318496860031
# Profile StdDev   =  741.701508283947 
# Reduced chi-sqr  =  0.996
# Prob(Noise)      <  0.516   (~0.0 sigma)
# P_topo (ms)      =  714.5787765458    +/- 3.95e-05
# P'_topo (s/s)    =  -0                +/- 2.12e-11
# P''_topo (s/s^2) =  0                 +/- 9.53e-15
# P_bary (ms)      =  N/A
# P'_bary (s/s)    =  N/A
# P''_bary (s/s^2) =  N/A
# P_orb (s)        =  N/A
# asin(i)/c (s)    =  N/A
# eccentricity     =  N/A
# w (rad)          =  N/A
# T_peri           =  N/A
######################################################
   0  271.6644
   1  -165.4106
   2  -115.2634
   3  -87.40195
   4  -247.8614
   5  -60.88218
   6  129.1953
   7  -138.0328
   8  -813.3239
   9  -1000.034
  10  -861.2769
  11  -358.5693
  12  -262.6069
  13  -251.4627
  14  330.2673
  15  546.9113
  16  152.8646
  17  -202.317
  18  -430.7451
  19  -506.1081
  20  -116.7519
  21  -150.4067
  22  -280.7639
  23  580.7809
  24  408.0287
  25  -374.2745
  26  -853.3242
  27  -644.8581
  28  -411.2958
  29  -425.0831
  30  -120.7403
  31  412.8678
  32  513.7066
  33  173.2534
  34  -706.6245
  35  -883.9978
  36  -535.3151
  37  -620.3312
  38  -356.5964
  39  340.7355
  40  262.7012
  41  -299.1276
  42  -777.0704
  43  -1340.195
  44  -966.017
  45  -431.6635
  46  372.7869
  47  1019.674
  48  903.2283
  49  454.9215
  50  56.63061
  51  -464.9989
  52  -206.5949
  53  218.1822
  54  383.1985
  55  889.0179
  56  1120.134
  57  527.3192
  58  729.6846
  59  773.9993
  60  1103.262
  61  1143.641
  62  500.1334
  63  749.5119
  64  1028.096
  65  1730.767
  66  1194.104
  67  560.7872
  68  314.3607
  69  484.9326
  70  158.1512
  71  -222.3457
  72  -15.0449
  73  246.4876
  74  47.97908
  75  -122.0017
  76  -126.9183
  77  92.02991
  78  408.9799
  79  633.7659
  80  1157.405
  81  1509.656
  82  1174.975
  83  336.5937
  84  261.2462
  85  565.6453
  86  278.2978
  87  565.455
  88  792.0796
  89  509.7883
  90  448.4877
  91  -281.6664
  92  -627.8012
  93  -578.2731
  94  -319.2883
  95  134.2757
  96  522.9559
  97  879.0001
  98  837.5275
  99  288.3611
 100  18.20872
 101  14.32259
 102  51.23296
 103  -23.92106
 104  98.42459
 105  531.851
 106  722.0914
 107  514.3129
 108  -125.4351
 109  -401.8049
 110  -269.8989
 111  -223.9938
 112  105.5543
 113  342.118
 114  600.1492
 115  265.983
 116  -175.1147
 117  -601.8272
 118  -163.3313
 119  194.7614
 120  -69.61033
 121  -35.9333
 122  798.5425
 123  116.7775
 124  -751.2064
 125  -1048.814
 126  -659.425
 127  -613.1267
 128  -240.6421
 129  643.0143
 130  855.4487
 131  291.7759
 132  -252.8697
 133  -466.648
 134  -640.0384
 135  -391.806
 136  -129.8718
 137  -343.3486
 138  -102.9085
 139  161.5008
 140  26.64461
 141  -828.2634
 142  -1212.455
 143  -913.8569
 144  -573.4655
 145  -779.6332
 146  -44.16003
 147  465.7584
 148  337.1802
 149  -237.0954
 150  -289.973
 151  -292.051
 152  -476.831
 153  -125.1503
 154  205.4291
 155  192.45
 156  -7.947089
 157  -473.1886
 158  -1165.864
 159  -1021.934
 160  -519.4603
 161  -42.94072
 162  566.8269
 163  947.7793
 164  809.0701
 165  170.6596
 166  -241.9544
 167  -398.6611
 168  -274.8205
 169  -8.790829
 170  -68.07057
 171  -151.979
 172  456.6198
 173  90.07921
 174  -609.5892
 175  -775.2463
 176  -322.0697
 177  -904.8768
 178  -396.574
 179  141.1819
 180  578.48
 181  581.7182
 182  193.3292
 183  -384.7131
 184  -84.68071
 185  -117.1211
 186  -504.4865
 187  -200.1634
 188  366.9587
 189  206.1916
 190  -694.3735
 191  -754.4332
 192  -463.5576
 193  -489.3449
 194  -378.4507
 195  -110.5929
 196  777.9228
 197  658.6299
 198  -47.01575
 199  -507.5269
 200  -843.4987
 201  -759.777
 202  -352.5579
 203  -322.2077
 204  -51.25692
 205  207.8252
 206  -75.9686
 207  -698.2336
 208  -1005.547
 209  -1015.886
 210  -642.0652
 211  -473.4625
 212  56.49821
 213  61.97437
 214  392.889
 215  -28.99138
 216  -314.5171
 217  -24.23442
 218  -0.2739812
 219  -537.043
 220  -346.1241
 221  -155.8076
 222  -116.8097
 223  -665.444
 224  -1241.524
 225  -1001.435
 226  -677.9233
 227  -520.9213
 228  -485.8136
 229  462.7391
 230  819.051
 231  27.14383
 232  -708.4484
 233  -580.0564
 234  -400.6509
 235  -486.9186
 236  -437.6868
 237  141.1043
 238  462.0898
 239  175.3308
 240  -235.2783
 241  -451.1337
 242  -842.5782
 243  -714.4114
 244  -495.2749
 245  187.0829
 246  556.2806
 247  353.3683
 248  56.81979
 249  83.03457
 250  -173.3713
 251  -427.9663
 252  -161.7779
 253  -458.4035
 254  -40.95256
 255  29.07553
 256  -533.1515
 257  -901.9064
 258  -994.2964
 259  -189.9122
 260  -279.2586
 261  -245.5376
 262  184.6139
 263  440.8335
 264  -237.142
 265  -412.7989
 266  -306.6062
 267  208.7402
 268  9.308008
 269  -265.3127
 270  0.7495645
 271  567.793
 272  279.5042
 273  -252.6988
 274  -583.0697
 275  -674.593
 276  -736.2308
 277  -660.5616
 278  33.05051
 279  856.01
 280  246.3024
 281  43.17546
 282  -57.59942
 283  -511.0669
 284  -559.0376
 285  -760.5673
 286  -717.6949
 287  -399.3336
 288  203.1693
 289  124.6079
 290  -393.1099
 291  -727.6816
 292  -301.6775
 293  102.2503
 294  469.7253
 295  800.1698
 296  673.0724
 297  78.0734
 298  -432.6832
 299  -210.4966
 300  573.5305
 301  918.2034
 302  568.6441
 303  423.9587
 304  395.4456
 305  -94.32337
 306  -1000.129
 307  -1089.882
 308  -731.6289
 309  -860.3041
 310  -251.7698
 311  381.9673
 312  858.5136
 313  716.4686
 314  354.8221
 315  242.0063
 316  347.4024
 317  274.508
 318  -245.5137
 319  -272.5021
 320  189.4984
 321  782.4612
 322  418.8351
 323  -63.26811
 324  -186.6879
 325  -345.731
 326  -333.0998
 327  -426.4983
 328  342.2276
 329  574.8622
 330  454.7393
 331  -146.7486
 332  -553.2723
 333  -151.4771
 334  -48.60837
 335  -822.4077
 336  -431.9073
 337  -69.66315
 338  -244.1598
 339  -383.226
 340  -684.9705
 341  -196.9129
 342  -139.9773
 343  -228.4884
 344  -82.69898
 345  458.3294
 346  755.7419
 347  159.7363
 348  -464.3316
 349  -429.3528
 350  -86.45671
 351  -432.392
 352  -610.0334
 353  102.1823
 354  708.3421
 355  571.94
 356  29.75846
 357  -182.4907
 358  -337.8942
 359  -668.1039
 360  -260.6851
 361  148.1204
 362  656.7067
 363  624.6183
 364  351.607
 365  344.0901
 366  30.00306
 367  -410.3958
 368  -518.2181
 369  -211.308
 370  166.7954
 371  201.5234
 372  -526.2578
 373  -604.2039
 374  -609.7505
 375  -363.6322
 376  189.3196
 377  622.4629
 378  914.2593
 379  444.6702
 380  338.6183
 381  -328.1779
 382  -352.5809
 383  101.4608
 384  -111.2814
 385  -84.69914
 386  -110.4951
 387  333.6959
 388  4.476962
 389  -746.2146
 390  -519.7483
 391  -405.0065
 392  -158.5005
 393  -248.8353
 394  331.108
 395  909.2308
 396  864.6111
 397  324.0703
 398  331.7132
 399  626.8249
 400  127.0908
 401  -159.0368
 402  356.1723
 403  1157.317
 404  1375.444
 405  1470.665
 406  1635.005
 407  1665.887
 408  1377.179
 409  1059.821
 410  863.6337
 411  843.1667
 412  624.8243
 413  -61.96532
 414  24.87215
 415  -34.9152
 416  -255.8416
 417  259.5351
 418  321.8263
 419  378.9741
 420  203.2444
 421  -450.5467
 422  -803.1664
 423  -864.021
 424  -150.384
 425  -478.3747
 426  -112.1049
 427  420.3936
 428  632.826
 429  733.0204
 430  289.5999
 431  -22.01118
 432  -261.5853
 433  -576.9453
 434  -548.089
 435  170.7346
 436  714.9834
 437  348.9431
 438  -188.014
 439  -557.1073
 440  -493.7031
 441  -304.3177
 442  -372.246
 443  -136.3479
 444  532.6778
 445  742.6659
 446  -49.88684
 447  -335.6334
 448  -374.3062
 449  -79.81201
 450  -219.1838
 451  -173.4117
 452  67.61916
 453  -119.4053
 454  -729.1104
 455  -1130.035
 456  -760.8929
 457  -101.2692
 458  -31.3187
 459  145.4299
 460  410.0616
 461  914.3762
 462  659.4963
 463  142.3184
 464  -104.1537
 465  -108.63
 466  -143.9632
 467  -596.4772
 468  -150.7527
 469  906.2488
 470  716.3531
 471  369.1965
 472  -164.8154
 473  -23.13443
 474  -97.54424
 475  258.6805
 476  783.1936
 477  1126.773
 478  1097.534
 479  832.5899
 480  398.1404
 481  14.97922
 482  487.9447
 483  339.2171
 484  451.9488
 485  650.5056
 486  787.5716
 487  50.7488
 488  -543.9493
 489  -432.0579
 490  -139.5782
 491  100.1936
 492  195.2076
 493  964.0928
 494  957.2899
 495  358.7334
 496  -256.3082
 497  -152.6965
 498  312.283
 499  -152.3023
 500  -262.4027
 501  -55.99196
 502  138.6579
 503  380.1971
 504  -418.0594
 505  -298.6094
 506  -15.25776
 507  -128.0972
 508  -262.2196
 509  138.8924
 510  552.5289
 511  764.2729
