# Input file       =  1202739893.132749_cleaned.dat
# Candidate        =  PSR_0332+5434
# Telescope        =  AR
# Epoch_topo       =  58164.600834869780
# Epoch_bary       =  N/A
# T_sample         =  0.002
# Data Folded      =  7340032
# Data Avg         =  -0.395791905713849
# Data StdDev      =  5.09468254446359 
# Profile Bins     =  512
# Profile Avg      =  -5674.55743402139
# Profile StdDev   =  610.001810424334 
# Reduced chi-sqr  =  0.465
# Prob(Noise)      <  1   (~0.0 sigma)
# P_topo (ms)      =  714.580109508009  +/- 0.00139
# P'_topo (s/s)    =  -0                +/- 7.34e-10
# P''_topo (s/s^2) =  0                 +/- 3.24e-13
# P_bary (ms)      =  N/A
# P'_bary (s/s)    =  N/A
# P''_bary (s/s^2) =  N/A
# P_orb (s)        =  N/A
# asin(i)/c (s)    =  N/A
# eccentricity     =  N/A
# w (rad)          =  N/A
# T_peri           =  N/A
######################################################
   0  -5950.512
   1  -6082.113
   2  -6097.786
   3  -6040.83
   4  -5836.484
   5  -6053.054
   6  -6036.927
   7  -6070.01
   8  -5756.37
   9  -5824.737
  10  -5956.189
  11  -5855.29
  12  -5783.092
  13  -5419.361
  14  -5521.558
  15  -5544.533
  16  -5654.672
  17  -5880.955
  18  -5744.15
  19  -5901.276
  20  -5939.598
  21  -5929.298
  22  -5755.816
  23  -5793.897
  24  -5836.189
  25  -6054.798
  26  -5905.338
  27  -5703.282
  28  -5697.684
  29  -5808.511
  30  -5978.378
  31  -5753.865
  32  -5516.295
  33  -5808.214
  34  -6022.424
  35  -5864.801
  36  -5710.512
  37  -5567.975
  38  -5507.169
  39  -5423.689
  40  -5586.889
  41  -5749.364
  42  -5805.646
  43  -5514.738
  44  -5629.112
  45  -5285.231
  46  -5325.689
  47  -5228.589
  48  -4999.733
  49  -5081.609
  50  -5057.913
  51  -5321.975
  52  -5320.552
  53  -5187.622
  54  -4845.554
  55  -4990.5
  56  -4949.007
  57  -4903.399
  58  -5128.815
  59  -5315.68
  60  -5168.86
  61  -5091.311
  62  -5314.404
  63  -5363.152
  64  -5198.755
  65  -5332.272
  66  -5380.092
  67  -5540.321
  68  -5271.034
  69  -5164.776
  70  -5470.715
  71  -5447.223
  72  -5549.469
  73  -5715.852
  74  -5486.578
  75  -5436.014
  76  -5359.103
  77  -5483.851
  78  -5287.895
  79  -5482.656
  80  -5611.83
  81  -5620.105
  82  -5622.374
  83  -5585.632
  84  -5702.442
  85  -5441.472
  86  -5387.208
  87  -5691.406
  88  -5991.006
  89  -6134.777
  90  -5966.237
  91  -5895.451
  92  -5984.924
  93  -5892.499
  94  -5889.503
  95  -5862.362
  96  -5995.651
  97  -5768.526
  98  -5928.634
  99  -5837.759
 100  -5807.646
 101  -5940.592
 102  -5878.767
 103  -5895.057
 104  -5598.882
 105  -5530.935
 106  -4939.684
 107  -4462.481
 108  -4303.585
 109  -4422.888
 110  -4484.164
 111  -4859.521
 112  -5742.643
 113  -6104.061
 114  -6314.83
 115  -6102.791
 116  -5964.886
 117  -6201.121
 118  -6130.833
 119  -5899.063
 120  -5771.063
 121  -5618.554
 122  -5512.011
 123  -5644.641
 124  -6012.478
 125  -5821.808
 126  -5735.462
 127  -5501.185
 128  -5489.072
 129  -5672.484
 130  -5669.883
 131  -5680.87
 132  -5519.297
 133  -5733.798
 134  -6236.275
 135  -6234.511
 136  -6033.916
 137  -5931.458
 138  -5781.142
 139  -5860.058
 140  -5716.324
 141  -5944.706
 142  -6210.702
 143  -6001.794
 144  -5815.546
 145  -5697.727
 146  -5897.809
 147  -6021.395
 148  -5795.42
 149  -5696.746
 150  -5946.444
 151  -5560.837
 152  -5601.445
 153  -5843.278
 154  -5871.385
 155  -6060.821
 156  -6250.208
 157  -6006.052
 158  -5896.658
 159  -5880.318
 160  -5660.101
 161  -5687.707
 162  -6047.953
 163  -5805.863
 164  -5689.643
 165  -5759.722
 166  -5627.549
 167  -5370.328
 168  -5205.335
 169  -5447.873
 170  -5528.215
 171  -5635.349
 172  -5634.802
 173  -5775.905
 174  -5584.148
 175  -5489.085
 176  -5457.142
 177  -5602.708
 178  -5685.185
 179  -5600.208
 180  -5345.698
 181  -5581.521
 182  -5578.426
 183  -5703.003
 184  -5201.083
 185  -5310.874
 186  -5919.51
 187  -5892.959
 188  -5373.648
 189  -5165.362
 190  -5598.454
 191  -5768.924
 192  -5701.637
 193  -5506.664
 194  -5483.008
 195  -5165.42
 196  -5031.641
 197  -4936.188
 198  -5196.047
 199  -5384.502
 200  -5470.671
 201  -5400.188
 202  -5292.226
 203  -5439.101
 204  -5520.119
 205  -5789.725
 206  -5749.541
 207  -5661.896
 208  -5789.498
 209  -5503.753
 210  -5050.764
 211  -5301.834
 212  -5689.599
 213  -5590.115
 214  -5472.133
 215  -5416.944
 216  -5160.133
 217  -5016.38
 218  -5065.394
 219  -5525.075
 220  -5448.152
 221  -5326.256
 222  -5525.076
 223  -5379.676
 224  -5531.77
 225  -5383.454
 226  -5378.191
 227  -5349.394
 228  -5414.491
 229  -5354.822
 230  -5401.357
 231  -5556.256
 232  -5219.588
 233  -5032.237
 234  -5474.851
 235  -5582.112
 236  -5599.455
 237  -5604.645
 238  -5779.274
 239  -5782.908
 240  -5488.984
 241  -5624.233
 242  -5786.003
 243  -5916.349
 244  -5801.454
 245  -5886.077
 246  -5976.474
 247  -5641.025
 248  -5529.928
 249  -5920.475
 250  -5893.916
 251  -5882.245
 252  -5819.92
 253  -5751.615
 254  -5490.553
 255  -5441.609
 256  -5472.42
 257  -5659.463
 258  -5536.858
 259  -5711.71
 260  -5498.859
 261  -5655.007
 262  -5725.304
 263  -5749.501
 264  -5889.142
 265  -5413.074
 266  -5552.601
 267  -5717.388
 268  -5782.665
 269  -5902.857
 270  -5837.193
 271  -5554.208
 272  -5576.592
 273  -5611.033
 274  -5783.654
 275  -5820.59
 276  -5514.105
 277  -5298.948
 278  -5523.368
 279  -5680.067
 280  -5349.985
 281  -5153.683
 282  -5359.835
 283  -5360.37
 284  -5527.608
 285  -5723.809
 286  -5552.32
 287  -5820.449
 288  -5709.358
 289  -5256.28
 290  -5097.404
 291  -5375.846
 292  -5259.305
 293  -5593.854
 294  -5545.902
 295  -5468.43
 296  -5399.337
 297  -5474.997
 298  -5425.07
 299  -5638.163
 300  -5746.212
 301  -5667.417
 302  -5629.451
 303  -5610.887
 304  -5923.615
 305  -5975.33
 306  -5968.876
 307  -5948.77
 308  -5952.021
 309  -5677.81
 310  -5567.381
 311  -5587.3
 312  -5397.111
 313  -5653.177
 314  -5534.311
 315  -5184.019
 316  -5381.604
 317  -5322.609
 318  -5359.104
 319  -5518.139
 320  -5821.293
 321  -5765.929
 322  -5614.744
 323  -5756.535
 324  -5763.711
 325  -5779.135
 326  -5659.014
 327  -5775.144
 328  -5866.54
 329  -5729.094
 330  -5459.427
 331  -5659.546
 332  -5821.617
 333  -5778.607
 334  -5782.592
 335  -5487.889
 336  -5636.307
 337  -5763.026
 338  -5480.048
 339  -5411.016
 340  -5707.95
 341  -5937.885
 342  -6414.786
 343  -6257.711
 344  -6149.204
 345  -6268.941
 346  -6116.661
 347  -5888.8
 348  -5746.732
 349  -5951.369
 350  -5907.112
 351  -6158.698
 352  -6114.352
 353  -5939.715
 354  -6252.704
 355  -5924.385
 356  -5794.542
 357  -6092.25
 358  -5856.161
 359  -5628.96
 360  -5799.315
 361  -6273.671
 362  -6225.374
 363  -5898.307
 364  -5838.28
 365  -5681.47
 366  -5526.938
 367  -5376.32
 368  -5742.932
 369  -5712.188
 370  -5771.071
 371  -5781.824
 372  -5807.201
 373  -5991.125
 374  -6124.271
 375  -5985.612
 376  -5641.725
 377  -5445.92
 378  -5559.815
 379  -5498.482
 380  -5184.771
 381  -5496.449
 382  -5617.127
 383  -5460.779
 384  -5612.667
 385  -5608.348
 386  -5550.925
 387  -5645.902
 388  -5544.79
 389  -5644.4
 390  -5691.704
 391  -5510.491
 392  -5610.913
 393  -5834.951
 394  -5589.73
 395  -5579.863
 396  -5277.079
 397  -5372.935
 398  -5393.654
 399  -5131.156
 400  -5127.233
 401  -5381.053
 402  -5415.934
 403  -5723.834
 404  -5562.511
 405  -5606.452
 406  -5842.398
 407  -5573.005
 408  -5697.867
 409  -5801.37
 410  -6082.653
 411  -6146.755
 412  -5648.268
 413  -5412.905
 414  -5811.074
 415  -5797.636
 416  -5768.806
 417  -5381.015
 418  -5724.433
 419  -5834.99
 420  -5827.651
 421  -5949.423
 422  -5767.11
 423  -6138.297
 424  -5884.859
 425  -6193.854
 426  -6193.483
 427  -5704.778
 428  -5867.812
 429  -6049.896
 430  -5807.66
 431  -5635.191
 432  -5580.729
 433  -5999.731
 434  -5842.988
 435  -6104.35
 436  -6517.639
 437  -6607.32
 438  -6213.852
 439  -5946.507
 440  -6026.318
 441  -6146.893
 442  -6098.22
 443  -5975.723
 444  -6152.663
 445  -6226.251
 446  -6074.29
 447  -5669.358
 448  -5559.094
 449  -5515.291
 450  -5788.912
 451  -5685.693
 452  -5668.868
 453  -5711.913
 454  -5928.102
 455  -5788.629
 456  -5449.497
 457  -5857.658
 458  -5879.164
 459  -6014.131
 460  -5948.449
 461  -5830.709
 462  -5935.922
 463  -5951.854
 464  -6214.561
 465  -6082.706
 466  -5831.836
 467  -5643.271
 468  -5828.513
 469  -5694.404
 470  -5770.373
 471  -5981.207
 472  -5687.583
 473  -5818.613
 474  -5748.709
 475  -5660.549
 476  -5724.779
 477  -5697.151
 478  -5822.678
 479  -5792.69
 480  -5612.311
 481  -5913.96
 482  -5701.244
 483  -5663.802
 484  -5719.494
 485  -5738.777
 486  -5909.375
 487  -5719.108
 488  -5943.069
 489  -5904.852
 490  -5839.047
 491  -5743.558
 492  -5810.024
 493  -5903.556
 494  -5772.414
 495  -5694.216
 496  -5606.652
 497  -5738.507
 498  -5617.106
 499  -5825.542
 500  -5880.621
 501  -5692.64
 502  -5667.377
 503  -5734.381
 504  -5566.092
 505  -5978.413
 506  -5948.69
 507  -6135.388
 508  -6082.176
 509  -5802.732
 510  -5637.008
 511  -5741.662
