# Input file       =  1202294239.113467_cleaned.dat
# Candidate        =  PSR_0332+5434
# Telescope        =  AR
# Epoch_topo       =  58159.442802239202
# Epoch_bary       =  N/A
# T_sample         =  0.002
# Data Folded      =  7143424
# Data Avg         =  0.014804011507289
# Data StdDev      =  1.0000321426838  
# Profile Bins     =  512
# Profile Avg      =  206.544544043717 
# Profile StdDev   =  118.122381130179 
# Reduced chi-sqr  =  1.897
# Prob(Noise)      <  8.63e-31   (~11.5 sigma)
# P_topo (ms)      =  714.579035493061  +/- 5.76e-05
# P'_topo (s/s)    =  -0                +/- 3.12e-11
# P''_topo (s/s^2) =  0                 +/- 1.42e-14
# P_bary (ms)      =  N/A
# P'_bary (s/s)    =  N/A
# P''_bary (s/s^2) =  N/A
# P_orb (s)        =  N/A
# asin(i)/c (s)    =  N/A
# eccentricity     =  N/A
# w (rad)          =  N/A
# T_peri           =  N/A
######################################################
   0  947.9764
   1  933.3442
   2  677.9586
   3  521.1193
   4  286.4237
   5  236.4559
   6  250.9771
   7  341.2647
   8  406.2682
   9  276.0659
  10  323.583
  11  318.6053
  12  152.6765
  13  194.2172
  14  226.3619
  15  115.7873
  16  231.4723
  17  146.8777
  18  272.1959
  19  224.2582
  20  168.0041
  21  157.151
  22  197.1043
  23  119.6315
  24  119.5228
  25  170.1237
  26  345.9121
  27  347.1443
  28  297.4061
  29  240.7133
  30  246.8661
  31  296.1969
  32  294.4929
  33  284.0576
  34  292.2262
  35  331.2612
  36  76.58082
  37  253.5477
  38  218.5804
  39  110.8394
  40  76.83073
  41  127.9715
  42  115.1675
  43  313.3171
  44  311.2427
  45  97.07388
  46  98.30531
  47  109.9016
  48  194.7502
  49  165.7906
  50  292.9785
  51  440.0316
  52  229.125
  53  181.7145
  54  184.4224
  55  130.6933
  56  13.07835
  57  65.46526
  58  133.9617
  59  281.1012
  60  213.9797
  61  230.6757
  62  242.0448
  63  127.4324
  64  121.1611
  65  174.7111
  66  235.5078
  67  294.0332
  68  191.4906
  69  147.7546
  70  75.14439
  71  91.71387
  72  145.477
  73  143.8503
  74  178.7373
  75  253.7877
  76  246.1857
  77  228.8222
  78  239.4668
  79  234.2857
  80  279.6173
  81  232.2704
  82  331.4668
  83  340.5548
  84  376.3436
  85  416.2489
  86  257.2285
  87  244.4982
  88  221.1177
  89  166.2018
  90  155.5735
  91  170.9471
  92  236.8664
  93  283.3298
  94  183.0286
  95  120.7686
  96  151.6054
  97  241.1703
  98  283.422
  99  155.2556
 100  159.5782
 101  303.4215
 102  328.9248
 103  248.6616
 104  190.7607
 105  201.4938
 106  240.7225
 107  226.4674
 108  232.7419
 109  279.8182
 110  202.6283
 111  191.8622
 112  88.9622
 113  138.9818
 114  176.0141
 115  140.0948
 116  376.7163
 117  351.8913
 118  228.273
 119  44.99658
 120  -5.074057
 121  29.97616
 122  227.987
 123  165.6681
 124  264.51
 125  175.695
 126  321.4674
 127  280.9018
 128  166.9858
 129  233.2874
 130  256.2448
 131  147.4137
 132  178.6696
 133  206.4642
 134  490.8164
 135  398.178
 136  329.285
 137  462.5529
 138  289.802
 139  229.3803
 140  361.4915
 141  410.9511
 142  391.0677
 143  326.5585
 144  268.3699
 145  178.1405
 146  167.6046
 147  24.24203
 148  83.88296
 149  247.1627
 150  230.9268
 151  313.6857
 152  190.6763
 153  93.66743
 154  183.8975
 155  114.6196
 156  194.319
 157  196.3406
 158  274.7801
 159  339.709
 160  310.8965
 161  193.9489
 162  148.6388
 163  100.0995
 164  61.11168
 165  120.8116
 166  286.0101
 167  445.0314
 168  380.1343
 169  290.4773
 170  293.6591
 171  196.1646
 172  169.2975
 173  249.8165
 174  391.6971
 175  444.0789
 176  278.1357
 177  224.2355
 178  187.7373
 179  191.252
 180  242.8588
 181  195.3987
 182  171.7616
 183  183.1025
 184  80.96268
 185  65.08402
 186  105.1148
 187  152.0199
 188  155.2644
 189  116.2793
 190  247.561
 191  265.6795
 192  303.9083
 193  244.7607
 194  193.2296
 195  50.61369
 196  170.1756
 197  317.6188
 198  272.4771
 199  264.8242
 200  221.7613
 201  255.95
 202  97.103
 203  139.1931
 204  149.8632
 205  146.9443
 206  199.8722
 207  232.8394
 208  215.4478
 209  292.8148
 210  255.9384
 211  178.0166
 212  220.2163
 213  64.492
 214  175.4057
 215  381.8916
 216  433.6887
 217  433.0509
 218  163.891
 219  229.0222
 220  371.8966
 221  262.4409
 222  199.5846
 223  150.0409
 224  333.8668
 225  293.1752
 226  227.1318
 227  145.8478
 228  101.8471
 229  14.86549
 230  11.73077
 231  158.921
 232  321.6362
 233  229.0611
 234  96.22122
 235  157.431
 236  0.2681415
 237  84.71412
 238  73.661
 239  119.4666
 240  171.9275
 241  300.0402
 242  206.5654
 243  171.4881
 244  163.65
 245  233.7563
 246  144.1349
 247  134.3707
 248  256.0988
 249  246.1233
 250  152.146
 251  212.1461
 252  167.1995
 253  131.5494
 254  79.85323
 255  -27.55432
 256  90.57696
 257  198.6444
 258  310.9912
 259  172.4431
 260  124.9471
 261  106.4369
 262  233.6806
 263  158.7839
 264  45.7555
 265  162.5153
 266  236.3204
 267  184.4898
 268  27.9723
 269  139.6315
 270  129.6648
 271  178.7121
 272  161.025
 273  284.3231
 274  340.4988
 275  209.3103
 276  262.2996
 277  168.8308
 278  315.0966
 279  183.1792
 280  96.77762
 281  90.72754
 282  -4.573003
 283  -26.42851
 284  180.9066
 285  336.421
 286  206.6493
 287  169.2761
 288  157.6824
 289  155.184
 290  134.2142
 291  219.1908
 292  289.8249
 293  238.7801
 294  8.273997
 295  107.705
 296  80.5629
 297  133.7973
 298  154.2573
 299  146.0249
 300  155.9587
 301  167.0809
 302  166.7658
 303  49.46208
 304  168.8892
 305  173.1933
 306  263.641
 307  333.7173
 308  339.1755
 309  262.1782
 310  203.1244
 311  -21.8045
 312  -91.10754
 313  1.656385
 314  109.0278
 315  289.2163
 316  337.5518
 317  205.2159
 318  112.4399
 319  175.6433
 320  131.1179
 321  161.5063
 322  173.0136
 323  179.8481
 324  198.9828
 325  193.4175
 326  1.536475
 327  93.95953
 328  253.6602
 329  200.0928
 330  205.9481
 331  233.6374
 332  164.6265
 333  176.1256
 334  148.1592
 335  73.30098
 336  19.47879
 337  64.38489
 338  142.1765
 339  237.8267
 340  344.7136
 341  233.5581
 342  93.18279
 343  62.45816
 344  143.9518
 345  89.67602
 346  26.3288
 347  53.8003
 348  167.9892
 349  269.9878
 350  218.9118
 351  165.2769
 352  110.551
 353  102.1578
 354  157.3168
 355  157.6213
 356  71.54601
 357  250.451
 358  159.3692
 359  88.1926
 360  168.7997
 361  152.6879
 362  144.2572
 363  146.9553
 364  206.2404
 365  331.5658
 366  359.7564
 367  259.6812
 368  202.7937
 369  147.1496
 370  138.6392
 371  146.4879
 372  56.49088
 373  148.8474
 374  208.1789
 375  262.0058
 376  207.4867
 377  34.22924
 378  32.34786
 379  192.7196
 380  148.5766
 381  85.26501
 382  192.4543
 383  174.9325
 384  140.3285
 385  170.2342
 386  61.25615
 387  47.68513
 388  84.25329
 389  163.1536
 390  139.0523
 391  174.2723
 392  76.56526
 393  151.672
 394  151.229
 395  129.6184
 396  263.7805
 397  319.5496
 398  213.1555
 399  182.7365
 400  253.849
 401  326.5204
 402  155.8934
 403  121.5317
 404  140.2888
 405  305.5985
 406  356.0354
 407  296.2201
 408  212.2815
 409  170.6806
 410  66.7683
 411  198.6471
 412  154.849
 413  0.02089465
 414  -37.10839
 415  15.82718
 416  190.1814
 417  71.56997
 418  217.4631
 419  160.9132
 420  186.1685
 421  222.5202
 422  215.438
 423  250.801
 424  207.6313
 425  283.5465
 426  214.484
 427  169.6599
 428  97.65284
 429  109.3175
 430  252.5277
 431  270.6675
 432  220.0373
 433  145.3527
 434  214.2321
 435  314.792
 436  315.5287
 437  313.8936
 438  227.6796
 439  285.2395
 440  472.0884
 441  385.0681
 442  299.3725
 443  189.8523
 444  145.8924
 445  158.5607
 446  233.7861
 447  245.3029
 448  169.6233
 449  208.021
 450  141.7411
 451  85.92738
 452  94.03194
 453  100.44
 454  206.645
 455  230.9886
 456  289.1444
 457  264.9004
 458  154.7806
 459  153.8235
 460  118.9725
 461  169.8111
 462  192.1229
 463  260.999
 464  423.4276
 465  262.8674
 466  223.3511
 467  98.08109
 468  100.2322
 469  224.5991
 470  191.7412
 471  105.1809
 472  262.8647
 473  274.0406
 474  254.4431
 475  107.1067
 476  200.5624
 477  168.6723
 478  231.799
 479  194.7905
 480  235.203
 481  263.3368
 482  194.0242
 483  140.484
 484  66.73454
 485  22.97325
 486  244.0967
 487  284.1883
 488  279.281
 489  291.6215
 490  214.1956
 491  310.7266
 492  311.3519
 493  260.2043
 494  214.7776
 495  171.2522
 496  230.3927
 497  401.9978
 498  212.8395
 499  281.0146
 500  203.3003
 501  142.9499
 502  100.3916
 503  146.4229
 504  76.45978
 505  200.9065
 506  287.8023
 507  534.5264
 508  497.79
 509  617.1527
 510  873.3587
 511  888.9468
