# Input file       =  1202065879.113442_cleaned.dat
# Candidate        =  PSR_0332+5434
# Telescope        =  AR
# Epoch_topo       =  58156.799746683355
# Epoch_bary       =  N/A
# T_sample         =  0.002
# Data Folded      =  7340032
# Data Avg         =  0.0272504987001199
# Data StdDev      =  1.00005081896175 
# Profile Bins     =  512
# Profile Avg      =  390.718770518675 
# Profile StdDev   =  119.739121085362 
# Reduced chi-sqr  =  1.062
# Prob(Noise)      <  0.162   (~1.0 sigma)
# P_topo (ms)      =  714.578675170356  +/- 0.000418
# P'_topo (s/s)    =  -0                +/- 2.2e-10
# P''_topo (s/s^2) =  0                 +/- 9.73e-14
# P_bary (ms)      =  N/A
# P'_bary (s/s)    =  N/A
# P''_bary (s/s^2) =  N/A
# P_orb (s)        =  N/A
# asin(i)/c (s)    =  N/A
# eccentricity     =  N/A
# w (rad)          =  N/A
# T_peri           =  N/A
######################################################
   0  354.7808
   1  349.2409
   2  402.6765
   3  456.5836
   4  368.8748
   5  408.8352
   6  526.3698
   7  447.1497
   8  492.6936
   9  427.1047
  10  401.551
  11  395.1905
  12  399.2102
  13  365.3548
  14  273.0808
  15  330.8771
  16  415.7371
  17  421.4795
  18  461.9083
  19  421.942
  20  427.1501
  21  373.3498
  22  353.1228
  23  513.05
  24  549.6123
  25  372.6678
  26  297.1949
  27  401.5424
  28  407.2687
  29  458.2805
  30  388.0296
  31  401.335
  32  298.3268
  33  295.6792
  34  454.3552
  35  420.5561
  36  278.9052
  37  331.8508
  38  320.3271
  39  327.8579
  40  378.6505
  41  326.7642
  42  334.3377
  43  290.9992
  44  359.473
  45  403.3488
  46  360.1706
  47  432.6342
  48  464.0493
  49  337.2824
  50  289.9439
  51  421.4879
  52  505.5005
  53  467.4498
  54  432.9312
  55  371.6681
  56  363.5116
  57  458.4893
  58  545.1897
  59  531.5065
  60  501.6328
  61  312.7919
  62  211.5344
  63  375.8086
  64  370.3586
  65  257.4612
  66  310.9971
  67  438.2343
  68  502.8069
  69  325.5977
  70  368.794
  71  427.4544
  72  500.1593
  73  511.3911
  74  352.4745
  75  288.8824
  76  288.2854
  77  368.5573
  78  378.3046
  79  292.6604
  80  351.187
  81  299.2051
  82  195.184
  83  274.7567
  84  341.0447
  85  337.0569
  86  328.7679
  87  419.0672
  88  501.9406
  89  439.2669
  90  329.3078
  91  330.6516
  92  376.6332
  93  375.1527
  94  469.1035
  95  395.2034
  96  315.1456
  97  457.6227
  98  491.6467
  99  377.4391
 100  405.4416
 101  443.067
 102  384.9628
 103  295.8693
 104  303.4751
 105  404.5246
 106  266.9888
 107  281.117
 108  366.4171
 109  255.9544
 110  299.4688
 111  317.8004
 112  308.0504
 113  345.239
 114  398.684
 115  380.357
 116  353.4352
 117  362.4364
 118  319.751
 119  293.8238
 120  368.5297
 121  408.1995
 122  396.6014
 123  333.6346
 124  294.0805
 125  274.9806
 126  330.3692
 127  463.1847
 128  423.5242
 129  347.4192
 130  395.2373
 131  401.9352
 132  466.7874
 133  446.1641
 134  335.533
 135  429.9263
 136  451.06
 137  414.2588
 138  465.7877
 139  378.8286
 140  325.2734
 141  326.6667
 142  289.2441
 143  301.8249
 144  343.7247
 145  346.4111
 146  414.1795
 147  429.6348
 148  417.8316
 149  397.5967
 150  437.7172
 151  426.7409
 152  412.4722
 153  403.1693
 154  278.0453
 155  476.7704
 156  483.1822
 157  393.1758
 158  332.5092
 159  328.4301
 160  417.1551
 161  372.7679
 162  396.6731
 163  383.9391
 164  303.1357
 165  439.7574
 166  503.7042
 167  427.0296
 168  417.5888
 169  366.1946
 170  407.2624
 171  356.6557
 172  399.6404
 173  392.2019
 174  404.5761
 175  521.7683
 176  477.5799
 177  446.9727
 178  398.5411
 179  454.111
 180  526.0738
 181  408.6853
 182  347.4524
 183  255.4329
 184  290.6366
 185  306.2826
 186  299.5179
 187  421.5067
 188  388.5577
 189  373.6381
 190  380.6728
 191  383.8512
 192  384.7562
 193  394.4869
 194  371.4641
 195  339.4575
 196  345.4285
 197  336.0929
 198  386.477
 199  414.1568
 200  425.4409
 201  384.5784
 202  359.1227
 203  281.6978
 204  318.4336
 205  395.2956
 206  355.4814
 207  306.9426
 208  313.9341
 209  327.987
 210  316.7703
 211  343.6907
 212  381.9295
 213  474.2559
 214  340.3273
 215  334.7225
 216  358.9881
 217  339.8534
 218  466.3708
 219  410.4911
 220  359.0953
 221  323.334
 222  296.7668
 223  292.8576
 224  335.6758
 225  286.1576
 226  323.4162
 227  397.2449
 228  366.0689
 229  270.7623
 230  273.2092
 231  308.4871
 232  380.1337
 233  320.7931
 234  354.666
 235  345.9956
 236  334.5873
 237  364.8363
 238  362.1648
 239  371.8238
 240  361.8718
 241  227.0541
 242  260.3123
 243  352.3289
 244  236.4601
 245  276.0923
 246  345.878
 247  374.9352
 248  285.9844
 249  276.9413
 250  321.9977
 251  345.834
 252  344.2985
 253  285.4586
 254  263.1519
 255  296.4287
 256  289.4742
 257  424.8522
 258  398.5185
 259  312.3113
 260  390.5628
 261  470.1021
 262  364.8969
 263  228.8977
 264  416.5619
 265  430.864
 266  274.4544
 267  269.8619
 268  347.8062
 269  256.1362
 270  297.8745
 271  355.298
 272  233.5797
 273  190.0774
 274  275.6962
 275  280.5981
 276  364.7652
 277  425.9888
 278  457.3212
 279  366.4022
 280  250.1515
 281  359.6299
 282  401.0953
 283  311.7934
 284  398.1447
 285  363.034
 286  376.7141
 287  302.9369
 288  391.3506
 289  428.4608
 290  487.0202
 291  456.5355
 292  446.6869
 293  458.8241
 294  505.8313
 295  456.9898
 296  384.1183
 297  401.9746
 298  501.6479
 299  329.0798
 300  495.3253
 301  476.6324
 302  489.7606
 303  476.2783
 304  288.3686
 305  286.43
 306  228.6472
 307  347.1641
 308  363.5327
 309  433.0844
 310  399.3918
 311  338.0141
 312  260.1634
 313  230.2812
 314  393.9785
 315  441.471
 316  387.7299
 317  410.6482
 318  439.327
 319  458.9502
 320  346.6602
 321  382.0954
 322  513.6462
 323  409.5026
 324  354.0076
 325  337.2123
 326  450.868
 327  481.643
 328  331.6565
 329  289.0803
 330  325.6841
 331  347.2842
 332  444.8623
 333  483.664
 334  542.5839
 335  539.6689
 336  450.2662
 337  389.9594
 338  480.5391
 339  448.6691
 340  472.7788
 341  456.5289
 342  369.0382
 343  420.1536
 344  477.1207
 345  498.3505
 346  372.6027
 347  468.8481
 348  498.5904
 349  379.9379
 350  394.6383
 351  337.4445
 352  364.7819
 353  419.4237
 354  366.3774
 355  375.4112
 356  366.4896
 357  297.7252
 358  402.3077
 359  546.3861
 360  655.0195
 361  546.739
 362  499.617
 363  468.8477
 364  428.9892
 365  421.1716
 366  501.0602
 367  396.467
 368  370.5106
 369  533.1259
 370  488.3243
 371  593.8627
 372  607.8298
 373  584.1226
 374  556.9312
 375  553.3348
 376  821.5864
 377  975.922
 378  964.6482
 379  822.6007
 380  807.2936
 381  597.9061
 382  455.8171
 383  510.4457
 384  397.716
 385  401.9821
 386  385.4559
 387  393.8708
 388  359.4294
 389  524.3935
 390  555.3586
 391  408.5256
 392  419.9008
 393  453.5712
 394  399.8175
 395  404.9344
 396  424.9961
 397  462.933
 398  403.8606
 399  414.3169
 400  367.0276
 401  350.0809
 402  444.5471
 403  300.9417
 404  263.7574
 405  442.497
 406  382.0221
 407  332.3487
 408  258.2167
 409  316.3789
 410  299.0854
 411  277.4339
 412  392.328
 413  338.2898
 414  351.1107
 415  302.2735
 416  241.3165
 417  413.7042
 418  349.1583
 419  386.8415
 420  422.5093
 421  387.4117
 422  370.764
 423  416.2588
 424  409.6697
 425  402.6725
 426  393.3402
 427  297.6749
 428  387.2105
 429  495.3139
 430  332.8932
 431  322.3918
 432  297.4539
 433  278.3634
 434  364.2751
 435  427.1736
 436  434.3564
 437  360.9327
 438  332.4902
 439  419.1737
 440  418.436
 441  365.2621
 442  354.8379
 443  346.9172
 444  487.4544
 445  537.6773
 446  427.8323
 447  469.9333
 448  443.9382
 449  488.9882
 450  439.4898
 451  422.8758
 452  318.7394
 453  365.4745
 454  514.4892
 455  531.1407
 456  510.8611
 457  335.7388
 458  344.4493
 459  330.3928
 460  327.6803
 461  309.2987
 462  306.1703
 463  359.4616
 464  444.3186
 465  385.2612
 466  337.8818
 467  333.5867
 468  356.3107
 469  372.1935
 470  358.2525
 471  419.2425
 472  278.3274
 473  303.8453
 474  405.9453
 475  311.2912
 476  384.12
 477  327.9326
 478  280.4753
 479  284.0211
 480  383.3383
 481  440.831
 482  425.0792
 483  450.9723
 484  446.0385
 485  431.8529
 486  428.8943
 487  418.8972
 488  508.634
 489  458.3419
 490  546.3358
 491  581.814
 492  537.0002
 493  495.9701
 494  329.8552
 495  305.5558
 496  430.0408
 497  434.4319
 498  393.1044
 499  383.6527
 500  421.2898
 501  405.6821
 502  420.1642
 503  368.5286
 504  378.6273
 505  392.2961
 506  328.7356
 507  381.3198
 508  469.6431
 509  421.0652
 510  475.4766
 511  429.6151
