# Input file       =  1202050963.106889_cleaned.dat
# Candidate        =  PSR_0332+5434
# Telescope        =  AR
# Epoch_topo       =  58156.627107718625
# Epoch_bary       =  N/A
# T_sample         =  0.002
# Data Folded      =  7340032
# Data Avg         =  0.256155032037765
# Data StdDev      =  9.16102965965375 
# Profile Bins     =  512
# Profile Avg      =  3671.75076110595 
# Profile StdDev   =  1096.87789748796 
# Reduced chi-sqr  =  0.685
# Prob(Noise)      <  1   (~0.0 sigma)
# P_topo (ms)      =  714.578280647374  +/- 0.000646
# P'_topo (s/s)    =  -0                +/- 3.41e-10
# P''_topo (s/s^2) =  0                 +/- 1.5e-13
# P_bary (ms)      =  N/A
# P'_bary (s/s)    =  N/A
# P''_bary (s/s^2) =  N/A
# P_orb (s)        =  N/A
# asin(i)/c (s)    =  N/A
# eccentricity     =  N/A
# w (rad)          =  N/A
# T_peri           =  N/A
######################################################
   0  3087.235
   1  2608.286
   2  2464.862
   3  2867.895
   4  2946.914
   5  2478.554
   6  3093.163
   7  3511.265
   8  4327.397
   9  3462.113
  10  3049.043
  11  3124.631
  12  3420.8
  13  3585.747
  14  3716.485
  15  4546.674
  16  4377.001
  17  3946.558
  18  3836.057
  19  3675.667
  20  3922.363
  21  4285.823
  22  4737.179
  23  5355.314
  24  4412.308
  25  4490.152
  26  4450.069
  27  4465.896
  28  4083.524
  29  5393.868
  30  5519.134
  31  4911.859
  32  4989.842
  33  4132.507
  34  3616.336
  35  4471.951
  36  5034.252
  37  5178.647
  38  5017.806
  39  4377.253
  40  4742.155
  41  4878.923
  42  4849.104
  43  5182.791
  44  4774.47
  45  4004.936
  46  3935.032
  47  3955.197
  48  3914.451
  49  3244.94
  50  3742.529
  51  4157.021
  52  3048.713
  53  3828.728
  54  3752.829
  55  3527.169
  56  3702.416
  57  3735.793
  58  3945.268
  59  3522.719
  60  3747.681
  61  3664.126
  62  3999.303
  63  3288.443
  64  3926.983
  65  4399.026
  66  4089.663
  67  3714.32
  68  3661.118
  69  3718.52
  70  2947.038
  71  2710.606
  72  3569.06
  73  4158.049
  74  4075.829
  75  3864.694
  76  3207.65
  77  3308.521
  78  3461.645
  79  4147.463
  80  4236.977
  81  4483.543
  82  4232.827
  83  3444.449
  84  3422.319
  85  3434.187
  86  3919.285
  87  4349.141
  88  4115.278
  89  3788.515
  90  3848.288
  91  3751.543
  92  3187.449
  93  3177.467
  94  3769.032
  95  3592.903
  96  3976.616
  97  4319.504
  98  4314.977
  99  3884.415
 100  3955.249
 101  3746.004
 102  3621.047
 103  3738.475
 104  3521.226
 105  3599.379
 106  3324.792
 107  3776.293
 108  3224.538
 109  4074.427
 110  3738.718
 111  3923.146
 112  3639.472
 113  3489.641
 114  3950.853
 115  4409.255
 116  4199.051
 117  3938.12
 118  4578.037
 119  4112.343
 120  3642.407
 121  3684.238
 122  3362.209
 123  3398.244
 124  3693.755
 125  3682.615
 126  3058.893
 127  2961.568
 128  3387.659
 129  3190.702
 130  3300.081
 131  3851.289
 132  4253.846
 133  4379.52
 134  3645.724
 135  3959.072
 136  3747.44
 137  3934.118
 138  5079.698
 139  5187.505
 140  4972.355
 141  3909.69
 142  4442.041
 143  4728.71
 144  4466.757
 145  4381.091
 146  3983.896
 147  3588.301
 148  4023.378
 149  3952.286
 150  3871.949
 151  4287.577
 152  3956.739
 153  3504.042
 154  3291.725
 155  3401.187
 156  4171.699
 157  4008.849
 158  3408.823
 159  3575.033
 160  3348.598
 161  2718.772
 162  3319.297
 163  3503.998
 164  3599.206
 165  3649.881
 166  3119.898
 167  3296.027
 168  2777.994
 169  3599.601
 170  3365.468
 171  3965.836
 172  4475.713
 173  4613.283
 174  4417.977
 175  4967.196
 176  4805.318
 177  4315.663
 178  5190.182
 179  5233.177
 180  5216.762
 181  5478.918
 182  5692.15
 183  4990.55
 184  5113.993
 185  5041.473
 186  4936.51
 187  5674.507
 188  5077.096
 189  4132.138
 190  3849.131
 191  3625.561
 192  4127.017
 193  5004.636
 194  4139.578
 195  4006.976
 196  4008.812
 197  4055.306
 198  4023.386
 199  4347.501
 200  4183.724
 201  3852.748
 202  3109.398
 203  3385.325
 204  3574.142
 205  3139.119
 206  3003.407
 207  3207.61
 208  3203.488
 209  3257.338
 210  3397.578
 211  2962.893
 212  3348.469
 213  3305.534
 214  3169.706
 215  3041.258
 216  3043.077
 217  3034.392
 218  3021.394
 219  3605.965
 220  3571.332
 221  3277.381
 222  2962.012
 223  3379.429
 224  3295.931
 225  3009.258
 226  3537.254
 227  3984.657
 228  3269.771
 229  2821.123
 230  3471.424
 231  3219.069
 232  3328.153
 233  2670.344
 234  2276.934
 235  1424.258
 236  1598.595
 237  2751.598
 238  2962.468
 239  2879.269
 240  3186.851
 241  2928.506
 242  2715.214
 243  2698.429
 244  2972.137
 245  3556.527
 246  3418.555
 247  3720.791
 248  3373.942
 249  2340.582
 250  2134.508
 251  2828.279
 252  2774.779
 253  2769.79
 254  2884.031
 255  2886.719
 256  2675.574
 257  2230.535
 258  2554.14
 259  2827.928
 260  3045.075
 261  3385.829
 262  3245.071
 263  3278.954
 264  3401.265
 265  4067.96
 266  3978.632
 267  3635.301
 268  4115.091
 269  3124.756
 270  2961.428
 271  3239.053
 272  3045.341
 273  3451.808
 274  3858.718
 275  3903.727
 276  4097.117
 277  3844.806
 278  2961.044
 279  3006.364
 280  3117.031
 281  3156.049
 282  2986.27
 283  3157.671
 284  3192.148
 285  2608.418
 286  2507.444
 287  2256.251
 288  2681.099
 289  3127.584
 290  3764.879
 291  3291.26
 292  2793.477
 293  3045.385
 294  3913.642
 295  3008.828
 296  2344.241
 297  2477.849
 298  2268.055
 299  3074.506
 300  3344.646
 301  3099.776
 302  3554.09
 303  4015.195
 304  4778.698
 305  4935.29
 306  4828.571
 307  4742.564
 308  4615.336
 309  4673.423
 310  4173.333
 311  4396.343
 312  3701.953
 313  3197.067
 314  3501.571
 315  3806.451
 316  3845.797
 317  3814.116
 318  3973.569
 319  3567.414
 320  3266.042
 321  3930.485
 322  4634.402
 323  4635.119
 324  4006.684
 325  4019.518
 326  4026.272
 327  3875.175
 328  3033.729
 329  3217.797
 330  3883.147
 331  4105.149
 332  4105.21
 333  4515.502
 334  4660.967
 335  3993.627
 336  3529.899
 337  3375.549
 338  3742.011
 339  3702.315
 340  3624.607
 341  3855.39
 342  3185.861
 343  3184.565
 344  2913.34
 345  2864.618
 346  3028.857
 347  4177.736
 348  4093.733
 349  3516.337
 350  2952.606
 351  2983.952
 352  4156.417
 353  4365.382
 354  4590.585
 355  4423.837
 356  3300.203
 357  2412.431
 358  2274.238
 359  2881.047
 360  3025.574
 361  3393.623
 362  3491.832
 363  3221.284
 364  2525.137
 365  2897.797
 366  3181.95
 367  3204.501
 368  3259.198
 369  4097.8
 370  4029.082
 371  2928.192
 372  2996.56
 373  3119.692
 374  3222.115
 375  3213.824
 376  3340.452
 377  3657.766
 378  4203.613
 379  4320.725
 380  4008.854
 381  3831.641
 382  3699.923
 383  3661.583
 384  3767.252
 385  3635.915
 386  3126.645
 387  3078.774
 388  3014.604
 389  3184.6
 390  3134.702
 391  3536.648
 392  2663.477
 393  2274.746
 394  2492.837
 395  2539.944
 396  2334.54
 397  2577.34
 398  3199.389
 399  3817.458
 400  3405.871
 401  2735.376
 402  2167.64
 403  2388.091
 404  2721.475
 405  2842.774
 406  3191.03
 407  3530.03
 408  4317.425
 409  3924.11
 410  3619.265
 411  3392.958
 412  3383.457
 413  2999.995
 414  3322.045
 415  4198.417
 416  4124.404
 417  3496.759
 418  3286.678
 419  3865.093
 420  3843.567
 421  3864.615
 422  4201.988
 423  4454
 424  4011.246
 425  3637.369
 426  3979.149
 427  4293.005
 428  4242.854
 429  4259.578
 430  3762.551
 431  3084.991
 432  3055.566
 433  3172.665
 434  4007.675
 435  3454.503
 436  3978.115
 437  3567.386
 438  4223.481
 439  4432.086
 440  4421.489
 441  4441.064
 442  3849.482
 443  3646.979
 444  4004.455
 445  3900.905
 446  3598.226
 447  3427.577
 448  4104.447
 449  3858.222
 450  3488.767
 451  3888.635
 452  3581.801
 453  3415.641
 454  3212.939
 455  3730.329
 456  3826.078
 457  3256.702
 458  3439.483
 459  3642.682
 460  3391.947
 461  3501.296
 462  4108.886
 463  4576.885
 464  4497.536
 465  4033.194
 466  3798.448
 467  4333.245
 468  4621.77
 469  4375.331
 470  4378.131
 471  3901.575
 472  3565.846
 473  3665.541
 474  3007.21
 475  3111.344
 476  3845.072
 477  3960.736
 478  3906.212
 479  3383.945
 480  2971.757
 481  3472.363
 482  3444.166
 483  3495.637
 484  3403.938
 485  3716.24
 486  3794.622
 487  3766.026
 488  3727.899
 489  3728.783
 490  3773.772
 491  3494.084
 492  3472.483
 493  3479.346
 494  4080.905
 495  4326.016
 496  4034.099
 497  3905.417
 498  3760.182
 499  3502.421
 500  3613.187
 501  3834.234
 502  3892.02
 503  3892.406
 504  3482.067
 505  3348.792
 506  3376.666
 507  3889.904
 508  3950.507
 509  3890.112
 510  3751.193
 511  3532.674
