# Input file       =  1202121883.110952_cleaned.dat
# Candidate        =  PSR_0332+5434
# Telescope        =  AR
# Epoch_topo       =  58157.447941098981
# Epoch_bary       =  N/A
# T_sample         =  0.002
# Data Folded      =  7143424
# Data Avg         =  0.166564901339088
# Data StdDev      =  5.23082338681149 
# Profile Bins     =  512
# Profile Avg      =  2323.87376409865 
# Profile StdDev   =  617.857454124819 
# Reduced chi-sqr  =  0.916
# Prob(Noise)      <  0.915   (~0.0 sigma)
# P_topo (ms)      =  714.578498258461  +/- 3.81e-05
# P'_topo (s/s)    =  -0                +/- 2.06e-11
# P''_topo (s/s^2) =  0                 +/- 9.36e-15
# P_bary (ms)      =  N/A
# P'_bary (s/s)    =  N/A
# P''_bary (s/s^2) =  N/A
# P_orb (s)        =  N/A
# asin(i)/c (s)    =  N/A
# eccentricity     =  N/A
# w (rad)          =  N/A
# T_peri           =  N/A
######################################################
   0  1768.332
   1  1664.325
   2  2331.012
   3  3279.35
   4  2884.671
   5  2467.189
   6  1813.764
   7  1785.944
   8  1810.004
   9  2048.03
  10  2302.382
  11  2167.475
  12  2257.779
  13  2250.02
  14  1830.992
  15  1901.511
  16  1894.087
  17  1549.73
  18  2139.168
  19  2590.552
  20  2688.674
  21  2612.178
  22  2490.932
  23  1958.586
  24  1847.861
  25  2037.033
  26  2124.062
  27  2413.383
  28  2240.844
  29  2118.826
  30  2091.281
  31  1863.081
  32  2236.695
  33  2216.474
  34  2135.445
  35  2385.868
  36  2547.228
  37  2625.16
  38  2283.613
  39  2243.347
  40  1887.545
  41  2037.54
  42  2096.354
  43  1997.495
  44  2149.683
  45  2160.668
  46  1958.728
  47  1691.366
  48  1708.182
  49  2118.077
  50  1901.206
  51  2157.371
  52  2651.421
  53  2985.157
  54  3093.19
  55  2835.932
  56  2075.956
  57  1888.149
  58  1614.863
  59  1819.508
  60  1952.74
  61  2168.812
  62  2348.82
  63  2012.328
  64  2076.552
  65  2038.933
  66  2200.414
  67  2335.922
  68  2536.136
  69  2947.721
  70  2670.906
  71  2506.5
  72  2483.12
  73  2133.388
  74  2345.44
  75  2311.182
  76  2180.646
  77  2373.74
  78  2130.616
  79  2068.224
  80  2179.831
  81  1873.123
  82  2135.767
  83  2532.777
  84  2285.332
  85  2372.188
  86  3097.882
  87  2875.216
  88  2712.245
  89  2365.094
  90  2289.882
  91  2258.091
  92  2225.641
  93  2165.061
  94  2225.685
  95  2387.778
  96  2413.622
  97  1828.913
  98  1895.191
  99  1866.859
 100  2261.379
 101  2875.649
 102  3169.935
 103  2692.579
 104  2702.769
 105  2537.811
 106  2434.28
 107  2566.091
 108  2300.691
 109  2206.823
 110  2052.363
 111  2059.875
 112  2405.787
 113  2292.085
 114  2068.225
 115  1836.437
 116  2084.207
 117  2367.05
 118  3238.315
 119  3366.517
 120  3292.347
 121  2749.705
 122  1966.007
 123  1895.295
 124  1958.466
 125  1970.798
 126  2356.49
 127  2313.519
 128  1952.573
 129  1832.658
 130  2030.021
 131  1960.442
 132  2235.391
 133  2457.478
 134  2682.348
 135  2636.359
 136  2652.887
 137  2582.489
 138  2306.57
 139  2303.181
 140  1899.015
 141  2179.574
 142  2287.48
 143  2253.737
 144  2176.273
 145  2221.845
 146  2150.718
 147  2065.991
 148  1898.159
 149  1930.036
 150  2329.241
 151  2672.458
 152  2905.236
 153  3144.295
 154  2595.936
 155  2318.426
 156  2028.233
 157  1983.985
 158  1828.261
 159  2188.173
 160  2568.093
 161  2612.044
 162  2340.957
 163  1618.327
 164  1546.944
 165  1924.009
 166  2241.541
 167  2732.763
 168  2748.828
 169  2655.656
 170  2523.634
 171  2376.303
 172  2428.237
 173  2371.653
 174  2105.852
 175  2181.151
 176  2284.916
 177  2448.383
 178  2370.366
 179  2433.727
 180  2306.884
 181  2178.283
 182  2529.579
 183  2997.51
 184  2741.735
 185  2882.51
 186  3140.009
 187  2694.812
 188  2354.004
 189  2308.193
 190  2321.86
 191  2103.044
 192  2454.787
 193  2408.169
 194  2341.772
 195  2344.095
 196  2111.916
 197  1900.991
 198  1827.884
 199  2155.796
 200  2433.931
 201  3013.991
 202  3180.316
 203  3144.903
 204  2569.047
 205  2244.771
 206  2168.751
 207  1999.234
 208  2002.537
 209  2005.081
 210  2178.664
 211  2221.725
 212  2240.242
 213  2074.489
 214  1860.795
 215  2183.223
 216  2283.484
 217  2696.458
 218  2855.041
 219  2947.681
 220  2485.158
 221  2138.458
 222  2027.715
 223  2035.166
 224  2286.004
 225  2443.113
 226  2592.126
 227  2560.738
 228  2234.412
 229  1976.803
 230  1717.008
 231  1922.97
 232  2181.678
 233  2862.866
 234  2792.38
 235  2938.115
 236  2759.741
 237  2448.899
 238  2350.284
 239  1927.883
 240  1939.36
 241  1910.535
 242  2260.082
 243  2579.639
 244  2789.936
 245  2384.787
 246  1792.602
 247  1680.583
 248  1928.333
 249  2564.088
 250  2975.055
 251  3000.933
 252  3183.5
 253  3019.669
 254  2315.552
 255  2143.976
 256  2231.498
 257  2391.49
 258  2495.796
 259  2179.408
 260  2373.052
 261  2533.98
 262  2210.837
 263  2134.162
 264  2102.214
 265  2406.311
 266  2466.83
 267  2845
 268  3496.536
 269  3028.186
 270  2332.153
 271  2069.732
 272  1991.875
 273  1876.697
 274  2399.794
 275  2680.596
 276  2530.042
 277  2482.109
 278  2254.691
 279  1845.549
 280  2050.133
 281  2063.241
 282  2593.204
 283  2970.412
 284  2981.904
 285  2965.372
 286  3054.129
 287  2213.531
 288  1866.478
 289  2444.426
 290  2446.846
 291  2498.235
 292  2518.375
 293  2540.988
 294  2458.871
 295  2197.77
 296  2261.593
 297  2290.065
 298  2439.623
 299  2526.674
 300  3056.222
 301  3152.903
 302  3324.922
 303  3255.629
 304  3000.454
 305  2949.746
 306  3486.667
 307  3734.957
 308  3961.228
 309  3987.832
 310  3258.559
 311  2234.324
 312  1662.487
 313  1695.907
 314  1714.234
 315  2088.671
 316  2875.811
 317  3045.032
 318  2942.024
 319  2979.367
 320  2589.021
 321  2088.084
 322  1848.606
 323  2173.828
 324  2299.748
 325  2464.82
 326  2841.88
 327  2530.714
 328  2042.046
 329  1950.212
 330  1961.971
 331  2211.315
 332  2825.14
 333  3240.951
 334  3273.389
 335  2844.642
 336  2335.584
 337  1738.236
 338  1957.609
 339  2220.884
 340  2308.65
 341  2174.671
 342  2403.116
 343  2229.846
 344  1912.333
 345  1554.127
 346  1608.941
 347  1839.844
 348  2184.09
 349  2379.258
 350  2693.724
 351  3153.798
 352  2817.632
 353  2154.678
 354  1981.877
 355  1833.723
 356  1525.994
 357  1786.99
 358  2430.405
 359  2586.441
 360  2578.53
 361  1889.274
 362  1819.137
 363  1757.125
 364  2391.275
 365  2692.361
 366  2979.547
 367  3455.253
 368  3309.947
 369  2598.912
 370  1760.723
 371  1621.215
 372  1719.343
 373  1954.939
 374  2241.669
 375  2502.196
 376  2308.292
 377  2003.191
 378  1830.007
 379  1875.474
 380  1906.805
 381  2121.007
 382  2405.236
 383  2711.064
 384  3054.137
 385  2882.9
 386  2739.607
 387  2135.282
 388  1803.552
 389  2048.482
 390  2224.058
 391  2545.512
 392  2673.745
 393  2603.001
 394  2111.994
 395  1622.619
 396  1656.827
 397  1970.246
 398  2384.563
 399  3174.819
 400  3543.57
 401  3387.927
 402  2275.97
 403  2249.05
 404  2260.399
 405  2327.471
 406  2510.705
 407  2407.875
 408  2174.598
 409  2023.112
 410  1991.482
 411  2139.341
 412  1771.879
 413  2118.86
 414  2101.486
 415  2446.175
 416  2953.228
 417  2608.717
 418  2618.629
 419  2281.564
 420  1810.515
 421  2028.353
 422  2250.66
 423  2080.309
 424  1917.576
 425  2360.339
 426  2269.094
 427  1980.909
 428  1772.729
 429  1730.022
 430  2323.748
 431  2979.397
 432  3163.229
 433  3148.187
 434  2907.127
 435  2144.265
 436  2137.032
 437  2259.7
 438  2182.7
 439  2159.559
 440  2101.171
 441  2312.715
 442  2370.6
 443  2419.918
 444  1703.708
 445  1814.167
 446  1479.666
 447  1643.513
 448  2475.566
 449  3098.937
 450  3191.027
 451  2363.662
 452  1992.019
 453  1880.443
 454  1774.471
 455  1884.615
 456  2110.012
 457  2390.785
 458  2435.589
 459  2535.231
 460  2376.953
 461  1980.191
 462  1522.54
 463  2020.129
 464  2561.715
 465  2703.567
 466  2433.985
 467  2425.286
 468  2216.495
 469  2103.076
 470  2262.905
 471  2088.257
 472  1990.462
 473  1660.139
 474  2156.322
 475  2183.049
 476  1969.247
 477  1972.383
 478  1919.613
 479  1785.979
 480  2076.259
 481  2687.855
 482  2953.089
 483  3168.29
 484  2801.104
 485  2370.84
 486  2134.219
 487  1854.745
 488  1568.347
 489  2094.319
 490  2106.509
 491  1712.84
 492  1983.625
 493  2089.577
 494  1873.391
 495  1845.349
 496  1837.037
 497  2410.993
 498  2468.509
 499  2781.245
 500  2484.009
 501  2403.422
 502  2629.627
 503  2328.997
 504  1951.456
 505  1759.641
 506  1857.708
 507  2103.754
 508  1953.021
 509  2193.511
 510  2166.511
 511  1539.601
