# Input file       =  1202136489.108346-PSRB0329-2ms-sampling-dd.dat
# Candidate        =  PSR_0332+5434
# Telescope        =  AR
# Epoch_topo       =  58157.616991994742
# Epoch_bary       =  N/A
# T_sample         =  0.002
# Data Folded      =  7340032
# Data Avg         =  -2.4852998400442e-09
# Data StdDev      =  26.6520132821321 
# Profile Bins     =  512
# Profile Avg      =  -0.398665382214226
# Profile StdDev   =  3191.12647582358 
# Reduced chi-sqr  =  1.225
# Prob(Noise)      <  0.000366   (~3.4 sigma)
# P_topo (ms)      =  714.578561526973  +/- 0.000331
# P'_topo (s/s)    =  -0                +/- 1.75e-10
# P''_topo (s/s^2) =  0                 +/- 7.71e-14
# P_bary (ms)      =  N/A
# P'_bary (s/s)    =  N/A
# P''_bary (s/s^2) =  N/A
# P_orb (s)        =  N/A
# asin(i)/c (s)    =  N/A
# eccentricity     =  N/A
# w (rad)          =  N/A
# T_peri           =  N/A
######################################################
   0  1209.072
   1  547.674
   2  -94.4986
   3  -444.886
   4  812.2612
   5  764.4305
   6  538.09
   7  505.3448
   8  -664.1602
   9  -1256.133
  10  -1251.585
  11  -1553.638
  12  -1350.963
  13  -1334.512
  14  -1321.526
  15  -1793.361
  16  -1682.27
  17  -1414.995
  18  -1545.366
  19  -1605.869
  20  -1344.458
  21  -1688.93
  22  -2319.601
  23  -1466.164
  24  -291.4329
  25  -51.58556
  26  -270.2664
  27  -1331.177
  28  -1233.101
  29  -1015.762
  30  -523.8596
  31  -612.092
  32  -383.0048
  33  -1409.443
  34  -2290.182
  35  -2657.462
  36  -1946.23
  37  -1871.161
  38  -1487.904
  39  -1980.873
  40  -2637.737
  41  -2424.454
  42  -971.0134
  43  587.9127
  44  282.5267
  45  599.0648
  46  -444.5061
  47  -1911.458
  48  -1865.525
  49  -1037.412
  50  -608.0883
  51  -1082.535
  52  -1771.792
  53  -2234.823
  54  -2423.232
  55  -2043.092
  56  -1549.493
  57  -2090.124
  58  -2821.11
  59  -2923.335
  60  -2919.629
  61  -2252.943
  62  -2452.106
  63  -2006.464
  64  -1925.84
  65  -2073.465
  66  -2634.649
  67  -2811.409
  68  -2516.207
  69  -2205.584
  70  -1938.482
  71  -2351.574
  72  -2829.478
  73  -3382.666
  74  -3766.635
  75  -2999.833
  76  -2581.256
  77  -1725.128
  78  -1970.996
  79  -2406.926
  80  -2566.492
  81  -2026.454
  82  -1762.042
  83  -1682.22
  84  -1613.571
  85  -1699.032
  86  -1458.076
  87  -1063.044
  88  -1608.13
  89  -1921.044
  90  -2618.516
  91  -2879.151
  92  -2416.117
  93  -2160.391
  94  -1556.775
  95  -1444.996
  96  -1462.535
  97  -1765.873
  98  -2201.248
  99  -1708.955
 100  -1860.862
 101  -1249.456
 102  -1323.058
 103  -1004.646
 104  -1305.333
 105  -1930.896
 106  -1541.445
 107  -1298.306
 108  -1383.158
 109  -1777.058
 110  -977.0903
 111  -1688.948
 112  -1909.971
 113  -1050.453
 114  439.9074
 115  808.3688
 116  902.6274
 117  -45.47028
 118  -1379.263
 119  -1501.231
 120  -636.6298
 121  -402.2921
 122  376.0889
 123  667.4312
 124  -1269.252
 125  -1021.394
 126  -474.1043
 127  862.4351
 128  2048.921
 129  2152.814
 130  1638.552
 131  -1033.467
 132  -437.5386
 133  1378.818
 134  3479.945
 135  4269.61
 136  4405.849
 137  2812.197
 138  2403.659
 139  2132.594
 140  2271.351
 141  574.4251
 142  968.5766
 143  1193.42
 144  2995.469
 145  1773.553
 146  1329.825
 147  749.1776
 148  736.0729
 149  657.5182
 150  -612.4202
 151  -1094.158
 152  -989.1498
 153  -199.6753
 154  731.7987
 155  675.8368
 156  630.868
 157  -1672.194
 158  -814.0401
 159  264.8945
 160  2105.988
 161  3541.621
 162  3713.453
 163  2769.831
 164  1347.572
 165  720.2983
 166  529.116
 167  -269.8697
 168  -454.4231
 169  392.9435
 170  2059.786
 171  3280.85
 172  3256.434
 173  2460.006
 174  1791.424
 175  -41.56836
 176  -605.8897
 177  -286.3642
 178  524.4774
 179  449.7172
 180  -282.0892
 181  -1116.988
 182  -1624.577
 183  -1025.453
 184  -953.3796
 185  -690.1609
 186  -469.7482
 187  -338.0469
 188  -2263.721
 189  -1707.331
 190  -1083.949
 191  -351.0196
 192  18.85592
 193  -69.14406
 194  -764.378
 195  -1677.383
 196  -1372.378
 197  -577.0634
 198  232.2387
 199  -203.9272
 200  -750.6309
 201  -874.0474
 202  -189.7978
 203  -340.0749
 204  -839.2897
 205  -1431.065
 206  -1931.378
 207  -2521.954
 208  -2031.13
 209  -554.6968
 210  552.4461
 211  1347.172
 212  849.6824
 213  229.612
 214  -282.4012
 215  816.2278
 216  2034.97
 217  3022.307
 218  3637.833
 219  2396.744
 220  735.1855
 221  -17.08051
 222  630.8821
 223  866.1117
 224  1008.873
 225  1013.634
 226  1204.583
 227  -516.5158
 228  -1095.124
 229  -1682.491
 230  -814.8068
 231  -1145.144
 232  -450.9543
 233  -842.2116
 234  -1710.913
 235  -1762.015
 236  -2578.372
 237  -3062.647
 238  -3061.69
 239  -2374.981
 240  -1696.498
 241  -1267.684
 242  -535.4001
 243  -309.7171
 244  -514.2053
 245  -1072.678
 246  -1187.927
 247  -1055.271
 248  -670.8211
 249  75.86028
 250  753.4011
 251  68.02097
 252  109.6421
 253  4308.696
 254  5578.01
 255  7105.07
 256  8181.092
 257  5832.612
 258  2760.71
 259  2765.655
 260  9817.959
 261  14170.12
 262  19310.8
 263  17286.3
 264  11778.31
 265  4009.072
 266  2008.533
 267  3004.058
 268  4335.214
 269  4911.02
 270  5243.493
 271  4788.658
 272  4156.323
 273  3894.725
 274  3088.524
 275  2872.05
 276  1218.548
 277  2745.221
 278  4270.699
 279  6124.916
 280  5591.858
 281  4150.524
 282  2729.83
 283  905.1802
 284  3.059294
 285  -23.85761
 286  277.2826
 287  253.268
 288  -162.5527
 289  -1553.737
 290  -1629.981
 291  -1934.759
 292  -1782.618
 293  -1556.407
 294  -1528.731
 295  -1414.25
 296  -1586.665
 297  -654.6661
 298  -180.5379
 299  1637.277
 300  2484.269
 301  2013.443
 302  787.2317
 303  -490.1602
 304  -601.7289
 305  532.3506
 306  1583.837
 307  2514.619
 308  1234.852
 309  -171.4599
 310  -2262.241
 311  -2381.59
 312  -2048.172
 313  -2349.134
 314  -2824.105
 315  -2937.838
 316  -2211.321
 317  -1251.36
 318  -318.7469
 319  -656.0482
 320  -790.3163
 321  -1510.58
 322  -1315.097
 323  -327.4117
 324  629.4539
 325  495.769
 326  -135.0302
 327  -650.1643
 328  -1656.887
 329  -883.5573
 330  -1400.651
 331  -1905.29
 332  -2759.489
 333  -2444.633
 334  -2024.896
 335  -2317.871
 336  -2252.06
 337  -3314.566
 338  -2875.815
 339  -2747.93
 340  -2275.732
 341  -1829.918
 342  -1953.192
 343  -1507.55
 344  -1257.32
 345  -1202.437
 346  -1146.126
 347  -1538.872
 348  -831.155
 349  208.4512
 350  1975.279
 351  2397.712
 352  4351.307
 353  4506.927
 354  5178.667
 355  4518.715
 356  3298.011
 357  4060.393
 358  3945.357
 359  5932.406
 360  4328.265
 361  3345.725
 362  1529.64
 363  416.743
 364  -792.4729
 365  -1076.12
 366  -2029.44
 367  -1804.59
 368  -1277.529
 369  -1130.714
 370  -1141.114
 371  -1622.943
 372  -1082.087
 373  -1378.11
 374  -723.6296
 375  -196.3581
 376  971.4948
 377  866.8099
 378  65.9976
 379  -924.8583
 380  -1871.855
 381  -976.7538
 382  -625.3066
 383  -33.65656
 384  229.7286
 385  -484.6877
 386  -706.7388
 387  -1332.906
 388  -691.3432
 389  -297.3911
 390  646.0746
 391  1276.264
 392  -232.6111
 393  -213.916
 394  -731.0622
 395  -100.2917
 396  2672.268
 397  4664.791
 398  5399.222
 399  5864.396
 400  4278.849
 401  503.6398
 402  1100.198
 403  4032.872
 404  7607.625
 405  9085.971
 406  9621.22
 407  8023.843
 408  1658.277
 409  -237.3129
 410  -2046.521
 411  -1546.097
 412  -539.2758
 413  -13.40947
 414  -675.2315
 415  -1033.055
 416  -1708.474
 417  -2350.747
 418  -2200.263
 419  -795.0426
 420  -813.6313
 421  -623.8133
 422  -320.0377
 423  -608.7433
 424  -1366.879
 425  -2219.733
 426  -1003.378
 427  -391.9455
 428  -212.2268
 429  178.809
 430  -77.9127
 431  -1173.454
 432  -2106.002
 433  -1043.135
 434  -850.5941
 435  -1216.023
 436  -1492.092
 437  -671.0506
 438  -591.3109
 439  -620.2864
 440  135.5379
 441  -722.0351
 442  -1342.747
 443  -1494.058
 444  296.6616
 445  351.3398
 446  15.4708
 447  -769.7624
 448  -1534.615
 449  -1821.346
 450  -1414.148
 451  -532.1504
 452  -671.835
 453  -958.6487
 454  -230.7851
 455  -431.3973
 456  -180.0271
 457  44.24851
 458  678.4255
 459  1040.445
 460  1066.167
 461  1945.041
 462  1402.32
 463  1135.407
 464  1800.276
 465  1363.479
 466  579.8564
 467  143.1266
 468  2464.872
 469  3187.525
 470  3688.514
 471  3936.282
 472  1345.835
 473  -775.1418
 474  -1945.325
 475  660.8907
 476  1086.123
 477  1163.998
 478  932.7225
 479  -660.2236
 480  -1843.339
 481  -2390.486
 482  -2689.533
 483  -2068.048
 484  -2072.128
 485  -1577.968
 486  -1541.955
 487  -1537.768
 488  -1585.362
 489  -1807.082
 490  -1877.833
 491  -1549.333
 492  -589.1607
 493  -455.6984
 494  -487.2833
 495  -1601.111
 496  -1938.184
 497  -1787.443
 498  -1064.521
 499  -688.3124
 500  -687.3238
 501  -918.7938
 502  -2112.281
 503  -2158.908
 504  -2092.024
 505  -1150.49
 506  -694.487
 507  -574.1414
 508  -311.1304
 509  -340.238
 510  -67.19765
 511  586.8215
