# Input file       =  1202294239.113467_cleaned.dat
# Candidate        =  PSR_0332+5434
# Telescope        =  AR
# Epoch_topo       =  58159.442802239202
# Epoch_bary       =  N/A
# T_sample         =  0.002
# Data Folded      =  7143424
# Data Avg         =  0.144242390149717
# Data StdDev      =  4.6263453245231  
# Profile Bins     =  512
# Profile Avg      =  2012.46776881755 
# Profile StdDev   =  546.457361056973 
# Reduced chi-sqr  =  3.215
# Prob(Noise)      <  7.39e-119   (~23.1 sigma)
# P_topo (ms)      =  714.579036465884  +/- 1.37e-05
# P'_topo (s/s)    =  -0                +/- 7.41e-12
# P''_topo (s/s^2) =  0                 +/- 3.36e-15
# P_bary (ms)      =  N/A
# P'_bary (s/s)    =  N/A
# P''_bary (s/s^2) =  N/A
# P_orb (s)        =  N/A
# asin(i)/c (s)    =  N/A
# eccentricity     =  N/A
# w (rad)          =  N/A
# T_peri           =  N/A
######################################################
   0  1277.071
   1  1392.921
   2  2232.156
   3  2844.561
   4  2080.116
   5  1474.482
   6  1258.891
   7  1212.211
   8  858.5726
   9  1464.459
  10  2568.241
  11  3335.101
  12  2957.508
  13  2145.171
  14  1789.619
  15  2029.996
  16  1958.247
  17  1804.997
  18  1969.941
  19  2698.507
  20  2494.64
  21  1348.394
  22  1282.395
  23  1054.286
  24  1004.104
  25  1299.036
  26  2057.902
  27  2934.99
  28  3229.214
  29  2567.144
  30  1357.847
  31  1104.544
  32  1327.253
  33  1418.923
  34  1585.082
  35  2754.031
  36  3255.249
  37  2339.768
  38  1322.824
  39  1150.688
  40  886.6796
  41  944.04
  42  1426.904
  43  2428.971
  44  3308.686
  45  2829.319
  46  2341.063
  47  1679.154
  48  1528.021
  49  1447.356
  50  1381.7
  51  1980.186
  52  2478.733
  53  2317.824
  54  1805.09
  55  1119.396
  56  1064.442
  57  1296.13
  58  1489.106
  59  2138.04
  60  3094.582
  61  3357.599
  62  2551.534
  63  1754.953
  64  1559.768
  65  1898.607
  66  1779.426
  67  2110.606
  68  2571.038
  69  3158.108
  70  2512.8
  71  1458.567
  72  1298.176
  73  1422.366
  74  1418.556
  75  1586.487
  76  2393.232
  77  3297.722
  78  3251.71
  79  2106.558
  80  1594.794
  81  1700.394
  82  1733.871
  83  1638.166
  84  1632.369
  85  2483.361
  86  2818.878
  87  2146.948
  88  1391.023
  89  1242.887
  90  1482.164
  91  1658.569
  92  2105.014
  93  3237.208
  94  3203.859
  95  2474.656
  96  1706.756
  97  1235.365
  98  1696.679
  99  1692.358
 100  1785.396
 101  2608.946
 102  2907.774
 103  2128.326
 104  1087.192
 105  819.2029
 106  812.0374
 107  1405.046
 108  1712.624
 109  2580.196
 110  3125.72
 111  3505.621
 112  2515.431
 113  1720.309
 114  1702.703
 115  1674.941
 116  1253.831
 117  1715.53
 118  2619.582
 119  3493.928
 120  2602.147
 121  1763.758
 122  1862.456
 123  1411.145
 124  1523.276
 125  2333.682
 126  3317.406
 127  3561.086
 128  2924.119
 129  1931.783
 130  1726.675
 131  1641.722
 132  1336.466
 133  1435.902
 134  2209.35
 135  2802
 136  2513.697
 137  1557.929
 138  1220.55
 139  1397.169
 140  1124.364
 141  1589.877
 142  2418.145
 143  3530.355
 144  3626.147
 145  2713.468
 146  1808.605
 147  1621.752
 148  1428.082
 149  1423.684
 150  1784.622
 151  2798.715
 152  3083.511
 153  2328.701
 154  1667.592
 155  1397.622
 156  1342.221
 157  1557.011
 158  2234.441
 159  3219.58
 160  3458.075
 161  2647.845
 162  2086.055
 163  1633.4
 164  1990.053
 165  1924.72
 166  1636.757
 167  1953.926
 168  2355.927
 169  1928.814
 170  1303.594
 171  1155.245
 172  1234.451
 173  1194.144
 174  1769.09
 175  2675.987
 176  3423.743
 177  3347.795
 178  2474.859
 179  1653.325
 180  1259.848
 181  1708.284
 182  1843.959
 183  2085.67
 184  2962.33
 185  3018.936
 186  2248.121
 187  1038.447
 188  894.7112
 189  1061.063
 190  1483.432
 191  2139.449
 192  2914.921
 193  3134.356
 194  2881.626
 195  2121.817
 196  1756.221
 197  1598.359
 198  1155.131
 199  1429.608
 200  2137.894
 201  3164.201
 202  2785.98
 203  1642.381
 204  1476.623
 205  1499.118
 206  1347.811
 207  1410.083
 208  2321.648
 209  3557.784
 210  3416.515
 211  2575.701
 212  1644.508
 213  1521.67
 214  1295.526
 215  1248.45
 216  1966.624
 217  2882.924
 218  2929.476
 219  1855.878
 220  1492.18
 221  974.6634
 222  1226.124
 223  1225.661
 224  1785.836
 225  2653.665
 226  3342.797
 227  2952.082
 228  2153.187
 229  1870.779
 230  1979.171
 231  1280.191
 232  1425.153
 233  1993.878
 234  2570.191
 235  2184.659
 236  1856.496
 237  1354.34
 238  1437.749
 239  1090.903
 240  1267.928
 241  2291.798
 242  3187.311
 243  3272.804
 244  2141.786
 245  1469.199
 246  1438.447
 247  2019.91
 248  1777.022
 249  1738.313
 250  2500.702
 251  2713.552
 252  1720.751
 253  1183.787
 254  1187.761
 255  1424.137
 256  1541.833
 257  2145.288
 258  3213.046
 259  3268.51
 260  2750.948
 261  2144.524
 262  1762.207
 263  2029.947
 264  1495.694
 265  1268.566
 266  1830.327
 267  2134.229
 268  2075.309
 269  1876.797
 270  1533.397
 271  1256.849
 272  1342.215
 273  1993.576
 274  2488.383
 275  3285.113
 276  3133.298
 277  2631.929
 278  1680.93
 279  1211.097
 280  1513.813
 281  1291.395
 282  1613.003
 283  2418.455
 284  2605.489
 285  2026.65
 286  1211.462
 287  1087.127
 288  774.8256
 289  1208.078
 290  1865.326
 291  2861.259
 292  3687.858
 293  3381.675
 294  2411.49
 295  1612.66
 296  1035.287
 297  856.5042
 298  905.9762
 299  1901.806
 300  3008.165
 301  3002.833
 302  1840.227
 303  1372.625
 304  1293.034
 305  1247.267
 306  1464.12
 307  2234.576
 308  2999.152
 309  3207.905
 310  2480.967
 311  1249.436
 312  1797.487
 313  2015.05
 314  1641.788
 315  1813.239
 316  2292.531
 317  2527.315
 318  1991.902
 319  1516.09
 320  1267.912
 321  1051.585
 322  1247.445
 323  1700.169
 324  2834.023
 325  3507.109
 326  2960.157
 327  2011.622
 328  1486.871
 329  1637.667
 330  1299.653
 331  1069.05
 332  1712.257
 333  2633.128
 334  2677.045
 335  1812.021
 336  1322.934
 337  1158.328
 338  987.3954
 339  1435.62
 340  1941.682
 341  2719.403
 342  3235.492
 343  2080.534
 344  1519.883
 345  1498.232
 346  1641.559
 347  1587.241
 348  1678.641
 349  2535.484
 350  2868.546
 351  2196.071
 352  1416.701
 353  1215.579
 354  1322.185
 355  1355.446
 356  1879.367
 357  2523.498
 358  3149.811
 359  3190.212
 360  2298.854
 361  1558.913
 362  1134.511
 363  1155.757
 364  1569.85
 365  2020.999
 366  2644.291
 367  2575.161
 368  1703.793
 369  1124.429
 370  908.0178
 371  790.6227
 372  1237.082
 373  2191.287
 374  3002.919
 375  3086.711
 376  2403.048
 377  1629.465
 378  1519.639
 379  1582.693
 380  1383.483
 381  1881.711
 382  2419.593
 383  2571.468
 384  1987.633
 385  1567.811
 386  1391.501
 387  1029.651
 388  1431.178
 389  1844.523
 390  2969.885
 391  3621.365
 392  3139.498
 393  2079.898
 394  1434.602
 395  1272.871
 396  1701.075
 397  1458.82
 398  1648.914
 399  2134.966
 400  2154.098
 401  1797.637
 402  1233.771
 403  1439.153
 404  1255.706
 405  1497.271
 406  2207.151
 407  2914.054
 408  3247.688
 409  2625.466
 410  2297.795
 411  1907.133
 412  1778.463
 413  1381.351
 414  1429.211
 415  2293.719
 416  2664.043
 417  2198.538
 418  1466.352
 419  1422.541
 420  1675.866
 421  1622.431
 422  1955.054
 423  2578.028
 424  3438.698
 425  3305.591
 426  2285.916
 427  1902.877
 428  1840.212
 429  1835.628
 430  1633.443
 431  2243.09
 432  2685.678
 433  2538.463
 434  1579.508
 435  1061.893
 436  1167.402
 437  1232.653
 438  1652.194
 439  2428.248
 440  3161.111
 441  3475.203
 442  2666.615
 443  1868.483
 444  1652.891
 445  1660.957
 446  1484.258
 447  1455.45
 448  2513.975
 449  3223.056
 450  2431.303
 451  1641.368
 452  1067.61
 453  925.7704
 454  1341.189
 455  1730.751
 456  2690.74
 457  3249.198
 458  2838.022
 459  1998.77
 460  1283.545
 461  1670.634
 462  1708.645
 463  1677.686
 464  2050.726
 465  2715.287
 466  2672.798
 467  1719.092
 468  1094.618
 469  910.0172
 470  927.9035
 471  1713.99
 472  2293.177
 473  3197.144
 474  3469.826
 475  2858.776
 476  2187.576
 477  1845.233
 478  1775.305
 479  1366.227
 480  1698.069
 481  2653.348
 482  3145.255
 483  2409.504
 484  1801.108
 485  1377.925
 486  1073.318
 487  1358.312
 488  1548.788
 489  2192.393
 490  3206.745
 491  3178.686
 492  2994.158
 493  2403.818
 494  2893.654
 495  3171.209
 496  2968.227
 497  3366.922
 498  3887.665
 499  3211.679
 500  2325.431
 501  1627.163
 502  1434.353
 503  1567.212
 504  1761.512
 505  2597.355
 506  3149.926
 507  3564.829
 508  2889.174
 509  1830.928
 510  1635.307
 511  1550.086
