# Input file       =  1202237599.111301_cleaned.dat
# Candidate        =  PSR_0332+5434
# Telescope        =  AR
# Epoch_topo       =  58158.787246658576
# Epoch_bary       =  N/A
# T_sample         =  0.002
# Data Folded      =  7340032
# Data Avg         =  0.01188601073751 
# Data StdDev      =  0.999995856906797
# Profile Bins     =  512
# Profile Avg      =  170.434960372685 
# Profile StdDev   =  119.732540311637 
# Reduced chi-sqr  =  1.277
# Prob(Noise)      <  2.17e-05   (~4.1 sigma)
# P_topo (ms)      =  714.579217992158  +/- 0.000232
# P'_topo (s/s)    =  -0                +/- 1.22e-10
# P''_topo (s/s^2) =  0                 +/- 5.4e-14
# P_bary (ms)      =  N/A
# P'_bary (s/s)    =  N/A
# P''_bary (s/s^2) =  N/A
# P_orb (s)        =  N/A
# asin(i)/c (s)    =  N/A
# eccentricity     =  N/A
# w (rad)          =  N/A
# T_peri           =  N/A
######################################################
   0  747.5571
   1  604.6856
   2  516.7516
   3  286.2867
   4  240.0597
   5  324.3567
   6  278.0027
   7  306.5359
   8  288.5586
   9  203.027
  10  118.276
  11  107.7936
  12  278.1746
  13  281.1071
  14  128.8341
  15  131.4873
  16  207.2932
  17  164.1058
  18  259.8821
  19  236.1966
  20  144.1969
  21  81.9408
  22  73.91061
  23  65.91157
  24  124.7509
  25  127.6452
  26  53.45102
  27  143.9622
  28  256.5914
  29  279.8333
  30  29.52538
  31  62.32652
  32  114.9467
  33  313.0114
  34  235.1261
  35  39.93378
  36  101.7574
  37  153.5446
  38  118.3584
  39  83.41737
  40  126.5771
  41  119.4571
  42  144.3806
  43  217.1744
  44  229.2501
  45  175.1941
  46  124.106
  47  109.4784
  48  165.089
  49  227.5683
  50  195.3607
  51  280.6495
  52  304.111
  53  249.3922
  54  293.4854
  55  331.6534
  56  249.3727
  57  212.8222
  58  218.1161
  59  262.7236
  60  164.3835
  61  53.71924
  62  113.6916
  63  116.6999
  64  135.5103
  65  116.6107
  66  58.93515
  67  98.10223
  68  36.21437
  69  201.0714
  70  270.3242
  71  228.0844
  72  179.9632
  73  178.3503
  74  262.3732
  75  246.2405
  76  253.6456
  77  245.3677
  78  230.6897
  79  205.1881
  80  177.3969
  81  86.06569
  82  171.1929
  83  123.8894
  84  154.5944
  85  271.1327
  86  123.386
  87  123.0227
  88  157.6083
  89  162.4673
  90  255.3792
  91  95.46755
  92  152.4637
  93  144.8911
  94  117.3746
  95  123.3664
  96  162.8882
  97  89.66206
  98  123.9083
  99  93.96169
 100  36.7448
 101  210.1858
 102  133.136
 103  169.5003
 104  237.646
 105  200.681
 106  256.9689
 107  303.6865
 108  175.6593
 109  108.5855
 110  97.5042
 111  275.732
 112  197.5659
 113  207.6108
 114  166.0218
 115  296.6447
 116  336.2888
 117  281.1364
 118  278.3715
 119  254.0018
 120  202.2188
 121  164.7291
 122  205.8059
 123  160.1599
 124  259.8517
 125  98.65209
 126  250.605
 127  311.7061
 128  355.9337
 129  159.7085
 130  98.9273
 131  306.2011
 132  220.4753
 133  207.1333
 134  205.9938
 135  263.6973
 136  154.3135
 137  175.6323
 138  187.3667
 139  159.3847
 140  109.9507
 141  124.8463
 142  240.465
 143  227.0918
 144  230.4495
 145  380.8453
 146  367.2923
 147  262.2534
 148  121.5925
 149  189.6688
 150  274.7593
 151  313.9704
 152  219.7196
 153  149.8299
 154  150.9808
 155  193.9169
 156  109.5768
 157  162.6946
 158  156.6741
 159  132.5397
 160  188.9398
 161  124.2811
 162  219.0737
 163  253.6431
 164  273.077
 165  281.9082
 166  258.2933
 167  124.0459
 168  60.31419
 169  189.0524
 170  148.9459
 171  65.65458
 172  90.5346
 173  99.53275
 174  77.80455
 175  186.3899
 176  219.5953
 177  128.502
 178  108.1611
 179  62.55803
 180  165.2985
 181  193.3448
 182  154.0713
 183  223.8262
 184  226.3432
 185  254.7317
 186  82.4538
 187  97.62863
 188  146.118
 189  107.0521
 190  149.6077
 191  148.4106
 192  251.2003
 193  310.4383
 194  226.8151
 195  239.2803
 196  251.6513
 197  191.9755
 198  78.84872
 199  37.24121
 200  85.63652
 201  96.74329
 202  112.3458
 203  262.6078
 204  173.0134
 205  76.20651
 206  78.60348
 207  100.5916
 208  87.42049
 209  100.2669
 210  225.0321
 211  284.5363
 212  202.9743
 213  214.2237
 214  172.4142
 215  206.1259
 216  161.4714
 217  98.66926
 218  138.1149
 219  204.7724
 220  257.8344
 221  157.7439
 222  245.7744
 223  143.4801
 224  138.1795
 225  96.55834
 226  157.8012
 227  252.4725
 228  130.1725
 229  143.8236
 230  130.1458
 231  103.4387
 232  192.4457
 233  155.8644
 234  154.8017
 235  151.8428
 236  101.9253
 237  122.7102
 238  140.1646
 239  233.3473
 240  101.8426
 241  131.7276
 242  202.5931
 243  150.6655
 244  76.03831
 245  154.2568
 246  185.5947
 247  110.8389
 248  137.1598
 249  145.4164
 250  179.7616
 251  117.4615
 252  131.417
 253  84.20161
 254  138.8523
 255  127.5167
 256  146.6521
 257  136.8055
 258  172.4374
 259  153.7799
 260  270.2803
 261  246.6668
 262  184.2792
 263  199.8546
 264  202.7407
 265  266.711
 266  201.6659
 267  193.217
 268  42.27646
 269  96.01822
 270  205.3352
 271  212.5905
 272  212.7456
 273  190.5329
 274  185.8982
 275  229.0104
 276  145.0878
 277  155.0899
 278  70.34174
 279  53.7923
 280  104.49
 281  36.45219
 282  123.3726
 283  81.89283
 284  146.5931
 285  101.5895
 286  60.72868
 287  81.80975
 288  162.3768
 289  -9.380198
 290  111.7496
 291  95.39016
 292  89.54048
 293  183.8199
 294  166.9441
 295  140.6199
 296  131.511
 297  146.0683
 298  236.6356
 299  144.0572
 300  115.9242
 301  182.2203
 302  295.3159
 303  163.7641
 304  78.27715
 305  190.1006
 306  149.1765
 307  31.161
 308  106.1796
 309  50.25063
 310  165.2587
 311  257.9649
 312  91.34086
 313  24.41608
 314  150.0648
 315  164.5787
 316  187.1333
 317  170.3029
 318  144.1206
 319  187.257
 320  161.1004
 321  107.2237
 322  33.9976
 323  14.66153
 324  63.98111
 325  51.51046
 326  36.03736
 327  43.75603
 328  103.2309
 329  118.9573
 330  101.7972
 331  49.19742
 332  198.0177
 333  303.8523
 334  270.3463
 335  93.96463
 336  262.6154
 337  135.3748
 338  49.19299
 339  154.9539
 340  184.2578
 341  229.4212
 342  210.2564
 343  256.8064
 344  151.8594
 345  244.6406
 346  327.1443
 347  197.1457
 348  126.5449
 349  195.3809
 350  31.83922
 351  21.88641
 352  106.9936
 353  99.43732
 354  72.53036
 355  85.34538
 356  176.5082
 357  87.13539
 358  39.69612
 359  60.53617
 360  12.89165
 361  5.745606
 362  47.01657
 363  195.187
 364  270.7616
 365  132.9222
 366  48.75855
 367  78.15078
 368  174.3553
 369  190.6868
 370  222.5444
 371  205.3988
 372  141.5018
 373  163.0196
 374  169.9887
 375  166.4079
 376  44.34368
 377  50.3249
 378  13.35597
 379  37.15068
 380  119.1281
 381  202.1404
 382  221.6601
 383  167.9535
 384  -8.366352
 385  -20.9127
 386  60.87919
 387  49.21056
 388  42.79373
 389  -23.54126
 390  17.22296
 391  -24.44739
 392  -6.980995
 393  82.93185
 394  204.6307
 395  106.4894
 396  99.36695
 397  175.3731
 398  144.5935
 399  45.07788
 400  177.6526
 401  216.8506
 402  172.3315
 403  119.1369
 404  51.46533
 405  49.38665
 406  196.47
 407  268.3048
 408  332.5874
 409  258.5709
 410  276.691
 411  235.278
 412  228.0483
 413  19.6978
 414  105.3586
 415  33.35753
 416  81.57703
 417  94.51739
 418  199.5852
 419  81.94694
 420  145.3199
 421  147.571
 422  210.9425
 423  206.7997
 424  149.7151
 425  152.4716
 426  159.3721
 427  123.2832
 428  240.635
 429  192.0697
 430  132.1139
 431  166.3743
 432  300.3562
 433  253.4644
 434  219.7712
 435  180.436
 436  66.27895
 437  12.10594
 438  98.40095
 439  217.5273
 440  334.7057
 441  246.1941
 442  126.3416
 443  99.87457
 444  109.9333
 445  114.4286
 446  91.08778
 447  107.1571
 448  120.9756
 449  166.6493
 450  305.0783
 451  272.5176
 452  117.6884
 453  244.0433
 454  101.4952
 455  -10.95254
 456  79.13457
 457  189.3573
 458  252.9445
 459  116.7571
 460  168.2029
 461  245.0368
 462  227.0421
 463  200.2468
 464  218.9992
 465  283.3795
 466  143.5852
 467  87.09062
 468  248.4214
 469  306.9425
 470  218.4279
 471  174.1061
 472  297.2412
 473  247.2899
 474  24.74723
 475  147.2837
 476  118.8927
 477  201.7403
 478  183.4236
 479  131.8408
 480  143.5779
 481  63.30708
 482  33.71595
 483  108.3609
 484  115.2321
 485  110.4561
 486  213.8032
 487  92.75262
 488  40.2569
 489  90.10329
 490  233.8367
 491  331.8484
 492  291.1862
 493  242.9519
 494  260.5431
 495  244.7754
 496  254.7723
 497  296.3589
 498  255.636
 499  254.7272
 500  266.2997
 501  290.9573
 502  330.2393
 503  132.5465
 504  170.355
 505  198.0616
 506  303.5107
 507  447.9153
 508  460.3418
 509  537.7252
 510  776.7621
 511  826.947
