# Input file       =  1202552800.128057_cleaned.dat
# Candidate        =  PSR_0332+5434
# Telescope        =  AR
# Epoch_topo       =  58162.435406574732
# Epoch_bary       =  N/A
# T_sample         =  0.002
# Data Folded      =  7208960
# Data Avg         =  0.033830306084234
# Data StdDev      =  5.36406732101598 
# Profile Bins     =  1024
# Profile Avg      =  238.954387610153 
# Profile StdDev   =  450.070501476953 
# Reduced chi-sqr  =  0.834
# Prob(Noise)      <  1   (~0.0 sigma)
# P_topo (ms)      =  714.579707741535  +/- 3.59e-05
# P'_topo (s/s)    =  -0                +/- 1.93e-11
# P''_topo (s/s^2) =  0                 +/- 8.66e-15
# P_bary (ms)      =  N/A
# P'_bary (s/s)    =  N/A
# P''_bary (s/s^2) =  N/A
# P_orb (s)        =  N/A
# asin(i)/c (s)    =  N/A
# eccentricity     =  N/A
# w (rad)          =  N/A
# T_peri           =  N/A
######################################################
   0  345.6857
   1  366.1921
   2  196.2481
   3  168.8752
   4  169.1936
   5  353.5493
   6  409.1164
   7  446.3775
   8  229.4307
   9  30.10134
  10  -44.091
  11  20.57345
  12  -33.60783
  13  41.16532
  14  195.2101
  15  398.2745
  16  128.7826
  17  182.6797
  18  359.4576
  19  589.9391
  20  362.5367
  21  236.2687
  22  62.90602
  23  84.84188
  24  -100.3262
  25  -157.3301
  26  -278.7438
  27  -82.31612
  28  138.6156
  29  339.5923
  30  266.3554
  31  195.1398
  32  323.2899
  33  595.6548
  34  606.2015
  35  607.2957
  36  597.8295
  37  554.5682
  38  526.5896
  39  493.2257
  40  436.1694
  41  146.7242
  42  40.24902
  43  86.73221
  44  146.5964
  45  116.7459
  46  109.0676
  47  186.9305
  48  239.4989
  49  100.6563
  50  176.9527
  51  261.7481
  52  367.3617
  53  565.4501
  54  652.1108
  55  536.1104
  56  261.5269
  57  92.22157
  58  72.16704
  59  -101.0406
  60  -78.98637
  61  -32.86671
  62  -52.93343
  63  5.728818
  64  121.1334
  65  297.0643
  66  313.1098
  67  416.171
  68  622.1635
  69  634.9254
  70  563.2563
  71  492.5213
  72  449.7947
  73  478.2945
  74  411.4297
  75  322.805
  76  199.6958
  77  110.5843
  78  137.9931
  79  141.4979
  80  -5.138976
  81  -169.0871
  82  -84.55261
  83  141.4104
  84  276.0523
  85  298.3156
  86  496.4941
  87  543.3926
  88  617.4263
  89  497.5612
  90  356.2428
  91  194.7907
  92  44.83092
  93  42.42739
  94  40.05058
  95  143.7738
  96  326.8183
  97  299.2029
  98  270.3013
  99  80.7963
 100  213.1162
 101  287.5557
 102  463.1353
 103  569.7529
 104  585.9829
 105  291.4543
 106  165.2977
 107  183.2219
 108  145.4533
 109  73.46235
 110  -8.385494
 111  137.925
 112  157.5518
 113  213.6683
 114  131.6155
 115  97.70831
 116  50.38097
 117  184.1237
 118  383.4613
 119  458.3438
 120  425.2167
 121  318.3119
 122  423.64
 123  389.1262
 124  264.8184
 125  106.7019
 126  101.1838
 127  244.3508
 128  296.3145
 129  334.3941
 130  279.787
 131  373.2585
 132  518.7977
 133  614.1934
 134  712.2054
 135  719.9667
 136  634.2338
 137  425.1226
 138  446.9296
 139  338.5958
 140  75.02743
 141  -268.7192
 142  -206.9326
 143  -78.40302
 144  0.01567189
 145  -21.42461
 146  -36.9738
 147  15.34544
 148  22.1599
 149  90.32257
 150  370.3848
 151  450.8617
 152  532.61
 153  363.9743
 154  144.0462
 155  33.18668
 156  40.70784
 157  57.75616
 158  -71.62664
 159  -70.58118
 160  184.4054
 161  261.1193
 162  303.2715
 163  215.3524
 164  1.844576
 165  -64.77363
 166  116.3731
 167  244.0337
 168  217.3402
 169  208.509
 170  304.1218
 171  242.7647
 172  59.28219
 173  -83.2235
 174  -219.6574
 175  -230.2443
 176  -202.8569
 177  29.40799
 178  -45.13071
 179  -10.58193
 180  34.77733
 181  217.0526
 182  203.5231
 183  350.0897
 184  257.532
 185  250.0651
 186  188.2719
 187  182.3424
 188  4.598239
 189  -191.5516
 190  -165.491
 191  -158.8028
 192  -188.215
 193  -62.45495
 194  63.19604
 195  177.7426
 196  204.6705
 197  269.8571
 198  379.5768
 199  265.0088
 200  239.777
 201  284.3401
 202  289.779
 203  436.101
 204  259.2426
 205  137.0836
 206  -159.118
 207  -125.4239
 208  -85.97797
 209  -135.8823
 210  -159.8097
 211  -64.96815
 212  51.98865
 213  85.52166
 214  -122.1912
 215  -87.38596
 216  63.26048
 217  408.3824
 218  424.0212
 219  349.6899
 220  219.0479
 221  189.9302
 222  -45.81376
 223  -68.5675
 224  -83.92199
 225  62.64998
 226  -47.90549
 227  7.788602
 228  23.10593
 229  123.3062
 230  194.8365
 231  404.0212
 232  493.1486
 233  612.3928
 234  636.7988
 235  636.4861
 236  573.9877
 237  479.7714
 238  441.7738
 239  152.1816
 240  -20.14849
 241  -127.8303
 242  -234.4769
 243  -336.7975
 244  -293.7257
 245  -194.9392
 246  -107.436
 247  -4.05473
 248  216.7386
 249  194.2577
 250  94.83117
 251  187.3069
 252  211.1341
 253  242.3369
 254  190.1088
 255  21.23206
 256  -94.90424
 257  -95.20515
 258  18.86376
 259  -47.50844
 260  -159.7639
 261  -116.7744
 262  133.3808
 263  205.6057
 264  207.0835
 265  250.971
 266  417.2234
 267  541.1722
 268  466.6229
 269  344.8958
 270  265.8954
 271  328.6699
 272  344.7277
 273  7.080474
 274  -119.5067
 275  -146.3457
 276  -22.83255
 277  -2.412239
 278  58.49389
 279  49.32676
 280  4.392967
 281  29.10122
 282  154.8287
 283  350.4681
 284  367.7307
 285  393.6689
 286  389.6729
 287  367.3174
 288  98.92091
 289  -4.626213
 290  7.711666
 291  41.41583
 292  -1.573304
 293  -68.97203
 294  -85.17892
 295  -128.1542
 296  93.34096
 297  182.6737
 298  214.5849
 299  215.2473
 300  386.0092
 301  396.1705
 302  385.86
 303  355.1093
 304  509.451
 305  551.3121
 306  431.2267
 307  190.705
 308  44.11627
 309  83.35035
 310  241.7759
 311  161.5976
 312  74.85532
 313  -39.49939
 314  -50.12272
 315  -26.06949
 316  37.26806
 317  209.9044
 318  309.3629
 319  201.5009
 320  99.62584
 321  17.05135
 322  -38.62183
 323  -57.62698
 324  -59.94822
 325  65.08626
 326  80.17176
 327  237.4343
 328  304.6969
 329  299.6561
 330  284.3682
 331  347.6657
 332  350.1096
 333  341.6975
 334  326.0448
 335  299.7659
 336  187.4005
 337  -32.07894
 338  -123.848
 339  -346.4576
 340  -235.0612
 341  -123.1863
 342  120.0306
 343  209.7471
 344  213.3329
 345  135.4824
 346  148.3189
 347  203.1237
 348  440.9124
 349  418.6636
 350  411.1366
 351  234.9905
 352  -49.90448
 353  -248.1566
 354  -196.7903
 355  -53.20237
 356  -30.8056
 357  -57.96626
 358  44.42977
 359  65.40629
 360  139.93
 361  206.1701
 362  229.495
 363  237.1497
 364  297.9052
 365  437.9312
 366  509.4401
 367  263.6823
 368  261.2649
 369  228.4424
 370  152.0489
 371  41.13071
 372  -17.08735
 373  18.50389
 374  -86.67784
 375  -6.890182
 376  -40.57909
 377  -3.85854
 378  107.2522
 379  300.581
 380  342.3195
 381  361.8056
 382  369.0093
 383  629.6672
 384  671.3019
 385  641.8312
 386  441.8459
 387  272.1551
 388  170.4302
 389  25.54508
 390  -135.0868
 391  -204.2879
 392  -49.40952
 393  133.5027
 394  334.1608
 395  415.2471
 396  564.5089
 397  660.274
 398  666.5919
 399  737.6931
 400  621.6278
 401  635.2363
 402  401.4074
 403  336.955
 404  258.4093
 405  115.8518
 406  -70.84668
 407  -58.06784
 408  16.70681
 409  27.33089
 410  -6.36628
 411  -24.27246
 412  -36.12472
 413  127.1651
 414  232.1711
 415  294.0549
 416  346.6182
 417  500.4546
 418  559.1766
 419  489.4858
 420  396.9096
 421  293.7217
 422  167.9607
 423  100.2868
 424  66.45679
 425  121.0722
 426  58.03402
 427  61.16658
 428  -52.88597
 429  152.6265
 430  254.1579
 431  391.956
 432  365.4039
 433  511.3747
 434  622.5372
 435  572.1807
 436  388.6557
 437  188.6478
 438  53.54934
 439  53.29935
 440  -1.828797
 441  -51.6542
 442  -82.95209
 443  -139.1293
 444  -69.19878
 445  -150.753
 446  -139.2995
 447  -91.03568
 448  31.75006
 449  247.6782
 450  391.7188
 451  446.426
 452  267.9123
 453  256.7346
 454  168.2083
 455  157.7489
 456  6.256363
 457  198.2748
 458  215.3493
 459  65.43221
 460  41.35836
 461  146.6211
 462  287.8004
 463  309.4771
 464  439.3102
 465  518.324
 466  450.6384
 467  339.0577
 468  367.4096
 469  262.6939
 470  198.492
 471  64.38136
 472  155.8242
 473  98.43372
 474  64.81374
 475  190.0339
 476  196.7041
 477  151.8011
 478  114.1193
 479  83.32673
 480  142.394
 481  154.8804
 482  344.0944
 483  315.3891
 484  144.9822
 485  81.9309
 486  -8.266057
 487  21.43052
 488  -14.9655
 489  48.02847
 490  114.1484
 491  229.829
 492  190.1134
 493  216.0958
 494  262.3152
 495  352.1165
 496  434.8067
 497  295.755
 498  569.1998
 499  712.2386
 500  716.0632
 501  358.3687
 502  176.5147
 503  22.47622
 504  -13.32203
 505  25.32654
 506  136.312
 507  81.2468
 508  152.6811
 509  105.3089
 510  225.9856
 511  59.00203
 512  78.25211
 513  229.4635
 514  319.2215
 515  234.1272
 516  176.3911
 517  234.3306
 518  201.3474
 519  -46.58519
 520  -187.008
 521  -248.4928
 522  -219.577
 523  -52.36035
 524  55.40191
 525  102.0222
 526  229.1143
 527  192.7107
 528  321.9818
 529  288.789
 530  310.4179
 531  395.4756
 532  248.9472
 533  280.091
 534  242.5693
 535  276.8085
 536  234.8585
 537  89.46173
 538  164.6825
 539  107.5862
 540  225.5965
 541  351.0206
 542  465.0531
 543  475.0462
 544  422.0391
 545  331.8076
 546  324.3837
 547  348.0749
 548  469.9323
 549  558.8965
 550  474.8286
 551  413.0217
 552  239.5191
 553  109.7043
 554  137.4223
 555  216.6945
 556  214.1089
 557  185.1863
 558  201.8679
 559  295.75
 560  265.5164
 561  363.8892
 562  522.2324
 563  819.2313
 564  850.705
 565  714.4427
 566  601.4017
 567  478.2921
 568  404.3152
 569  270.3419
 570  82.47842
 571  110.9791
 572  257.9299
 573  480.6241
 574  489.4002
 575  377.8888
 576  276.6801
 577  268.835
 578  435.2204
 579  570.035
 580  611.7008
 581  626.4093
 582  593.7476
 583  525.1005
 584  320.8206
 585  238.5673
 586  188.1369
 587  264.9344
 588  332.4653
 589  284.1573
 590  377.3467
 591  416.0666
 592  381.9433
 593  408.1994
 594  399.0289
 595  520.6389
 596  562.3221
 597  701.7438
 598  843.5345
 599  814.8269
 600  743.7705
 601  550.1722
 602  565.3726
 603  436.8347
 604  415.8684
 605  357.5106
 606  301.7854
 607  319.3862
 608  465.7678
 609  731.7814
 610  866.8361
 611  933.133
 612  1058.337
 613  1213.149
 614  1205.406
 615  1153.306
 616  1088.694
 617  1045.623
 618  885.9679
 619  606.1861
 620  358.5339
 621  341.0308
 622  482.4638
 623  602.5618
 624  399.8315
 625  197.4487
 626  149.5204
 627  380.249
 628  553.3406
 629  673.0264
 630  570.3571
 631  583.7456
 632  596.4003
 633  635.3924
 634  450.9764
 635  418.5324
 636  380.9183
 637  325.9618
 638  116.9008
 639  -30.01743
 640  7.133793
 641  120.3528
 642  124.9705
 643  128.0513
 644  54.90372
 645  13.16986
 646  223.0818
 647  446.033
 648  393.3589
 649  217.5243
 650  222.8613
 651  284.9779
 652  152.7838
 653  84.05504
 654  106.3431
 655  156.0016
 656  260.728
 657  251.5909
 658  324.517
 659  222.4411
 660  336.5627
 661  323.9069
 662  338.5261
 663  400.4081
 664  459.8666
 665  478.0125
 666  401.3247
 667  315.7906
 668  271.9173
 669  230.1304
 670  178.9093
 671  121.0846
 672  171.5157
 673  239.1276
 674  310.4113
 675  193.576
 676  155.094
 677  59.89879
 678  95.74377
 679  25.52558
 680  55.69806
 681  113.5029
 682  154.8999
 683  117.8254
 684  88.13068
 685  97.36391
 686  13.56448
 687  56.96311
 688  160.1053
 689  254.8723
 690  256.7964
 691  301.9097
 692  454.7718
 693  504.6491
 694  454.4288
 695  422.5801
 696  580.1033
 697  553.7437
 698  512.0185
 699  247.7311
 700  197.456
 701  111.5801
 702  156.5636
 703  106.1101
 704  87.73463
 705  72.34724
 706  111.192
 707  19.95345
 708  142.7867
 709  134.3714
 710  153.6073
 711  236.4787
 712  390.7469
 713  367.8863
 714  316.9731
 715  297.8932
 716  430.657
 717  109.5496
 718  7.927742
 719  -147.5047
 720  -93.39867
 721  -106.3489
 722  7.681309
 723  281.9589
 724  268.1426
 725  269.1985
 726  308.2831
 727  516.7361
 728  596.7272
 729  615.8256
 730  721.7059
 731  736.5718
 732  442.0992
 733  212.2763
 734  130.1406
 735  202.398
 736  230.8931
 737  142.4189
 738  73.07615
 739  145.7834
 740  283.8338
 741  279.8647
 742  39.5315
 743  -17.16982
 744  197.5844
 745  360.1104
 746  557.7298
 747  564.8669
 748  471.3141
 749  221.9037
 750  107.5341
 751  127.9123
 752  63.11123
 753  -36.11457
 754  -62.93556
 755  39.37997
 756  186.519
 757  276.7372
 758  238.4229
 759  288.7997
 760  427.8667
 761  633.5457
 762  599.022
 763  429.8774
 764  414.2264
 765  386.5854
 766  364.5535
 767  139.9505
 768  -0.4784433
 769  -84.51974
 770  -52.29128
 771  24.75186
 772  57.85698
 773  75.04578
 774  56.80503
 775  125.0153
 776  294.8007
 777  398.6318
 778  452.0205
 779  342.7802
 780  345.5115
 781  397.5435
 782  275.3093
 783  145.3781
 784  65.3356
 785  20.7931
 786  -97.02854
 787  -29.3639
 788  242.5321
 789  471.1857
 790  495.9232
 791  544.5933
 792  487.8102
 793  439.8969
 794  565.0382
 795  644.9025
 796  638.8408
 797  483.6613
 798  424.4957
 799  450.9495
 800  321.1035
 801  158.0887
 802  -21.53294
 803  101.7274
 804  187.9228
 805  460.4098
 806  358.8509
 807  43.72021
 808  -64.85496
 809  62.48507
 810  219.2104
 811  208.0377
 812  233.226
 813  343.2355
 814  412.1255
 815  438.0646
 816  286.5812
 817  197.728
 818  201.4022
 819  335.6699
 820  267.0933
 821  297.3331
 822  250.7363
 823  320.4214
 824  126.7833
 825  294.4825
 826  383.437
 827  419.624
 828  253.733
 829  287.1472
 830  193.1469
 831  237.2694
 832  63.3092
 833  38.85051
 834  -71.1764
 835  93.15852
 836  89.57435
 837  23.93745
 838  -146.1706
 839  7.563995
 840  13.42435
 841  121.3006
 842  117.5049
 843  275.8007
 844  278.0857
 845  261.8783
 846  67.65155
 847  -75.69708
 848  -58.03736
 849  126.119
 850  131.1889
 851  0.1913576
 852  -35.43661
 853  -44.93218
 854  -30.14277
 855  -79.4922
 856  195.6456
 857  249.9157
 858  269.0686
 859  266.7745
 860  308.6749
 861  363.0323
 862  366.8244
 863  480.7122
 864  474.4616
 865  270.6324
 866  197.734
 867  105.5786
 868  112.3575
 869  87.26825
 870  182.2538
 871  105.1996
 872  -52.59243
 873  -56.42834
 874  168.0728
 875  219.8466
 876  336.1447
 877  396.0422
 878  371.8488
 879  356.13
 880  298.2622
 881  284.5961
 882  156.2751
 883  132.525
 884  93.09568
 885  -27.37025
 886  -57.1737
 887  5.95524
 888  114.9352
 889  183.1708
 890  266.7857
 891  299.6453
 892  438.8208
 893  562.5983
 894  748.1361
 895  669.4027
 896  660.0212
 897  534.8765
 898  483.9029
 899  446.4374
 900  310.1949
 901  114.5689
 902  -2.163521
 903  -48.27676
 904  118.4601
 905  30.19036
 906  66.87098
 907  -93.58817
 908  93.96538
 909  252.2243
 910  298.8625
 911  302.0452
 912  521.0125
 913  490.0725
 914  529.2711
 915  187.1299
 916  175.7543
 917  49.07595
 918  6.496365
 919  46.95957
 920  139.0779
 921  355.9833
 922  431.4188
 923  473.8836
 924  587.9753
 925  574.7401
 926  705.8448
 927  832.9161
 928  857.9944
 929  911.2596
 930  714.4561
 931  614.6143
 932  358.575
 933  278.3062
 934  197.3963
 935  232.9876
 936  181.276
 937  223.8146
 938  285.2685
 939  394.432
 940  349.1816
 941  334.4912
 942  357.3772
 943  351.4137
 944  344.6382
 945  403.0664
 946  336.6073
 947  174.7175
 948  25.26431
 949  36.63225
 950  172.4731
 951  219.1826
 952  271.9193
 953  127.0112
 954  135.2511
 955  173.188
 956  326.9333
 957  239.8101
 958  306.7591
 959  391.0007
 960  679.5308
 961  631.2471
 962  653.2066
 963  487.2564
 964  550.9543
 965  398.4716
 966  307.8099
 967  55.70282
 968  79.54792
 969  122.5666
 970  233.2516
 971  180.3408
 972  170.2683
 973  269.4184
 974  274.3661
 975  78.66537
 976  -49.92035
 977  121.131
 978  362.3836
 979  442.817
 980  314.0049
 981  231.0951
 982  38.46755
 983  -1.771174
 984  -76.52175
 985  30.72598
 986  6.98535
 987  179.4489
 988  255.4097
 989  403.3026
 990  249.1585
 991  277.5918
 992  343.401
 993  516.0016
 994  623.8107
 995  578.9796
 996  464.0833
 997  333.647
 998  358.827
 999  340.4932
1000  88.62778
1001  25.42728
1002  38.4749
1003  351.9633
1004  451.493
1005  420.6956
1006  243.4142
1007  313.6744
1008  297.6471
1009  484.1294
1010  540.1018
1011  434.0069
1012  291.7013
1013  221.0203
1014  285.1232
1015  223.5835
1016  117.5579
1017  49.02704
1018  116.03
1019  135.2854
1020  211.1682
1021  290.1503
1022  338.1198
1023  384.3366
