# Input file       =  1202639010.116768_cleaned.dat
# Candidate        =  PSR_0332+5434
# Telescope        =  AR
# Epoch_topo       =  58163.433207369999
# Epoch_bary       =  N/A
# T_sample         =  0.002
# Data Folded      =  7208960
# Data Avg         =  0.0147789006354043
# Data StdDev      =  1.00005346709426 
# Profile Bins     =  512
# Profile Avg      =  208.192907255682 
# Profile StdDev   =  118.665520154867 
# Reduced chi-sqr  =  1.909
# Prob(Noise)      <  2.05e-31   (~11.6 sigma)
# P_topo (ms)      =  714.579893217739  +/- 0.000105
# P'_topo (s/s)    =  -0                +/- 5.65e-11
# P''_topo (s/s^2) =  0                 +/- 2.54e-14
# P_bary (ms)      =  N/A
# P'_bary (s/s)    =  N/A
# P''_bary (s/s^2) =  N/A
# P_orb (s)        =  N/A
# asin(i)/c (s)    =  N/A
# eccentricity     =  N/A
# w (rad)          =  N/A
# T_peri           =  N/A
######################################################
   0  890.2476
   1  673.989
   2  479.9116
   3  437.1726
   4  359.7767
   5  278.524
   6  452.249
   7  298.6688
   8  277.8487
   9  330.2473
  10  173.0897
  11  129.2341
  12  187.2083
  13  288.2615
  14  168.7136
  15  317.4196
  16  334.9281
  17  263.7411
  18  346.5411
  19  353.7011
  20  306.4287
  21  349.3745
  22  291.7415
  23  322.7087
  24  286.2497
  25  334.2588
  26  325.0431
  27  296.1494
  28  144.9693
  29  195.9968
  30  135.5459
  31  175.672
  32  246.9801
  33  238.2973
  34  287.7277
  35  372.9715
  36  246.1803
  37  223.6779
  38  365.5293
  39  375.1497
  40  184.5074
  41  257.4572
  42  339.7994
  43  235.1199
  44  271.5017
  45  85.74094
  46  140.0973
  47  295.8382
  48  212.2058
  49  406.3618
  50  432.6161
  51  346.1559
  52  401.4148
  53  348.3203
  54  427.2223
  55  290.0545
  56  231.5239
  57  283.7531
  58  306.6397
  59  357.1233
  60  255.3865
  61  231.3959
  62  222.7011
  63  272.8609
  64  167.8218
  65  153.2765
  66  267.7138
  67  344.3833
  68  344.5496
  69  282.4982
  70  266.0982
  71  326.9113
  72  403.7184
  73  222.396
  74  137.0089
  75  188.1166
  76  267.2541
  77  228.976
  78  168.1677
  79  141.1556
  80  231.4439
  81  145.346
  82  147.248
  83  289.7473
  84  227.9408
  85  160.4666
  86  91.80106
  87  250.4234
  88  141.568
  89  114.0988
  90  172.9132
  91  229.1239
  92  320.2949
  93  294.9054
  94  317.7304
  95  318.8233
  96  258.5678
  97  284.8551
  98  362.4591
  99  368.5447
 100  349.1454
 101  289.2682
 102  431.5431
 103  382.9022
 104  275.4055
 105  198.6709
 106  73.09228
 107  120.6948
 108  236.4967
 109  303.3903
 110  235.2503
 111  142.6342
 112  291.5361
 113  397.5883
 114  315.9462
 115  230.3335
 116  286.7437
 117  487.1804
 118  356.277
 119  100.8352
 120  167.0198
 121  242.4155
 122  156.1169
 123  114.2231
 124  229.1022
 125  381.0612
 126  300.0009
 127  279.394
 128  299.8116
 129  232.0614
 130  152.5469
 131  250.9147
 132  331.9021
 133  386.3577
 134  273.2497
 135  307.8663
 136  466.9717
 137  422.2421
 138  330.6252
 139  179.1683
 140  369.8256
 141  381.3766
 142  339.9641
 143  168.5556
 144  178.4251
 145  252.7232
 146  147.5114
 147  151.0353
 148  227.5942
 149  270.8504
 150  253.9912
 151  373.874
 152  421.3658
 153  325.158
 154  353.151
 155  275.3833
 156  359.4964
 157  403.3914
 158  353.4382
 159  261.1017
 160  121.0648
 161  205.211
 162  219.0084
 163  210.9698
 164  229.722
 165  354.8999
 166  372.9772
 167  248.2676
 168  173.5969
 169  153.253
 170  244.3193
 171  251.8512
 172  154.7272
 173  287.1533
 174  286.4276
 175  251.5443
 176  193.3326
 177  184.9095
 178  187.5851
 179  162.2854
 180  277.0631
 181  243.4077
 182  290.0717
 183  314.1758
 184  429.647
 185  370.4138
 186  235.6431
 187  282.7714
 188  199.8103
 189  84.00453
 190  157.8916
 191  258.7894
 192  136.3918
 193  54.20858
 194  84.93067
 195  143.4556
 196  91.97409
 197  25.78321
 198  129.6187
 199  198.995
 200  271.1425
 201  90.74935
 202  99.82158
 203  280.0116
 204  220.0007
 205  220.8997
 206  135.9533
 207  138.0325
 208  279.5144
 209  217.7954
 210  274.2824
 211  331.0861
 212  199.7448
 213  218.1465
 214  143.7194
 215  236.6434
 216  226.8902
 217  255.4689
 218  297.0024
 219  141.9247
 220  60.81739
 221  135.3357
 222  225.978
 223  360.1075
 224  300.1029
 225  287.703
 226  139.8162
 227  270.5978
 228  266.2502
 229  217.5655
 230  319.896
 231  372.8632
 232  320.0002
 233  404.062
 234  309.4803
 235  198.7233
 236  171.2854
 237  189.2177
 238  180.7987
 239  241.4396
 240  201.5545
 241  267.6786
 242  230.5842
 243  158.1425
 244  63.75873
 245  107.9846
 246  174.3274
 247  214.7524
 248  186.8732
 249  175.6194
 250  238.3262
 251  267.284
 252  192.4937
 253  250.3543
 254  162.457
 255  136.7308
 256  217.0477
 257  80.19635
 258  83.84885
 259  145.8135
 260  129.1382
 261  143.9866
 262  111.7686
 263  142.45
 264  198.6049
 265  234.7835
 266  357.9673
 267  408.4944
 268  271.7133
 269  300.9525
 270  218.9575
 271  106.502
 272  191.7881
 273  243.3192
 274  288.25
 275  157.3572
 276  17.62022
 277  32.94134
 278  104.4551
 279  223.2027
 280  192.2621
 281  265.7607
 282  225.1759
 283  226.9392
 284  171.9584
 285  122.0909
 286  230.658
 287  169.5399
 288  65.66294
 289  -6.000885
 290  17.30028
 291  147.6706
 292  74.01727
 293  53.60859
 294  204.3599
 295  196.7083
 296  74.44273
 297  186.4042
 298  266.2829
 299  283.5806
 300  197.9237
 301  81.24641
 302  28.35271
 303  69.55231
 304  132.8281
 305  143.066
 306  155.1251
 307  223.2789
 308  152.9917
 309  13.38374
 310  11.74281
 311  -39.24892
 312  5.839997
 313  132.6279
 314  187.426
 315  151.5305
 316  67.10011
 317  87.98321
 318  94.497
 319  135.3939
 320  68.29671
 321  114.2323
 322  150.2044
 323  156.4556
 324  174.9269
 325  88.25988
 326  90.64893
 327  56.73531
 328  20.35774
 329  42.46537
 330  123.4549
 331  126.1977
 332  99.09963
 333  95.63306
 334  160.7769
 335  81.88988
 336  23.79815
 337  -25.12762
 338  17.17562
 339  70.85461
 340  188.5493
 341  73.71589
 342  100.5728
 343  54.43032
 344  -39.92743
 345  -100.2511
 346  -28.95604
 347  79.65703
 348  227.7028
 349  88.65961
 350  87.09629
 351  128.204
 352  262.0582
 353  147.5802
 354  225.0192
 355  211.3552
 356  -30.76009
 357  3.465491
 358  42.06512
 359  39.34239
 360  -73.47108
 361  41.25887
 362  80.03683
 363  164.7102
 364  310.3719
 365  330.8615
 366  133.2123
 367  196.1006
 368  160.6372
 369  17.08305
 370  77.01995
 371  225.9991
 372  251.9961
 373  8.280576
 374  76.24603
 375  147.4337
 376  53.14224
 377  86.97982
 378  102.5138
 379  121.7858
 380  145.4559
 381  156.8807
 382  310.1782
 383  277.5756
 384  237.3043
 385  97.45197
 386  112.3663
 387  129.6577
 388  109.5398
 389  164.2024
 390  109.1289
 391  134.1186
 392  230.4251
 393  171.2525
 394  133.3206
 395  -2.128992
 396  178.0475
 397  243.9323
 398  227.2144
 399  177.3904
 400  176.665
 401  195.3407
 402  113.3728
 403  19.07903
 404  116.9215
 405  171.6888
 406  107.9182
 407  66.76621
 408  102.9627
 409  132.7111
 410  165.1915
 411  139.0029
 412  66.28805
 413  135.6582
 414  238.3082
 415  227.0378
 416  210.1327
 417  131.2155
 418  179.0661
 419  82.62779
 420  105.2719
 421  93.52647
 422  60.77385
 423  163.4513
 424  307.8982
 425  202.077
 426  227.6218
 427  218.95
 428  174.0183
 429  217.0603
 430  157.5892
 431  65.06284
 432  165.7213
 433  182.1599
 434  151.8336
 435  206.7159
 436  152.9039
 437  109.8294
 438  332.1427
 439  271.7174
 440  262.0983
 441  107.1792
 442  155.4188
 443  108.6591
 444  -50.2831
 445  34.47491
 446  195.5787
 447  195.8887
 448  254.7185
 449  157.1849
 450  120.9272
 451  112.9001
 452  76.17689
 453  185.3287
 454  223.5759
 455  320.4911
 456  187.6913
 457  -34.14993
 458  110.8108
 459  9.857695
 460  15.54928
 461  129.9016
 462  225.4953
 463  275.7768
 464  319.2095
 465  405.8163
 466  374.2766
 467  197.8191
 468  183.3271
 469  173.1147
 470  194.1932
 471  174.4527
 472  108.8752
 473  229.3148
 474  115.5135
 475  119.0828
 476  45.34248
 477  195.067
 478  193.5705
 479  209.8172
 480  264.5517
 481  367.287
 482  177.7845
 483  230.5145
 484  358.1965
 485  292.9772
 486  197.6695
 487  195.6145
 488  93.09327
 489  137.7336
 490  84.5914
 491  220.7838
 492  250.0805
 493  150.6611
 494  109.0744
 495  246.5153
 496  340.1078
 497  285.5267
 498  233.7923
 499  219.3781
 500  167.356
 501  187.5107
 502  167.3895
 503  231.0341
 504  319.7451
 505  334.8054
 506  212.0336
 507  219.6336
 508  394.8205
 509  553.4034
 510  795.7822
 511  932.9323
