# Input file       =  1202639010.116768-PSRB0329-2ms-sampling-dd.dat
# Candidate        =  PSR_0332+5434
# Telescope        =  AR
# Epoch_topo       =  58163.433207369999
# Epoch_bary       =  N/A
# T_sample         =  0.002
# Data Folded      =  7208960
# Data Avg         =  1.22370752829141e-09
# Data StdDev      =  8.28589409670116 
# Profile Bins     =  512
# Profile Avg      =  -0.31222861702023
# Profile StdDev   =  983.197364227041 
# Reduced chi-sqr  =  1.559
# Prob(Noise)      <  7.92e-15   (~7.7 sigma)
# P_topo (ms)      =  714.579894081289  +/- 3.18e-05
# P'_topo (s/s)    =  -0                +/- 1.71e-11
# P''_topo (s/s^2) =  0                 +/- 7.68e-15
# P_bary (ms)      =  N/A
# P'_bary (s/s)    =  N/A
# P''_bary (s/s^2) =  N/A
# P_orb (s)        =  N/A
# asin(i)/c (s)    =  N/A
# eccentricity     =  N/A
# w (rad)          =  N/A
# T_peri           =  N/A
######################################################
   0  -71.95343
   1  -361.7288
   2  -1076.24
   3  -1197.893
   4  -365.3486
   5  733.8564
   6  169.455
   7  -574.8826
   8  -1100.439
   9  -1218.889
  10  -1257.369
  11  -1222.234
  12  -136.986
  13  1226.196
  14  1844.049
  15  838.4093
  16  -13.04704
  17  -315.1492
  18  -324.8952
  19  -792.8456
  20  -675.1304
  21  -338.1698
  22  73.15417
  23  -108.4671
  24  -592.491
  25  -1004.461
  26  -743.0161
  27  -1005.935
  28  -634.9892
  29  204.8701
  30  772.3538
  31  484.363
  32  176.0325
  33  66.72088
  34  415.9994
  35  -73.37422
  36  -956.0029
  37  -282.8512
  38  140.5198
  39  49.1847
  40  -698.092
  41  -1024.572
  42  -1020.28
  43  -1237.724
  44  -1161.365
  45  -270.3987
  46  787.7189
  47  1243.378
  48  991.4419
  49  -277.4293
  50  -7.026792
  51  -397.6814
  52  -1020.47
  53  -537.4925
  54  551.4658
  55  1111.653
  56  -431.4565
  57  -1295.244
  58  -1561.967
  59  -1596.276
  60  -1240.6
  61  -335.1611
  62  1173.613
  63  1553.612
  64  1359.38
  65  905.4935
  66  224.4878
  67  28.51431
  68  -27.20312
  69  -353.568
  70  76.74915
  71  601.7747
  72  379.9952
  73  -395.9467
  74  -492.9213
  75  -753.9323
  76  -863.8237
  77  -499.8476
  78  184.2361
  79  1235.335
  80  1538.787
  81  1046.128
  82  -97.53013
  83  -28.54689
  84  -69.00195
  85  -632.5953
  86  -788.547
  87  51.12469
  88  415.4959
  89  -169.8477
  90  -970.4207
  91  -752.2303
  92  -898.9612
  93  -1326.745
  94  -631.7361
  95  811.0986
  96  1430.071
  97  1304.561
  98  653.2045
  99  73.28083
 100  98.74786
 101  -114.0514
 102  -435.3503
 103  3.356797
 104  430.0279
 105  190.6124
 106  -207.6378
 107  -401.5125
 108  -142.9784
 109  310.6165
 110  1055.523
 111  2041.933
 112  2563.267
 113  2376.182
 114  1796.803
 115  1358.679
 116  472.9787
 117  1032.869
 118  422.0999
 119  -219.8991
 120  700.9255
 121  669.665
 122  -410.399
 123  -1033.766
 124  -949.1777
 125  -1173.214
 126  -767.2937
 127  290.9901
 128  929.8229
 129  1444.869
 130  1639.777
 131  1262.784
 132  1222.621
 133  828.0831
 134  113.6538
 135  -278.0272
 136  -374.8015
 137  622.2682
 138  1032.701
 139  533.0392
 140  -510.8624
 141  -329.0381
 142  -860.6515
 143  -302.6808
 144  157.1727
 145  952.4318
 146  1663.039
 147  1204.503
 148  286.3272
 149  144.8565
 150  483.9222
 151  -136.0268
 152  -421.6691
 153  664.8419
 154  658.8897
 155  -223.8479
 156  -1240.155
 157  -1532.191
 158  -1288.746
 159  -792.3696
 160  -320.6726
 161  1382.497
 162  1720.557
 163  1489.658
 164  902.1187
 165  536.2668
 166  -199.1619
 167  -680.6174
 168  -686.5602
 169  -198.0244
 170  435.5248
 171  461.9835
 172  -256.2038
 173  -642.1144
 174  -838.2873
 175  -1081.795
 176  -1347.597
 177  10.73057
 178  1036.418
 179  1532.679
 180  1387.877
 181  749.9912
 182  505.1922
 183  494.017
 184  -196.4962
 185  -760.7672
 186  -184.3848
 187  84.26868
 188  -461.4942
 189  -951.0977
 190  -1339.869
 191  -1170.579
 192  -972.0483
 193  -641.7999
 194  181.555
 195  1072.355
 196  806.0543
 197  28.18514
 198  46.06452
 199  137.4205
 200  -470.5721
 201  -1042.7
 202  -672.7788
 203  -133.2879
 204  32.34743
 205  -942.4383
 206  -1089.037
 207  -1383.08
 208  -1377.234
 209  -599.057
 210  126.7189
 211  1203.586
 212  1079.378
 213  656.782
 214  162.0584
 215  -49.58945
 216  -181.2568
 217  -786.0819
 218  -897.9282
 219  -52.96321
 220  372.2482
 221  -272.7047
 222  -1366.703
 223  -1421.066
 224  -570.4948
 225  -499.2371
 226  -100.2981
 227  488.3473
 228  1284.43
 229  1409.804
 230  201.6344
 231  -352.2222
 232  -130.2575
 233  -428.8365
 234  -1099.067
 235  -617.6984
 236  496.1108
 237  451.3528
 238  -479.5914
 239  -1234.864
 240  -998.1938
 241  -1257.827
 242  -1147.734
 243  201.9813
 244  1092.364
 245  1276.072
 246  652.0011
 247  326.0848
 248  507.8621
 249  -93.5789
 250  -770.3856
 251  -995.915
 252  148.7896
 253  249.1958
 254  -47.77154
 255  -952.0829
 256  -831.7457
 257  -701.7421
 258  -1200.62
 259  -744.6505
 260  810.7682
 261  1599.304
 262  1700.57
 263  1475.231
 264  1019.518
 265  511.3679
 266  -249.7558
 267  -498.2415
 268  69.73084
 269  615.1982
 270  115.0752
 271  -332.0786
 272  -926.3834
 273  -1177.611
 274  -1000.831
 275  -1106.788
 276  -64.15842
 277  1072.748
 278  1525.989
 279  675.5103
 280  197.4074
 281  -15.81909
 282  207.8717
 283  -345.263
 284  -424.3801
 285  311.6588
 286  362.8725
 287  -164.043
 288  -795.3967
 289  -1060.722
 290  -1222.12
 291  -861.0017
 292  -92.21885
 293  593.2265
 294  1788.925
 295  1599.611
 296  1266.531
 297  383.7172
 298  138.4814
 299  -251.8478
 300  -992.5045
 301  -546.7338
 302  271.2311
 303  16.65337
 304  -1165.483
 305  -1553.123
 306  -1498.314
 307  -1192.719
 308  -1078.262
 309  -218.0928
 310  944.0943
 311  891.2085
 312  397.3295
 313  -591.0186
 314  -138.669
 315  -228.1309
 316  -598.3273
 317  -967.7883
 318  -694.1352
 319  31.96389
 320  -378.5648
 321  -1362.588
 322  -995.0957
 323  -850.9719
 324  -910.9377
 325  -623.7519
 326  652.0502
 327  1356.405
 328  1163.441
 329  936.0304
 330  474.9658
 331  -59.80349
 332  -664.2684
 333  -731.7722
 334  -231.4325
 335  454.0794
 336  637.2996
 337  -492.3215
 338  -563.3338
 339  -437.4049
 340  -614.5007
 341  -718.4357
 342  226.9729
 343  1308.007
 344  1755.574
 345  1609.477
 346  1018.181
 347  637.2808
 348  256.4659
 349  -260.5142
 350  -338.8063
 351  56.65127
 352  243.3703
 353  364.5423
 354  -71.92126
 355  -547.1649
 356  -954.5386
 357  -774.6132
 358  -365.2325
 359  310.7549
 360  1421.678
 361  1672.325
 362  1636.846
 363  725.8187
 364  316.8342
 365  68.29344
 366  -846.7819
 367  -204.9757
 368  515.3411
 369  -109.3468
 370  -696.1855
 371  -1167.494
 372  -1185.623
 373  -1057.23
 374  -897.3695
 375  -107.7523
 376  1160.066
 377  1500.867
 378  1481.763
 379  793.4711
 380  380.4491
 381  342.3879
 382  -598.3981
 383  -614.2446
 384  -11.16352
 385  549.3046
 386  -98.80453
 387  -1291.635
 388  -1603.52
 389  -937.8298
 390  -559.4502
 391  -332.3798
 392  695.0922
 393  1189.894
 394  1091.757
 395  471.0932
 396  125.0201
 397  487.8015
 398  -132.8173
 399  -931.4912
 400  -1013.322
 401  -750.2822
 402  -570.5909
 403  -942.5931
 404  -1557.268
 405  -1069.092
 406  -986.0566
 407  -1273.917
 408  -638.4454
 409  699.0245
 410  1469.716
 411  1112.712
 412  388.4977
 413  -97.63614
 414  -538.2037
 415  -840.1575
 416  -961.0864
 417  1.002235
 418  378.6324
 419  375.3868
 420  -740.4995
 421  -1111.134
 422  -1046.166
 423  -1508.189
 424  -1048.987
 425  154.9422
 426  975.5641
 427  1235.598
 428  898.1776
 429  157.1927
 430  5.69222
 431  -191.6556
 432  -923.6697
 433  -592.5922
 434  -13.87008
 435  71.13214
 436  -884.0063
 437  -1291.504
 438  -1255.988
 439  -1452.3
 440  -1641.412
 441  -883.7173
 442  260.527
 443  1266.332
 444  1079.591
 445  770.207
 446  296.2946
 447  189.1351
 448  31.35339
 449  535.0557
 450  1228.864
 451  824.681
 452  1100.125
 453  -119.3982
 454  -432.9164
 455  -375.8381
 456  -309.271
 457  -260.4793
 458  569.1392
 459  1257.983
 460  1201.689
 461  393.6907
 462  39.48072
 463  508.118
 464  372.559
 465  -176.9979
 466  214.5732
 467  161.8928
 468  133.8992
 469  -405.5911
 470  -800.184
 471  -1258.651
 472  -1181.889
 473  -636.21
 474  167.6951
 475  1797.47
 476  2340.62
 477  1672.398
 478  688.6797
 479  311.5881
 480  -124.1546
 481  -630.0263
 482  -112.8009
 483  575.043
 484  1068.231
 485  335.4796
 486  -145.5218
 487  -1520.324
 488  -747.8753
 489  -252.662
 490  317.1705
 491  922.0532
 492  1455.014
 493  2024.663
 494  3147.202
 495  2848.01
 496  2704.295
 497  819.7551
 498  282.9635
 499  -404.255
 500  1052.411
 501  1124.996
 502  244.1282
 503  -713.773
 504  -1250.848
 505  -1601.231
 506  -1777.897
 507  -1336.654
 508  429.0293
 509  1293.97
 510  1016.018
 511  317.0025
