# Input file       =  1202380413.111722_cleaned.dat
# Candidate        =  PSR_0332+5434
# Telescope        =  AR
# Epoch_topo       =  58160.440186478263
# Epoch_bary       =  N/A
# T_sample         =  0.002
# Data Folded      =  7143424
# Data Avg         =  0.0152881864047156
# Data StdDev      =  1.00005031487631 
# Profile Bins     =  512
# Profile Avg      =  213.356910504258 
# Profile StdDev   =  118.124527603836 
# Reduced chi-sqr  =  1.454
# Prob(Noise)      <  7.57e-11   (~6.4 sigma)
# P_topo (ms)      =  714.579278765596  +/- 0.000241
# P'_topo (s/s)    =  -0                +/- 1.31e-10
# P''_topo (s/s^2) =  0                 +/- 5.93e-14
# P_bary (ms)      =  N/A
# P'_bary (s/s)    =  N/A
# P''_bary (s/s^2) =  N/A
# P_orb (s)        =  N/A
# asin(i)/c (s)    =  N/A
# eccentricity     =  N/A
# w (rad)          =  N/A
# T_peri           =  N/A
######################################################
   0  215.8291
   1  158.2846
   2  163.6542
   3  311.1728
   4  267.7293
   5  275.5671
   6  164.0381
   7  204.7183
   8  222.9529
   9  199.2226
  10  172.4828
  11  133.9202
  12  159.0427
  13  239.3406
  14  336.9355
  15  325.0361
  16  229.3637
  17  195.7542
  18  278.8878
  19  296.4734
  20  259.2499
  21  284.8974
  22  203.6931
  23  234.0196
  24  279.3891
  25  361.4057
  26  227.828
  27  153.6593
  28  68.08936
  29  122.6599
  30  135.1722
  31  255.4709
  32  237.9991
  33  174.2877
  34  281.5342
  35  235.002
  36  276.551
  37  205.8395
  38  117.8909
  39  34.39935
  40  61.0168
  41  84.62885
  42  103.6979
  43  177.6002
  44  104.0971
  45  163.3363
  46  177.0819
  47  193.262
  48  180.8482
  49  141.7007
  50  226.1966
  51  172.9173
  52  204.9744
  53  178.5758
  54  156.827
  55  197.0225
  56  159.7186
  57  260.591
  58  308.7887
  59  249.6402
  60  261.9536
  61  247.3867
  62  203.8592
  63  199.5518
  64  228.5294
  65  210.437
  66  271.1569
  67  172.6402
  68  258.7183
  69  214.4741
  70  124.8918
  71  28.01552
  72  102.8229
  73  192.1698
  74  55.09739
  75  17.62982
  76  196.0114
  77  198.4807
  78  161.1878
  79  223.3065
  80  297.3492
  81  270.1504
  82  87.52684
  83  118.6617
  84  237.6384
  85  147.2825
  86  37.1239
  87  41.298
  88  169.7102
  89  125.9497
  90  -81.24486
  91  27.52651
  92  233.2677
  93  260.5543
  94  155.9549
  95  56.19166
  96  137.1532
  97  144.911
  98  205.223
  99  96.52076
 100  114.1333
 101  320.3994
 102  428.4917
 103  259.8737
 104  152.2396
 105  143.2449
 106  186.0144
 107  125.5447
 108  70.03206
 109  135.9072
 110  204.1185
 111  110.4706
 112  112.7379
 113  170.4623
 114  196.5755
 115  241.7534
 116  358.0098
 117  277.8993
 118  216.0621
 119  144.1595
 120  303.396
 121  338.4839
 122  223.3003
 123  100.0518
 124  292.9727
 125  211.7736
 126  131.5317
 127  165.8016
 128  74.09512
 129  151.0896
 130  311.681
 131  286.9163
 132  387.7447
 133  213.8024
 134  201.9743
 135  117.8544
 136  110.2296
 137  250.8381
 138  268.6948
 139  253.1349
 140  168.8829
 141  130.5267
 142  175.0985
 143  93.49484
 144  35.84766
 145  155.1117
 146  228.29
 147  310.0518
 148  123.3031
 149  89.73035
 150  244.128
 151  258.4044
 152  155.4274
 153  156.9082
 154  149.7329
 155  138.1936
 156  39.53616
 157  75.35911
 158  134.0389
 159  211.1717
 160  252.7504
 161  155.5991
 162  61.50249
 163  178.3994
 164  223.5565
 165  223.9254
 166  194.1483
 167  190.9292
 168  30.21534
 169  39.82404
 170  208.2133
 171  277.7238
 172  196.1572
 173  125.6233
 174  198.7752
 175  15.75663
 176  99.85771
 177  86.05328
 178  66.82504
 179  89.00073
 180  210.9005
 181  274.3404
 182  82.49733
 183  245.8457
 184  228.4877
 185  132.373
 186  188.8857
 187  284.9174
 188  304.6975
 189  312.4551
 190  254.8412
 191  153.4807
 192  106.4375
 193  216.0873
 194  191.169
 195  198.8752
 196  261.2173
 197  154.9432
 198  256.425
 199  166.421
 200  34.729
 201  167.7958
 202  236.899
 203  236.084
 204  281.4769
 205  290.0581
 206  248.474
 207  144.0429
 208  43.74356
 209  72.11683
 210  168.6841
 211  202.0116
 212  184.3586
 213  258.0591
 214  216.1132
 215  238.6681
 216  308.978
 217  208.4165
 218  270.0926
 219  376.0446
 220  181.6184
 221  123.28
 222  167.165
 223  142.3934
 224  140.8997
 225  144.7002
 226  241.1057
 227  226.9946
 228  130.4896
 229  119.9656
 230  159.6653
 231  91.04739
 232  159.343
 233  231.2318
 234  176.0186
 235  145.7035
 236  289.2914
 237  209.1172
 238  129.3281
 239  214.232
 240  336.2486
 241  276.9268
 242  229.0683
 243  284.8448
 244  333.8352
 245  343.0482
 246  347.2834
 247  325.4636
 248  169.3912
 249  27.8979
 250  28.40298
 251  201.4074
 252  169.2652
 253  132.1625
 254  209.7743
 255  269.8302
 256  202.4866
 257  208.2379
 258  211.1911
 259  202.6841
 260  92.30935
 261  128.6494
 262  299.1575
 263  266.9964
 264  315.2155
 265  370.838
 266  226.1042
 267  189.6583
 268  232.0092
 269  400.9048
 270  421.0901
 271  351.9146
 272  393.5858
 273  368.7545
 274  242.4565
 275  212.5922
 276  223.7993
 277  188.0131
 278  161.9294
 279  215.5626
 280  109.1978
 281  157.5696
 282  283.1184
 283  158.2607
 284  189.8944
 285  165.4143
 286  174.4294
 287  147.0758
 288  170.8965
 289  214.5817
 290  215.4725
 291  224.5571
 292  286.5644
 293  192.6017
 294  185.1941
 295  202.13
 296  186.3415
 297  97.91556
 298  150.9385
 299  204.5999
 300  303.4082
 301  267.3457
 302  297.9922
 303  322.4521
 304  158.866
 305  137.6564
 306  142.3576
 307  376.2662
 308  286.1002
 309  178.1389
 310  253.6968
 311  134.4633
 312  252.5026
 313  266.0135
 314  223.0333
 315  341.4089
 316  258.0642
 317  327.5281
 318  277.438
 319  215.8083
 320  313.2704
 321  264.6425
 322  251.0913
 323  323.6514
 324  278.9057
 325  234.2548
 326  235.2672
 327  206.6961
 328  186.3434
 329  183.7075
 330  255.4798
 331  400.9558
 332  277.2291
 333  244.4155
 334  280.0397
 335  219.9156
 336  198.1846
 337  211.8632
 338  224.2039
 339  113.5996
 340  105.7204
 341  380.1681
 342  175.7427
 343  102.6308
 344  261.8177
 345  255.9558
 346  206.8324
 347  169.2066
 348  284.0209
 349  381.0121
 350  275.4652
 351  268.5743
 352  238.3144
 353  163.3981
 354  159.639
 355  258.5107
 356  240.2684
 357  61.80986
 358  30.23402
 359  100.1164
 360  113.9334
 361  129.5565
 362  311.9783
 363  189.1862
 364  191.1838
 365  118.0123
 366  255.008
 367  226.7472
 368  156.9012
 369  176.4979
 370  295.2487
 371  312.4288
 372  104.3929
 373  66.11344
 374  156.9094
 375  71.74489
 376  125.0281
 377  274.451
 378  277.7082
 379  209.8378
 380  228.0082
 381  149.2136
 382  289.4789
 383  155.348
 384  158.3895
 385  164.2789
 386  48.41111
 387  139.6292
 388  50.18304
 389  67.22266
 390  138.9002
 391  159.6447
 392  142.3386
 393  131.0126
 394  172.5397
 395  297.7318
 396  199.632
 397  148.08
 398  160.8569
 399  262.4215
 400  242.9474
 401  157.4529
 402  299.0661
 403  403.0666
 404  234.5851
 405  106.6141
 406  153.5222
 407  167.7861
 408  244.1335
 409  419.4135
 410  327.2295
 411  228.6478
 412  152.9927
 413  228.3269
 414  321.1296
 415  329.0021
 416  284.4398
 417  215.5778
 418  132.7738
 419  159.4679
 420  252.4658
 421  192.9832
 422  183.1353
 423  203.2574
 424  225.4151
 425  228.9561
 426  206.5269
 427  266.624
 428  219.0299
 429  318.6795
 430  299.9594
 431  124.4858
 432  194.4558
 433  244.593
 434  159.5818
 435  207.4515
 436  292.4128
 437  284.839
 438  132.5549
 439  182.3129
 440  266.8076
 441  261.4986
 442  236.7666
 443  338.5757
 444  172.6577
 445  272.286
 446  202.34
 447  171.4163
 448  126.785
 449  108.5089
 450  161.2924
 451  85.20517
 452  216.7573
 453  216.3018
 454  160.5797
 455  262.4092
 456  322.98
 457  197.7273
 458  127.4052
 459  174.3553
 460  261.6211
 461  224.6344
 462  331.0038
 463  359.3573
 464  309.5215
 465  273.629
 466  99.5629
 467  258.6777
 468  323.6714
 469  267.6957
 470  115.8316
 471  86.11795
 472  172.1684
 473  254.0125
 474  245.8779
 475  352.5734
 476  327.2135
 477  429.1919
 478  379.4844
 479  287.8049
 480  164.8209
 481  275.5161
 482  305.032
 483  176.8144
 484  117.0914
 485  152.9327
 486  171.7599
 487  205.3163
 488  309.5046
 489  200.7615
 490  104.9179
 491  317.958
 492  435.5999
 493  676.4659
 494  742.2097
 495  820.8894
 496  833.7978
 497  797.8178
 498  697.2672
 499  592.1664
 500  291.2565
 501  216.1788
 502  355.3865
 503  232.7678
 504  237.0681
 505  202.3348
 506  223.8445
 507  238.2131
 508  328.9129
 509  293.9138
 510  236.4146
 511  289.6328
