# Input file       =  1202294239.113467-PSRB0329-2ms-sampling-dd.dat
# Candidate        =  PSR_0332+5434
# Telescope        =  AR
# Epoch_topo       =  58159.442802239202
# Epoch_bary       =  N/A
# T_sample         =  0.002
# Data Folded      =  7208960
# Data Avg         =  6.54790697473235e-10
# Data StdDev      =  6.04381794762817 
# Profile Bins     =  512
# Profile Avg      =  -0.22284360136804
# Profile StdDev   =  717.154456311707 
# Reduced chi-sqr  =  1.898
# Prob(Noise)      <  8.04e-31   (~11.5 sigma)
# P_topo (ms)      =  714.57903649888   +/- 1.88e-05
# P'_topo (s/s)    =  -0                +/- 1.01e-11
# P''_topo (s/s^2) =  0                 +/- 4.55e-15
# P_bary (ms)      =  N/A
# P'_bary (s/s)    =  N/A
# P''_bary (s/s^2) =  N/A
# P_orb (s)        =  N/A
# asin(i)/c (s)    =  N/A
# eccentricity     =  N/A
# w (rad)          =  N/A
# T_peri           =  N/A
######################################################
   0  -641.3691
   1  -557.0131
   2  332.8704
   3  664.3423
   4  -61.96619
   5  -659.7356
   6  -687.5894
   7  -789.7798
   8  -1132.082
   9  -454.2172
  10  317.2489
  11  1070.775
  12  611.714
  13  17.88357
  14  -343.708
  15  -119.9274
  16  -166.4892
  17  -490.6944
  18  -463.4814
  19  469.3354
  20  306.4272
  21  -761.1712
  22  -826.3907
  23  -1209.921
  24  -1130.141
  25  -924.669
  26  -162.537
  27  532.9894
  28  835.3047
  29  54.05992
  30  -1224.675
  31  -1434.327
  32  -1065.778
  33  -864.0062
  34  -579.0284
  35  604.1429
  36  1159.553
  37  67.62303
  38  -998.3803
  39  -922.4719
  40  -895.5551
  41  -929.9144
  42  -510.9662
  43  570.4427
  44  1246.187
  45  570.5823
  46  446.0238
  47  -373.7627
  48  -437.681
  49  -511.1127
  50  -694.6254
  51  -125.9751
  52  331.7403
  53  81.50525
  54  -442.1192
  55  -1063.952
  56  -1241.178
  57  -824.3713
  58  -626.8701
  59  160.4565
  60  1226.125
  61  1241.536
  62  317.15
  63  -454.7723
  64  -705.8818
  65  -251.811
  66  -314.7344
  67  58.7149
  68  488.3377
  69  1021.372
  70  222.747
  71  -832.4618
  72  -951.5656
  73  -706.7081
  74  -582.2056
  75  -314.1937
  76  658.2858
  77  1370.529
  78  1414.266
  79  40.59885
  80  -358.7389
  81  -285.0907
  82  -194.4581
  83  -455.2284
  84  -572.6221
  85  360.7761
  86  579.4901
  87  -81.26057
  88  -771.7239
  89  -777.9885
  90  -661.6828
  91  -291.7816
  92  340.5714
  93  1176.114
  94  1052.487
  95  378.2713
  96  -82.46278
  97  -627.7311
  98  -308.3723
  99  -206.2227
 100  -65.90434
 101  721.1013
 102  1187.425
 103  342.2186
 104  -691.4346
 105  -924.2101
 106  -833.8392
 107  -242.4132
 108  -30.48153
 109  848.1369
 110  1376.813
 111  1606.893
 112  780.6513
 113  204.3413
 114  94.75297
 115  -150.0454
 116  -819.4735
 117  -555.5246
 118  524.9437
 119  1461.525
 120  626.7999
 121  -278.0025
 122  58.0867
 123  -311.9133
 124  -448.422
 125  342.0113
 126  1230.76
 127  1430.168
 128  833.4273
 129  -86.01919
 130  -179.7997
 131  -104.8256
 132  -751.2313
 133  -577.0635
 134  249.2753
 135  906.6505
 136  665.374
 137  -178.0295
 138  -383.0544
 139  -204.5655
 140  -523.4127
 141  49.28862
 142  685.2151
 143  1693.46
 144  1757.12
 145  1024.635
 146  184.7156
 147  -121.4225
 148  -398.8264
 149  -406.4715
 150  -229.5542
 151  629.2812
 152  674.8776
 153  -129.2467
 154  -720.0543
 155  -953.0636
 156  -811.5827
 157  -856.0692
 158  -269.1161
 159  640.9631
 160  987.7315
 161  219.4388
 162  -48.99697
 163  -458.9968
 164  -133.8455
 165  -331.8715
 166  -688.9025
 167  -381.3872
 168  153.2442
 169  -129.6058
 170  -770.0423
 171  -914.6129
 172  -902.8719
 173  -1025.736
 174  -509.0111
 175  539.9477
 176  1307.078
 177  1137.856
 178  231.3062
 179  -493.2679
 180  -950.6257
 181  -424.99
 182  -196.7123
 183  -25.49228
 184  547.8377
 185  694.9953
 186  72.85597
 187  -1056.502
 188  -1247.572
 189  -1202.922
 190  -667.0818
 191  -110.1314
 192  565.569
 193  789.6498
 194  512.4625
 195  -117.3443
 196  -332.8996
 197  -370.1885
 198  -818.7646
 199  -646.472
 200  193.3254
 201  1263.25
 202  1001.091
 203  -77.23295
 204  -230.6507
 205  -148.0172
 206  -409.1823
 207  -238.8989
 208  631.7354
 209  1937.603
 210  1707.19
 211  769.2149
 212  -237.4151
 213  -685.1592
 214  -1106.683
 215  -1121.504
 216  -176.7172
 217  838.1857
 218  806.677
 219  -258.8469
 220  -787.2512
 221  -1221.122
 222  -856.0173
 223  -787.1315
 224  -195.6893
 225  779.413
 226  1258.846
 227  888.0401
 228  129.4191
 229  -170.4691
 230  29.84161
 231  -637.1268
 232  -326.4909
 233  63.04937
 234  636.954
 235  218.7286
 236  133.2712
 237  -359.4562
 238  -325.4748
 239  -368.502
 240  -367.3524
 241  625.5231
 242  1629.3
 243  1802.433
 244  528.5825
 245  -99.71741
 246  -361.2711
 247  165.001
 248  -244.4874
 249  -205.6538
 250  511.5157
 251  730.5945
 252  -146.7054
 253  -581.3896
 254  -718.6658
 255  -563.1906
 256  -577.5982
 257  142.5642
 258  1181.38
 259  1178.423
 260  818.2691
 261  95.83198
 262  -219.1326
 263  125.8555
 264  -185.3739
 265  -374.8773
 266  81.98395
 267  298.1791
 268  157.7504
 269  -42.03265
 270  -299.843
 271  -419.8196
 272  -94.74681
 273  676.2704
 274  1105.332
 275  1629.705
 276  1360.348
 277  801.618
 278  -246.731
 279  -767.6814
 280  -318.9052
 281  -780.0361
 282  -447.9846
 283  592.6447
 284  603.6028
 285  320.412
 286  -357.8613
 287  -552.5588
 288  -859.8464
 289  -700.6136
 290  -272.0565
 291  975.1775
 292  2040.992
 293  1819.491
 294  487.7254
 295  -413.144
 296  -1119.675
 297  -1444.245
 298  -1141.906
 299  39.92588
 300  1171.931
 301  952.7321
 302  -256.8035
 303  -869.1949
 304  -681.2852
 305  -455.8075
 306  -106.8805
 307  522.5526
 308  1287.506
 309  1277.403
 310  608.6714
 311  -541.4886
 312  -80.31833
 313  -39.80717
 314  -533.1906
 315  -149.934
 316  306.5231
 317  437.8878
 318  -68.43977
 319  -391.7039
 320  -599.8171
 321  -963.1342
 322  -773.2209
 323  -521.3265
 324  575.8842
 325  1411.773
 326  933.3779
 327  273.8954
 328  -544.7455
 329  -639.746
 330  -980.0269
 331  -1177.037
 332  -606.3517
 333  494.2457
 334  662.5222
 335  -253.9576
 336  -654.2611
 337  -891.8174
 338  -909.0214
 339  -287.5349
 340  250.0003
 341  679.738
 342  1145.198
 343  205.4562
 344  -385.4391
 345  -374.3633
 346  -49.24255
 347  -246.3686
 348  -469.2634
 349  395.2893
 350  788.2906
 351  195.9792
 352  -374.5531
 353  -636.0687
 354  -690.6423
 355  -788.4283
 356  -300.8582
 357  475.5053
 358  844.9081
 359  919.6849
 360  151.7712
 361  -572.8642
 362  -1121.519
 363  -1130.805
 364  -681.8874
 365  -138.757
 366  698.921
 367  713.6903
 368  -97.87688
 369  -719.6042
 370  -1102.948
 371  -996.1615
 372  -544.3843
 373  299.5049
 374  1289.142
 375  1429.151
 376  949.2006
 377  418.796
 378  270.8209
 379  -20.3656
 380  -850.687
 381  76.86565
 382  732.2758
 383  812.0477
 384  119.3402
 385  -421.9024
 386  -496.8333
 387  -842.3435
 388  -624.5897
 389  -256.1908
 390  933.13
 391  1419.373
 392  1039.793
 393  152.0031
 394  -521.9019
 395  -735.9058
 396  -488.7372
 397  -728.6595
 398  -589.6703
 399  76.60637
 400  18.32379
 401  -139.1044
 402  -611.4164
 403  -240.072
 404  -603.4326
 405  -516.9872
 406  150.1396
 407  872.8367
 408  1280.811
 409  633.5908
 410  570.5614
 411  90.26338
 412  -229.9277
 413  -841.6029
 414  -825.5138
 415  120.0828
 416  576.2173
 417  201.0412
 418  -453.1812
 419  -518.9622
 420  -336.1176
 421  -490.8707
 422  -77.70348
 423  489.1621
 424  1251.661
 425  989.5872
 426  -63.21625
 427  -367.4076
 428  -294.7977
 429  -163.5541
 430  -555.6757
 431  -71.66396
 432  310.7058
 433  236.4591
 434  -548.3194
 435  -882.5591
 436  -847.7826
 437  -674.4277
 438  -473.5487
 439  216.9872
 440  922.7023
 441  1215.113
 442  665.1855
 443  8.810213
 444  -11.3638
 445  -377.816
 446  -701.4443
 447  -734.5911
 448  539.5729
 449  1510.695
 450  1049.755
 451  273.5525
 452  -496.289
 453  -793.2891
 454  -781.9305
 455  -369.4973
 456  553.3677
 457  1060.462
 458  595.1717
 459  -74.9623
 460  -854.5345
 461  -307.0464
 462  -478.6945
 463  -577.0077
 464  -118.6527
 465  486.7732
 466  396.2836
 467  -540.9112
 468  -1059.808
 469  -1052.049
 470  -900.288
 471  -200.8358
 472  183.5914
 473  1040.812
 474  987.4335
 475  460.8185
 476  -73.13982
 477  -289.4325
 478  -378.6331
 479  -964.8114
 480  -595.2901
 481  486.6777
 482  1003.573
 483  238.8438
 484  -245.3096
 485  -578.6237
 486  -743.0889
 487  -642.0594
 488  -435.8415
 489  472.9203
 490  1426.874
 491  1462.245
 492  1156.982
 493  345.0472
 494  728.3625
 495  911.0665
 496  664.5878
 497  1064.001
 498  1552.27
 499  954.0187
 500  -39.78239
 501  -663.3746
 502  -725.4501
 503  -345.8351
 504  -94.16053
 505  700.8163
 506  1116.17
 507  1281.36
 508  447.025
 509  -610.4747
 510  -437.4428
 511  -206.9185
