# Input file       =  1202409950.12076_cleaned.dat
# Candidate        =  PSR_0332+5434
# Telescope        =  AR
# Epoch_topo       =  58160.782050008798
# Epoch_bary       =  N/A
# T_sample         =  0.002
# Data Folded      =  7340032
# Data Avg         =  0.0467063023399012
# Data StdDev      =  2.9289402661869  
# Profile Bins     =  1024
# Profile Avg      =  334.684367817598 
# Profile StdDev   =  247.975921577403 
# Reduced chi-sqr  =  0.863
# Prob(Noise)      <  0.999   (~0.0 sigma)
# P_topo (ms)      =  714.579709926225  +/- 0.000377
# P'_topo (s/s)    =  -0                +/- 1.99e-10
# P''_topo (s/s^2) =  0                 +/- 8.79e-14
# P_bary (ms)      =  N/A
# P'_bary (s/s)    =  N/A
# P''_bary (s/s^2) =  N/A
# P_orb (s)        =  N/A
# asin(i)/c (s)    =  N/A
# eccentricity     =  N/A
# w (rad)          =  N/A
# T_peri           =  N/A
######################################################
   0  86.586
   1  164.2983
   2  279.033
   3  432.6945
   4  436.3315
   5  407.7472
   6  386.3389
   7  335.3948
   8  249.318
   9  273.4909
  10  343.1357
  11  348.0912
  12  371.085
  13  385.4175
  14  475.2792
  15  452.5019
  16  417.6237
  17  351.5549
  18  298.67
  19  317.7759
  20  257.3385
  21  255.9366
  22  208.3597
  23  320.6775
  24  412.8726
  25  410.656
  26  309.5706
  27  175.5712
  28  178.5221
  29  181.4888
  30  179.5063
  31  149.0148
  32  160.2633
  33  241.8522
  34  236.2742
  35  173.2251
  36  83.5198
  37  142.1926
  38  199.4188
  39  305.0408
  40  259.3121
  41  250.7548
  42  119.7313
  43  146.1354
  44  204.6443
  45  390.6431
  46  417.4376
  47  320.0773
  48  310.393
  49  367.3268
  50  400.7372
  51  396.269
  52  375.2349
  53  351.1485
  54  314.1748
  55  247.4215
  56  239.2671
  57  296.9651
  58  382.5165
  59  386.8491
  60  396.9563
  61  323.404
  62  267.7094
  63  174.0621
  64  230.8719
  65  357.2006
  66  358.677
  67  372.3665
  68  342.9437
  69  294.8518
  70  280.1122
  71  375.997
  72  540.8443
  73  490.8356
  74  318.1396
  75  177.9517
  76  178.057
  77  196.6876
  78  176.4085
  79  211.3413
  80  302.9043
  81  399.8265
  82  435.709
  83  451.0829
  84  440.4775
  85  388.5908
  86  365.3457
  87  366.2018
  88  414.1867
  89  452.9429
  90  525.6831
  91  372.2142
  92  282.8496
  93  145.3811
  94  139.8059
  95  191.9691
  96  292.4992
  97  437.3698
  98  533.2171
  99  518.0883
 100  529.9089
 101  532.8501
 102  487.4665
 103  484.7245
 104  570.0421
 105  628.1357
 106  541.7803
 107  358.9449
 108  325.9055
 109  318.8453
 110  373.6449
 111  336.6386
 112  424.8833
 113  540.1607
 114  616.8239
 115  549.9402
 116  398.6205
 117  340.3226
 118  371.208
 119  393.0358
 120  395.9508
 121  288.3778
 122  364.593
 123  380.4574
 124  422.5359
 125  460.8323
 126  420.9552
 127  475.0626
 128  412.598
 129  378.1527
 130  225.5834
 131  125.5041
 132  150.481
 133  216.8241
 134  304.2365
 135  371.3339
 136  453.0461
 137  553.7374
 138  570.0002
 139  496.102
 140  322.139
 141  241.1495
 142  323.4938
 143  444.0721
 144  415.0197
 145  312.1746
 146  289.6082
 147  285.2365
 148  134.6333
 149  141.6327
 150  198.4543
 151  254.6705
 152  208.3427
 153  278.2314
 154  417.9833
 155  500.3368
 156  390.5218
 157  189.7935
 158  113.9778
 159  134.5866
 160  184.5687
 161  195.1277
 162  248.5952
 163  210.8643
 164  249.3368
 165  216.0677
 166  244.7763
 167  207.8254
 168  244.413
 169  303.8501
 170  286.32
 171  274.5951
 172  256.8135
 173  294.6961
 174  191.6629
 175  218.3714
 176  250.0103
 177  281.2188
 178  157.0702
 179  140.451
 180  182.0661
 181  260.0702
 182  304.0395
 183  196.3258
 184  183.3885
 185  237.9707
 186  321.8998
 187  316.5233
 188  276.7831
 189  375.9335
 190  392.6738
 191  556.6125
 192  565.8334
 193  560.4695
 194  438.3519
 195  468.5907
 196  415.6333
 197  391.7409
 198  377.8348
 199  365.557
 200  342.9182
 201  317.9624
 202  320.4298
 203  385.4516
 204  366.2451
 205  376.1884
 206  394.0941
 207  502.6379
 208  486.8805
 209  346.9687
 210  203.3913
 211  133.7994
 212  214.3531
 213  228.6238
 214  201.9864
 215  251.4438
 216  332.984
 217  336.115
 218  260.9629
 219  198.8984
 220  225.917
 221  251.4914
 222  243.5145
 223  284.9565
 224  341.3422
 225  446.4111
 226  458.1375
 227  473.2985
 228  410.3454
 229  369.3281
 230  303.6457
 231  208.6979
 232  144.3308
 233  258.469
 234  414.6565
 235  448.0066
 236  372.2417
 237  323.806
 238  275.7267
 239  240.9636
 240  263.1812
 241  268.0326
 242  267.096
 243  384.0038
 244  373.4438
 245  345.6915
 246  180.5153
 247  247.8646
 248  293.8103
 249  333.1341
 250  383.1658
 251  415.6381
 252  404.2763
 253  343.7045
 254  283.0587
 255  243.9621
 256  222.2523
 257  350.4918
 258  352.8436
 259  424.2457
 260  474.0511
 261  497.8862
 262  369.0978
 263  206.9244
 264  150.4416
 265  171.7622
 266  115.607
 267  155.2376
 268  140.4722
 269  186.6188
 270  197.8929
 271  278.3365
 272  267.8296
 273  194.2619
 274  216.7713
 275  278.6608
 276  244.2714
 277  130.0004
 278  77.62405
 279  196.7816
 280  340.9745
 281  430.4276
 282  444.9624
 283  328.9507
 284  244.6465
 285  215.9983
 286  262.0104
 287  294.4281
 288  294.7492
 289  301.3808
 290  369.94
 291  389.4619
 292  362.4156
 293  298.9538
 294  273.8179
 295  357.0153
 296  303.4945
 297  309.5446
 298  282.1514
 299  356.0726
 300  434.8751
 301  532.0168
 302  581.5972
 303  549.9691
 304  615.0357
 305  629.9554
 306  554.0664
 307  365.3169
 308  202.5124
 309  269.1528
 310  379.5435
 311  483.4642
 312  427.2999
 313  387.7375
 314  316.0039
 315  329.232
 316  217.6288
 317  210.894
 318  100.3752
 319  184.5957
 320  315.7723
 321  421.9748
 322  348.0639
 323  209.9616
 324  157.2416
 325  196.4249
 326  224.5735
 327  162.1769
 328  107.9257
 329  77.85342
 330  93.16877
 331  124.0559
 332  258.5411
 333  239.6444
 334  328.9205
 335  211.3184
 336  223.3728
 337  214.6719
 338  214.624
 339  259.8989
 340  286.7585
 341  310.0834
 342  284.5124
 343  215.8913
 344  151.3486
 345  217.6019
 346  310.9458
 347  300.6479
 348  260.904
 349  346.3982
 350  369.8682
 351  236.8707
 352  126.7331
 353  255.9796
 354  375.9382
 355  309.1497
 356  206.4267
 357  156.7093
 358  262.7104
 359  240.5039
 360  260.9335
 361  279.1443
 362  283.817
 363  359.6084
 364  377.2704
 365  361.9353
 366  318.0239
 367  351.3186
 368  356.9045
 369  340.7376
 370  329.2611
 371  382.5955
 372  404.5283
 373  342.2151
 374  294.8947
 375  274.3961
 376  300.5748
 377  384.4491
 378  331.6174
 379  340.0527
 380  423.7252
 381  520.5682
 382  439.1248
 383  284.1605
 384  227.5464
 385  346.3148
 386  393.9539
 387  419.0612
 388  461.8272
 389  549.8435
 390  532.15
 391  536.1533
 392  492.3697
 393  462.2133
 394  352.2704
 395  417.8738
 396  488.2776
 397  530.1282
 398  419.7603
 399  369.5019
 400  318.8298
 401  360.8988
 402  361.0826
 403  447.7313
 404  452.9216
 405  474.5175
 406  366.9598
 407  311.8406
 408  466.4179
 409  549.2062
 410  543.8327
 411  373.1409
 412  388.5809
 413  405.6794
 414  476.4019
 415  379.3617
 416  293.3199
 417  283.0952
 418  386.6131
 419  426.4026
 420  472.5652
 421  322.8337
 422  290.5046
 423  285.0299
 424  329.4594
 425  249.4791
 426  136.6835
 427  155.1742
 428  262.2653
 429  273.4177
 430  240.1617
 431  178.1714
 432  161.3932
 433  80.68251
 434  139.8708
 435  200.9523
 436  350.3353
 437  355.7951
 438  409.0378
 439  373.8635
 440  247.949
 441  232.8104
 442  323.4331
 443  433.2983
 444  428.2917
 445  358.2503
 446  298.1933
 447  236.5934
 448  222.8404
 449  229.6078
 450  284.6689
 451  426.0259
 452  385.7225
 453  360.4301
 454  306.0916
 455  319.5231
 456  358.4835
 457  316.4319
 458  406.877
 459  317.4314
 460  352.8633
 461  316.836
 462  360.7039
 463  467.4485
 464  484.4489
 465  523.0865
 466  383.2294
 467  318.3858
 468  240.4196
 469  255.548
 470  389.0397
 471  479.5216
 472  477.8072
 473  520.8237
 474  454.5733
 475  453.4114
 476  377.2778
 477  384.2093
 478  348.6386
 479  303.3558
 480  402.2615
 481  553.0027
 482  568.0729
 483  441.0098
 484  360.7254
 485  345.8983
 486  395.3305
 487  318.1049
 488  267.4193
 489  282.5574
 490  299.0695
 491  267.6066
 492  224.7775
 493  214.9219
 494  256.8531
 495  193.0717
 496  176.2693
 497  63.10302
 498  146.1883
 499  208.9905
 500  374.7696
 501  384.0528
 502  388.3132
 503  250.1071
 504  171.5268
 505  163.9864
 506  196.9045
 507  234.8101
 508  239.3705
 509  382.8347
 510  392.2993
 511  425.1328
 512  450.6458
 513  452.0741
 514  386.8803
 515  264.9336
 516  413.9408
 517  430.0659
 518  475.406
 519  460.206
 520  394.8301
 521  394.3042
 522  347.0297
 523  322.9865
 524  246.0526
 525  251.0546
 526  312.2783
 527  371.1267
 528  436.7431
 529  393.4719
 530  449.361
 531  423.2675
 532  481.4978
 533  431.0584
 534  460.4777
 535  512.3092
 536  519.5115
 537  443.6789
 538  326.2821
 539  284.318
 540  301.4007
 541  283.5477
 542  249.3492
 543  282.4886
 544  268.0049
 545  288.8255
 546  418.5445
 547  466.886
 548  437.6002
 549  481.3224
 550  512.4089
 551  496.028
 552  480.5563
 553  392.9601
 554  445.2501
 555  414.011
 556  457.431
 557  367.9112
 558  333.2789
 559  344.8376
 560  377.4255
 561  417.8399
 562  413.4389
 563  361.2487
 564  326.8971
 565  318.333
 566  283.8502
 567  284.2092
 568  325.9881
 569  341.9039
 570  364.1687
 571  390.3089
 572  488.4661
 573  483.7749
 574  496.965
 575  527.3585
 576  618.7712
 577  587.7471
 578  490.1702
 579  381.092
 580  336.1854
 581  260.5995
 582  192.9005
 583  195.1265
 584  325.9491
 585  468.26
 586  405.9698
 587  282.7045
 588  217.4943
 589  305.4333
 590  417.4326
 591  487.2206
 592  389.1265
 593  256.7162
 594  188.8968
 595  247.6958
 596  321.3628
 597  363.5079
 598  429.8305
 599  571.0142
 600  689.5587
 601  590.8163
 602  393.4164
 603  274.9626
 604  235.9842
 605  245.501
 606  374.8013
 607  533.907
 608  766.9222
 609  981.3466
 610  1149.881
 611  1165.379
 612  1198.74
 613  1179.523
 614  1134.079
 615  960.3931
 616  821.0264
 617  750.7292
 618  699.8071
 619  570.3945
 620  483.7945
 621  380.8054
 622  192.7043
 623  142.1583
 624  283.2011
 625  357.1073
 626  405.7274
 627  345.4971
 628  356.5533
 629  283.662
 630  259.8186
 631  308.4589
 632  313.5779
 633  401.6411
 634  360.6177
 635  298.5702
 636  181.1443
 637  188.1597
 638  250.8144
 639  300.3991
 640  277.711
 641  330.3771
 642  373.1819
 643  536.5681
 644  517.5869
 645  583.5397
 646  459.8038
 647  435.3289
 648  416.8081
 649  435.0991
 650  408.6046
 651  413.3441
 652  350.7032
 653  308.2551
 654  282.7689
 655  376.523
 656  285.7666
 657  326.6616
 658  405.7216
 659  479.1366
 660  381.7809
 661  299.3205
 662  249.237
 663  397.3766
 664  312.324
 665  301.1461
 666  267.3504
 667  278.4955
 668  219.1599
 669  156.0549
 670  161.6637
 671  282.0844
 672  392.2932
 673  417.7043
 674  476.6314
 675  462.1234
 676  514.806
 677  301.5413
 678  283.9721
 679  321.5902
 680  365.786
 681  336.8219
 682  192.9603
 683  233.2004
 684  111.4362
 685  153.4669
 686  189.9877
 687  291.4805
 688  421.8685
 689  410.3629
 690  382.4277
 691  306.1146
 692  295.0897
 693  321.2317
 694  387.8447
 695  361.7665
 696  299.0111
 697  225.4088
 698  351.1263
 699  424.6992
 700  431.6435
 701  355.9678
 702  275.4997
 703  332.7805
 704  351.4411
 705  340.0794
 706  456.8184
 707  447.3193
 708  436.1227
 709  215.7535
 710  260.5184
 711  262.627
 712  343.1466
 713  400.1409
 714  461.9865
 715  449.4366
 716  449.3372
 717  508.413
 718  500.831
 719  415.3014
 720  227.6286
 721  196.9518
 722  174.7171
 723  220.4209
 724  224.7254
 725  187.4419
 726  176.4261
 727  277.9876
 728  322.65
 729  411.5997
 730  463.8722
 731  486.9422
 732  443.1139
 733  328.1934
 734  354.0558
 735  269.1753
 736  250.4496
 737  242.938
 738  237.0951
 739  273.5531
 740  290.744
 741  305.6182
 742  286.3618
 743  279.4367
 744  349.7144
 745  305.8506
 746  266.9006
 747  196.52
 748  268.1963
 749  338.5691
 750  276.1083
 751  234.5173
 752  280.8867
 753  372.5144
 754  428.325
 755  362.5674
 756  346.1187
 757  421.6698
 758  428.7763
 759  378.94
 760  273.9886
 761  372.4245
 762  404.3324
 763  389.4381
 764  364.6365
 765  369.2142
 766  334.8783
 767  348.3387
 768  443.7546
 769  445.2137
 770  453.899
 771  414.9465
 772  426.1638
 773  341.3002
 774  270.7434
 775  247.0497
 776  255.8562
 777  302.9124
 778  340.3383
 779  363.1374
 780  366.1883
 781  371.2865
 782  384.8717
 783  314.3335
 784  279.6971
 785  389.8667
 786  409.3009
 787  221.2997
 788  177.8702
 789  260.0362
 790  352.7527
 791  278.9576
 792  151.1811
 793  211.7186
 794  275.4969
 795  314.1095
 796  249.1602
 797  297.3243
 798  315.7794
 799  307.2246
 800  251.4902
 801  209.7395
 802  267.6444
 803  303.4985
 804  395.3559
 805  326.3839
 806  282.9572
 807  316.7746
 808  344.573
 809  473.4179
 810  353.3494
 811  350.9853
 812  343.4168
 813  434.9361
 814  406.4898
 815  373.1306
 816  450.3142
 817  462.2371
 818  367.2933
 819  225.9553
 820  181.3932
 821  148.3462
 822  134.2128
 823  95.04089
 824  132.6128
 825  247.2149
 826  325.3327
 827  338.7574
 828  311.764
 829  193.9341
 830  185.3022
 831  184.8073
 832  216.4138
 833  242.8911
 834  363.9924
 835  420.148
 836  398.0338
 837  338.1741
 838  298.0905
 839  325.7961
 840  372.9642
 841  367.883
 842  367.2901
 843  417.7578
 844  397.9913
 845  467.0485
 846  398.2754
 847  433.0994
 848  417.0556
 849  419.9281
 850  433.6342
 851  300.3548
 852  319.9932
 853  256.3098
 854  325.9847
 855  341.468
 856  381.6508
 857  398.923
 858  459.0157
 859  350.933
 860  246.0952
 861  123.3245
 862  208.163
 863  307.5407
 864  428.2524
 865  463.0848
 866  400.8656
 867  325.4299
 868  283.6268
 869  209.5205
 870  253.343
 871  245.3798
 872  221.5719
 873  136.3454
 874  180.7511
 875  283.1275
 876  406.0683
 877  375.5216
 878  328.144
 879  292.5209
 880  293.4643
 881  259.1924
 882  350.4283
 883  329.4233
 884  396.504
 885  376.8294
 886  469.6603
 887  459.588
 888  483.865
 889  458.4085
 890  350.0092
 891  314.119
 892  374.212
 893  470.1977
 894  363.0449
 895  270.7042
 896  255.9155
 897  359.3381
 898  334.2284
 899  336.4904
 900  242.8133
 901  327.3708
 902  402.7648
 903  495.2797
 904  458.0265
 905  313.9094
 906  304.9001
 907  428.5767
 908  502.9233
 909  467.596
 910  267.5064
 911  222.178
 912  335.4655
 913  437.981
 914  462.3255
 915  486.241
 916  501.6699
 917  455.9203
 918  374.4998
 919  421.4851
 920  384.5835
 921  399.8983
 922  349.2412
 923  383.4083
 924  401.5927
 925  360.0626
 926  228.6464
 927  187.8095
 928  218.1189
 929  296.5649
 930  230.1519
 931  287.8857
 932  328.1046
 933  403.6014
 934  420.6741
 935  334.2454
 936  303.0384
 937  229.3608
 938  263.1398
 939  177.1107
 940  215.3936
 941  222.8255
 942  364.1188
 943  324.0941
 944  282.1817
 945  150.776
 946  89.05281
 947  73.26409
 948  128.2866
 949  201.3619
 950  203.0161
 951  190.7199
 952  333.3939
 953  457.6704
 954  356.1964
 955  334.9165
 956  303.5552
 957  352.1211
 958  265.0609
 959  286.2365
 960  295.9667
 961  317.8976
 962  343.4647
 963  351.5809
 964  339.031
 965  208.1607
 966  104.4644
 967  66.91039
 968  93.52711
 969  163.1463
 970  296.2938
 971  263.9211
 972  159.8518
 973  98.60942
 974  166.8374
 975  216.3901
 976  262.1967
 977  308.0741
 978  324.5898
 979  344.3875
 980  339.104
 981  375.4406
 982  496.9001
 983  499.321
 984  465.4466
 985  347.4771
 986  321.1752
 987  254.3857
 988  279.9325
 989  282.0545
 990  332.5428
 991  401.8118
 992  433.8616
 993  294.3423
 994  236.0829
 995  259.6428
 996  337.886
 997  219.7318
 998  167.6879
 999  104.4895
1000  202.6651
1001  271.1196
1002  335.9548
1003  260.2195
1004  168.2244
1005  142.1167
1006  131.9711
1007  153.7472
1008  298.4247
1009  451.2549
1010  451.3672
1011  368.9406
1012  352.3799
1013  329.3388
1014  240.727
1015  208.9335
1016  194.714
1017  219.4628
1018  257.1991
1019  281.869
1020  293.8975
1021  270.9297
1022  226.3945
1023  144.603
