# Input file       =  1202208038.118441_cleaned.dat
# Candidate        =  PSR_0332+5434
# Telescope        =  AR
# Epoch_topo       =  58158.445105537510
# Epoch_bary       =  N/A
# T_sample         =  0.002
# Data Folded      =  7208960
# Data Avg         =  0.0156457952362509
# Data StdDev      =  0.999959089404653
# Profile Bins     =  512
# Profile Avg      =  220.273220211427 
# Profile StdDev   =  118.654321376006 
# Reduced chi-sqr  =  1.935
# Prob(Noise)      <  8.42e-33   (~11.9 sigma)
# P_topo (ms)      =  714.57877530622   +/- 0.00011
# P'_topo (s/s)    =  -0                +/- 5.92e-11
# P''_topo (s/s^2) =  0                 +/- 2.66e-14
# P_bary (ms)      =  N/A
# P'_bary (s/s)    =  N/A
# P''_bary (s/s^2) =  N/A
# P_orb (s)        =  N/A
# asin(i)/c (s)    =  N/A
# eccentricity     =  N/A
# w (rad)          =  N/A
# T_peri           =  N/A
######################################################
   0  1014.069
   1  871.5358
   2  678.7181
   3  510.4367
   4  340.154
   5  349.7855
   6  275.2363
   7  262.4006
   8  311.5989
   9  163.314
  10  211.6385
  11  384.5871
  12  374.007
  13  264.9241
  14  245.2153
  15  160.0058
  16  59.0819
  17  147.4637
  18  161.4856
  19  97.28478
  20  254.6119
  21  204.8418
  22  280.6532
  23  317.0924
  24  332.6165
  25  226.1247
  26  139.0598
  27  90.5815
  28  223.4311
  29  370.1139
  30  425.6125
  31  216.6134
  32  130.3773
  33  136.473
  34  23.10686
  35  154.6915
  36  185.6719
  37  198.5207
  38  337.1064
  39  260.9555
  40  101.5911
  41  122.056
  42  199.0007
  43  184.3339
  44  144.7588
  45  150.1088
  46  137.8894
  47  9.094202
  48  -10.6026
  49  -58.27478
  50  105.4412
  51  273.7873
  52  240.6531
  53  118.199
  54  233.1563
  55  384.9532
  56  307.7197
  57  94.94048
  58  103.1222
  59  167.7011
  60  20.61868
  61  -39.19388
  62  209.7085
  63  287.1008
  64  274.8223
  65  224.9427
  66  150.5339
  67  248.5182
  68  246.1062
  69  341.0568
  70  306.7325
  71  316.4936
  72  435.7498
  73  394.0099
  74  251.2773
  75  201.6869
  76  311.5608
  77  295.4239
  78  349.1906
  79  401.7025
  80  400.7724
  81  347.4606
  82  277.0621
  83  274.3004
  84  220.7768
  85  92.49754
  86  158.2379
  87  319.1003
  88  336.8656
  89  184.1283
  90  178.4195
  91  283.8772
  92  189.4115
  93  81.03391
  94  86.52959
  95  213.5478
  96  280.3603
  97  260.0483
  98  149.064
  99  169.853
 100  156.2758
 101  157.6476
 102  249.8326
 103  307.2492
 104  313.4187
 105  268.4817
 106  336.4964
 107  408.617
 108  257.886
 109  227.2169
 110  268.0842
 111  332.1725
 112  203.4345
 113  131.222
 114  46.84435
 115  161.2718
 116  201.3423
 117  222.7475
 118  199.3378
 119  153.5595
 120  217.568
 121  220.6637
 122  217.2438
 123  238.9828
 124  138.4267
 125  226.2878
 126  244.5874
 127  86.50768
 128  202.7573
 129  277.0695
 130  200.9904
 131  68.0553
 132  99.06565
 133  202.5426
 134  209.0488
 135  145.1238
 136  143.8135
 137  187.6153
 138  216.8121
 139  193.1341
 140  -4.520079
 141  60.48365
 142  13.2892
 143  38.88678
 144  152.0548
 145  158.497
 146  148.0737
 147  149.9208
 148  105.7658
 149  14.63057
 150  127.0273
 151  100.2719
 152  152.4777
 153  117.5971
 154  39.49882
 155  224.894
 156  229.1098
 157  234.5789
 158  136.4085
 159  147.315
 160  243.4114
 161  373.448
 162  207.0435
 163  131.8488
 164  72.09409
 165  151.2957
 166  187.4412
 167  148.6117
 168  182.5912
 169  251.0985
 170  211.4539
 171  226.8584
 172  357.9425
 173  227.614
 174  220.6396
 175  259.1258
 176  182.0925
 177  145.2591
 178  180.7142
 179  109.3336
 180  208.3621
 181  185.2694
 182  106.1664
 183  265.4112
 184  302.2726
 185  355.1951
 186  312.8864
 187  424.6588
 188  333.5246
 189  279.1067
 190  360.433
 191  343.7784
 192  184.3354
 193  246.0326
 194  196.2604
 195  161.1174
 196  241.5406
 197  258.8047
 198  156.9945
 199  61.24197
 200  177.8714
 201  295.8117
 202  247.5361
 203  291.189
 204  250.3361
 205  293.4566
 206  267.3156
 207  257.3798
 208  236.4254
 209  257.6285
 210  288.3025
 211  246.7723
 212  285.8623
 213  308.0791
 214  195.0946
 215  180.6745
 216  189.0595
 217  255.6907
 218  376.88
 219  393.5469
 220  377.9343
 221  278.6934
 222  159.6197
 223  142.4751
 224  310.9686
 225  273.0949
 226  174.0824
 227  320.6787
 228  418.8965
 229  164.6909
 230  -0.2799466
 231  92.30782
 232  159.0925
 233  186.3467
 234  284.037
 235  413.1361
 236  298.6424
 237  73.17703
 238  94.43216
 239  152.6803
 240  150.7456
 241  214.8409
 242  267.7436
 243  201.916
 244  234.7099
 245  210.7392
 246  255.5239
 247  75.22463
 248  -40.5931
 249  167.1993
 250  202.9214
 251  137.1575
 252  243.7464
 253  308.9084
 254  270.6766
 255  300.7153
 256  214.7391
 257  192.8427
 258  169.3179
 259  280.3875
 260  267.1833
 261  216.5296
 262  197.5172
 263  119.2217
 264  47.00048
 265  223.4794
 266  299.6076
 267  345.3658
 268  334.8298
 269  299.0291
 270  238.057
 271  178.4628
 272  230.6424
 273  294.6497
 274  318.1779
 275  304.475
 276  188.3652
 277  159.5004
 278  264.0797
 279  199.9295
 280  163.0837
 281  226.9785
 282  170.1525
 283  16.27361
 284  262.5305
 285  351.4102
 286  360.8512
 287  345.6627
 288  252.6172
 289  294.6158
 290  215.15
 291  196.5737
 292  152.5608
 293  339.34
 294  352.2802
 295  241.9491
 296  189.4718
 297  219.5858
 298  144.0097
 299  73.61951
 300  163.698
 301  186.3488
 302  306.6653
 303  273.571
 304  126.4613
 305  95.26157
 306  80.84485
 307  242.4991
 308  289.5694
 309  241.2343
 310  308.9535
 311  176.073
 312  174.2187
 313  37.67181
 314  50.43551
 315  187.2312
 316  280.7956
 317  365.5489
 318  282.2854
 319  233.211
 320  360.832
 321  232.9028
 322  253.377
 323  366.1641
 324  183.0547
 325  80.18584
 326  213.7622
 327  186.3213
 328  290.1637
 329  275.3456
 330  192.4394
 331  57.00165
 332  145.4728
 333  77.5976
 334  110.2846
 335  318.6281
 336  404.5739
 337  193.469
 338  220.9178
 339  231.1169
 340  196.0532
 341  225.8674
 342  299.4228
 343  374.8635
 344  452.8813
 345  357.8061
 346  316.4247
 347  235.3671
 348  108.2296
 349  128.0116
 350  200.4119
 351  200.5198
 352  226.5757
 353  221.3423
 354  212.6561
 355  350.2745
 356  44.31182
 357  161.4832
 358  188.0584
 359  268.3395
 360  338.4741
 361  285.1781
 362  198.3218
 363  107.9309
 364  92.26929
 365  240.2702
 366  143.5516
 367  133.4033
 368  272.51
 369  220.486
 370  128.2224
 371  254.6051
 372  323.2
 373  376.7762
 374  284.3249
 375  189.7507
 376  231.4471
 377  214.2266
 378  258.338
 379  280.4432
 380  190.3555
 381  156.4646
 382  207.4993
 383  206.127
 384  362.3975
 385  222.4285
 386  110.5109
 387  206.1083
 388  189.641
 389  146.1792
 390  128.2507
 391  29.14994
 392  84.9558
 393  129.0284
 394  273.5735
 395  311.0877
 396  182.6876
 397  84.65241
 398  225.4809
 399  263.1209
 400  293.5
 401  276.867
 402  169.6527
 403  236.7743
 404  99.41853
 405  173.3213
 406  261.9639
 407  257.1105
 408  253.4778
 409  279.4708
 410  249.7616
 411  111.3871
 412  106.1936
 413  115.6546
 414  -32.41183
 415  19.17815
 416  204.4719
 417  218.9811
 418  210.3007
 419  163.2307
 420  256.6629
 421  323.1242
 422  314.8598
 423  256.9001
 424  101.5965
 425  76.23997
 426  241.6916
 427  278.136
 428  289.9122
 429  251.088
 430  237.7248
 431  128.1899
 432  116.412
 433  81.31031
 434  227.6321
 435  301.3983
 436  277.0909
 437  135.8362
 438  96.10674
 439  213.0063
 440  32.23695
 441  -88.31999
 442  177.5106
 443  224.7004
 444  203.7672
 445  213.3591
 446  118.049
 447  162.7862
 448  189.6211
 449  129.2918
 450  183.0311
 451  271.3502
 452  285.0959
 453  147.4782
 454  -25.53043
 455  130.7344
 456  103.2965
 457  110.4215
 458  94.58837
 459  209.7258
 460  301.6172
 461  220.5407
 462  210.9768
 463  140.1293
 464  78.99058
 465  194.6964
 466  203.1992
 467  144.8536
 468  216.9501
 469  343.749
 470  390.1921
 471  406.5432
 472  194.8883
 473  115.3987
 474  83.24564
 475  107.7821
 476  165.3064
 477  170.3438
 478  68.36143
 479  84.24995
 480  -21.10011
 481  195.9882
 482  337.7199
 483  343.5529
 484  263.5491
 485  308.6311
 486  354.5564
 487  158.4725
 488  140.3558
 489  192.7757
 490  179.6404
 491  138.9216
 492  105.378
 493  251.2699
 494  105.5969
 495  108.9235
 496  144.8179
 497  360.1118
 498  250.1656
 499  246.1103
 500  245.277
 501  346.5967
 502  372.0467
 503  296.1029
 504  447.8258
 505  333.0961
 506  169.7926
 507  264.0874
 508  515.3486
 509  663.6115
 510  906.6606
 511  1021.93
