# Input file       =  1202496185.116841-PSRB0329-2ms-sampling-dd.dat
# Candidate        =  PSR_0332+5434
# Telescope        =  AR
# Epoch_topo       =  58161.780140241215
# Epoch_bary       =  N/A
# T_sample         =  0.002
# Data Folded      =  7340032
# Data Avg         =  6.98536555737458e-10
# Data StdDev      =  5.23974454015366 
# Profile Bins     =  512
# Profile Avg      =  -0.169529963067965
# Profile StdDev   =  627.370523631179 
# Reduced chi-sqr  =  0.530
# Prob(Noise)      <  1   (~0.0 sigma)
# P_topo (ms)      =  714.57992968998   +/- 9.66e-05
# P'_topo (s/s)    =  -0                +/- 5.1e-11
# P''_topo (s/s^2) =  0                 +/- 2.25e-14
# P_bary (ms)      =  N/A
# P'_bary (s/s)    =  N/A
# P''_bary (s/s^2) =  N/A
# P_orb (s)        =  N/A
# asin(i)/c (s)    =  N/A
# eccentricity     =  N/A
# w (rad)          =  N/A
# T_peri           =  N/A
######################################################
   0  -60.17168
   1  -370.3702
   2  -530.5906
   3  -173.8078
   4  -367.7084
   5  -93.42564
   6  -149.993
   7  -77.25028
   8  -547.6609
   9  -860.6399
  10  -994.2972
  11  -572.0406
  12  -183.4523
  13  -132.8265
  14  -56.43663
  15  -311.2978
  16  -572.0359
  17  -652.9843
  18  -450.7898
  19  40.98534
  20  100.0885
  21  -416.8456
  22  -627.8956
  23  -649.5983
  24  -561.4856
  25  -530.5841
  26  -80.3539
  27  -57.03217
  28  -209.8547
  29  -465.335
  30  -808.8187
  31  -873.3388
  32  -130.1909
  33  243.4921
  34  35.20866
  35  -101.9309
  36  -180.4888
  37  -347.9028
  38  -394.1176
  39  -270.9758
  40  -79.60009
  41  -130.3761
  42  -532.7605
  43  -439.6897
  44  -66.01175
  45  358.9941
  46  -30.5164
  47  191.6214
  48  -124.3267
  49  -352.6162
  50  -565.4794
  51  -227.9639
  52  -139.7179
  53  153.4992
  54  326.4611
  55  -12.18919
  56  29.45982
  57  -126.8726
  58  -394.6844
  59  -235.6743
  60  -396.9105
  61  -359.955
  62  -352.8637
  63  -35.36872
  64  0.9794625
  65  263.2301
  66  267.588
  67  -95.24217
  68  220.8331
  69  -163.648
  70  397.1337
  71  328.3652
  72  376.0053
  73  239.5534
  74  -265.9002
  75  -306.8377
  76  -354.6855
  77  106.432
  78  344.7556
  79  235.6505
  80  51.38817
  81  -260.1943
  82  -202.2158
  83  -608.8686
  84  -379.3251
  85  -9.921312
  86  243.228
  87  260.7648
  88  -176.1953
  89  -300.3625
  90  -229.5956
  91  -319.9576
  92  -480.9662
  93  -300.4233
  94  -75.76786
  95  -203.7941
  96  -461.5008
  97  -337.4427
  98  -240.9261
  99  -29.85192
 100  438.4816
 101  324.0157
 102  468.7354
 103  133.5326
 104  123.98
 105  291.8258
 106  -83.24374
 107  98.10729
 108  239.3526
 109  376.3498
 110  649.0439
 111  731.5038
 112  827.2004
 113  531.5969
 114  361.7453
 115  165.7134
 116  291.2568
 117  14.23362
 118  55.42012
 119  267.2824
 120  428.9976
 121  453.2464
 122  269.469
 123  358.595
 124  335.2963
 125  0.1551453
 126  -75.51114
 127  379.0733
 128  312.1092
 129  325.7826
 130  -63.64396
 131  -29.71614
 132  52.68519
 133  167.5746
 134  288.0428
 135  448.2918
 136  330.5151
 137  312.4908
 138  513.7169
 139  116.9843
 140  454.8617
 141  355.4751
 142  158.4598
 143  -33.25114
 144  60.46735
 145  -20.69417
 146  184.3341
 147  328.4149
 148  209.3404
 149  -181.0422
 150  -749.5956
 151  -299.9491
 152  -183.5746
 153  194.0855
 154  480.5271
 155  -160.4408
 156  -154.9822
 157  -411.7761
 158  -473.2546
 159  -397.8164
 160  -163.8949
 161  234.3383
 162  239.0748
 163  216.6271
 164  -14.51352
 165  80.13255
 166  -96.32461
 167  142.3659
 168  181.6835
 169  552.6224
 170  206.1515
 171  -88.77708
 172  -52.76165
 173  4.110309
 174  -30.24413
 175  -135.8956
 176  27.65707
 177  -72.0291
 178  77.92698
 179  296.3161
 180  -91.54951
 181  -208.9117
 182  -221.3627
 183  35.24059
 184  -474.4731
 185  -684.7869
 186  -372.6228
 187  -176.2875
 188  291.9292
 189  132.2096
 190  -17.15814
 191  -157.4562
 192  -508.6013
 193  -194.8752
 194  73.46456
 195  -40.40399
 196  168.9009
 197  592.788
 198  252.1605
 199  134.7885
 200  165.2871
 201  19.85077
 202  -542.7128
 203  -448.4304
 204  131.2513
 205  333.6747
 206  439.167
 207  391.7806
 208  -175.9108
 209  -435.9582
 210  -87.63493
 211  193.977
 212  104.4078
 213  125.5143
 214  295.0008
 215  82.6865
 216  174.0341
 217  -292.7319
 218  -155.6083
 219  -598.5126
 220  -374.8357
 221  -322.3951
 222  -165.1593
 223  -328.4736
 224  -745.5817
 225  -425.6763
 226  -438.9824
 227  -34.86657
 228  232.3202
 229  239.5431
 230  225.2146
 231  -145.4767
 232  -140.5958
 233  -137.5139
 234  -147.3807
 235  65.46309
 236  -274.9915
 237  -350.1285
 238  -88.13713
 239  -32.88926
 240  -228.8712
 241  -56.96203
 242  -62.97256
 243  -159.6426
 244  -332.1637
 245  -126.7406
 246  217.6754
 247  219.3095
 248  -3.630827
 249  319.4433
 250  75.19357
 251  -413.6764
 252  -221.3263
 253  63.70281
 254  266.1932
 255  288.176
 256  351.052
 257  370.3205
 258  217.7761
 259  -256.3023
 260  -100.4623
 261  -372.3387
 262  161.7808
 263  266.6653
 264  365.6868
 265  589.6948
 266  169.9313
 267  136.3504
 268  -349.9355
 269  -258.4741
 270  -253.4172
 271  -4.301344
 272  316.1639
 273  57.65489
 274  76.43153
 275  54.57388
 276  -203.4546
 277  -351.8277
 278  28.48974
 279  375.8773
 280  426.3205
 281  570.6362
 282  120.7869
 283  -55.63467
 284  -328.4693
 285  -265.134
 286  54.16593
 287  187.4287
 288  286.1858
 289  134.2257
 290  305.9953
 291  -54.91185
 292  -58.69248
 293  -175.0082
 294  45.84009
 295  255.4101
 296  709.3159
 297  587.5839
 298  216.684
 299  735.1979
 300  431.0655
 301  295.1997
 302  -129.9557
 303  -242.8057
 304  143.0405
 305  36.8782
 306  -94.27019
 307  -135.0672
 308  -65.89777
 309  102.2232
 310  12.97633
 311  47.20085
 312  -41.64118
 313  -184.8266
 314  -46.8013
 315  -77.17196
 316  93.54293
 317  -166.5857
 318  -262.1164
 319  -525.4231
 320  -604.6299
 321  -676.9073
 322  -602.0214
 323  -307.9681
 324  -19.88404
 325  12.49729
 326  -231.9252
 327  -418.9316
 328  19.58453
 329  56.02627
 330  -50.06192
 331  189.6391
 332  240.2167
 333  -80.48194
 334  -31.18787
 335  -445.3622
 336  -185.2598
 337  44.77588
 338  294.7278
 339  223.4629
 340  -65.52121
 341  -16.11494
 342  -83.78805
 343  -654.9668
 344  -454.7396
 345  -147.0489
 346  -143.7074
 347  -110.1028
 348  248.0798
 349  161.0048
 350  -399.7397
 351  -1122.947
 352  -873.2811
 353  -220.6234
 354  5.179313
 355  130.5217
 356  234.4897
 357  219.0657
 358  11.3721
 359  -273.0637
 360  -260.2751
 361  299.4619
 362  601.6254
 363  500.1587
 364  635.4968
 365  423.1917
 366  -236.961
 367  -538.392
 368  103.8006
 369  426.4612
 370  640.4725
 371  568.1918
 372  109.6325
 373  201.87
 374  229.9447
 375  163.6727
 376  -37.93922
 377  235.5323
 378  527.712
 379  558.6498
 380  485.6437
 381  266.7782
 382  1.647993
 383  -107.2067
 384  -291.2001
 385  -55.28057
 386  -218.6073
 387  -204.5995
 388  -260.1101
 389  -27.30634
 390  46.61403
 391  51.55114
 392  -142.9668
 393  -438.3578
 394  -172.2738
 395  17.79297
 396  -146.6037
 397  110.3961
 398  338.1251
 399  101.2105
 400  193.1042
 401  66.96129
 402  -2.504966
 403  257.8909
 404  -191.4519
 405  -161.3866
 406  -313.7038
 407  -65.17286
 408  -76.2725
 409  -195.1596
 410  -100.2848
 411  -179.7356
 412  -89.3531
 413  73.3861
 414  -151.6393
 415  28.21774
 416  -146.4152
 417  -366.8109
 418  -127.7728
 419  -0.7202348
 420  148.1973
 421  263.0072
 422  646.6363
 423  397.8394
 424  -34.76178
 425  -274.6676
 426  -405.7616
 427  607.7451
 428  1029.547
 429  1239.807
 430  1489.26
 431  1344.016
 432  1291.767
 433  558.3981
 434  295.1283
 435  -301.9409
 436  -64.39326
 437  131.7484
 438  -12.77025
 439  -46.01388
 440  -3.322047
 441  -22.22128
 442  -33.49833
 443  -53.24195
 444  11.06769
 445  266.797
 446  302.3738
 447  359.2333
 448  242.8228
 449  147.9002
 450  59.41451
 451  166.8238
 452  37.39699
 453  117.9475
 454  -36.21687
 455  182.4888
 456  264.3038
 457  453.5042
 458  140.3687
 459  213.429
 460  -172.6102
 461  26.14493
 462  -90.12125
 463  364.3211
 464  660.3345
 465  409.3781
 466  401.4563
 467  216.5871
 468  187.9913
 469  53.83135
 470  417.8952
 471  76.33492
 472  -115.2442
 473  -30.61707
 474  -39.17246
 475  -174.7432
 476  -574.1146
 477  -489.5767
 478  -312.164
 479  -200.8024
 480  -223.4422
 481  -297.6388
 482  121.5546
 483  -23.21597
 484  127.1746
 485  208.1354
 486  -89.88527
 487  -383.8683
 488  -206.0737
 489  -77.23689
 490  62.89097
 491  369.6209
 492  142.9504
 493  139.1946
 494  -3.579359
 495  -89.50501
 496  -21.42385
 497  139.533
 498  389.0809
 499  542.0747
 500  251.8354
 501  -4.286009
 502  -233.6447
 503  -77.03958
 504  -547.5731
 505  -223.7326
 506  -100.8761
 507  -148.7611
 508  30.02297
 509  -109.4855
 510  85.97317
 511  -119.0964
