# Input file       =  1202481266.11084_cleaned.dat
# Candidate        =  PSR_0332+5434
# Telescope        =  AR
# Epoch_topo       =  58161.607466560650
# Epoch_bary       =  N/A
# T_sample         =  0.002
# Data Folded      =  7340032
# Data Avg         =  0.181866793551307
# Data StdDev      =  4.24225933337857 
# Profile Bins     =  512
# Profile Avg      =  2608.21771989402 
# Profile StdDev   =  507.938591083091 
# Reduced chi-sqr  =  0.908
# Prob(Noise)      <  0.934   (~0.0 sigma)
# P_topo (ms)      =  714.579556463536  +/- 0.000515
# P'_topo (s/s)    =  -0                +/- 2.72e-10
# P''_topo (s/s^2) =  0                 +/- 1.2e-13
# P_bary (ms)      =  N/A
# P'_bary (s/s)    =  N/A
# P''_bary (s/s^2) =  N/A
# P_orb (s)        =  N/A
# asin(i)/c (s)    =  N/A
# eccentricity     =  N/A
# w (rad)          =  N/A
# T_peri           =  N/A
######################################################
   0  2320.897
   1  2192.272
   2  1911.02
   3  2257.424
   4  2424.582
   5  2791.69
   6  2580.516
   7  2241.065
   8  1932.382
   9  2014.637
  10  2223.683
  11  2127.47
  12  2017.707
  13  2255.361
  14  2326.03
  15  2188.924
  16  1869.807
  17  1984.269
  18  1969.898
  19  1994.861
  20  2058.636
  21  2300.979
  22  2436.496
  23  2500.542
  24  2224.526
  25  2140.584
  26  2293.229
  27  2054.701
  28  2079.385
  29  2373.586
  30  2472.067
  31  2556.961
  32  2559.843
  33  2574.389
  34  2554.776
  35  2488.763
  36  2485.647
  37  2674.584
  38  2610.493
  39  2376.708
  40  2375.872
  41  2383.118
  42  2824.727
  43  2506.788
  44  2536.961
  45  2412.434
  46  2266.878
  47  2660.615
  48  2562.768
  49  2560.396
  50  2698.755
  51  2549.831
  52  2486.871
  53  2477.609
  54  2624.812
  55  2628.335
  56  2892.537
  57  2559.08
  58  2554.788
  59  2803.992
  60  3073.879
  61  3056.272
  62  2595.302
  63  2394.455
  64  2684.164
  65  2622.228
  66  2738.461
  67  2617.135
  68  2795.25
  69  2924.796
  70  2738.614
  71  2461.254
  72  2694.258
  73  2664.634
  74  2667.034
  75  2359.488
  76  2181.105
  77  2430.298
  78  2498.877
  79  2315.297
  80  2435.686
  81  2397.647
  82  2196.725
  83  2164.258
  84  2331.776
  85  2140.283
  86  2275.802
  87  2554.789
  88  2531.019
  89  2455.171
  90  2432.359
  91  2668.363
  92  2719.249
  93  2675.704
  94  2699.237
  95  2913.79
  96  3108.804
  97  2824.155
  98  2704.268
  99  2495.508
 100  2476.469
 101  2717.29
 102  2681.279
 103  2408.212
 104  2695.137
 105  3048.741
 106  2925.966
 107  2890.637
 108  2851.684
 109  2922.32
 110  2555.375
 111  2387.733
 112  2781.311
 113  2814.979
 114  2611.791
 115  2605.957
 116  2863.176
 117  2781.637
 118  3015.676
 119  3064.377
 120  2940.47
 121  2869.428
 122  3084.9
 123  3147.349
 124  3370.45
 125  3149.687
 126  2979.541
 127  3067.217
 128  2944.612
 129  3008.156
 130  2957.575
 131  2868.783
 132  2914.036
 133  2881.298
 134  2853.86
 135  2454.806
 136  2551.85
 137  2624.971
 138  2536.43
 139  2413.615
 140  2706.204
 141  2578.794
 142  2405.953
 143  2783.93
 144  2546.575
 145  2615.043
 146  2705.696
 147  2973.718
 148  2639.749
 149  2485.979
 150  2426.723
 151  2736.592
 152  2624.547
 153  2699.085
 154  2504.906
 155  2475.945
 156  2500.189
 157  2443.452
 158  2452.719
 159  2524.408
 160  2336.862
 161  2308.592
 162  2231.99
 163  2319.569
 164  2374.188
 165  2339.461
 166  2500.442
 167  2343.189
 168  2431.558
 169  2771.113
 170  2890.605
 171  2475.303
 172  2403.845
 173  2366.367
 174  2499.808
 175  2640.994
 176  3052.632
 177  2782.047
 178  2611.925
 179  2877.783
 180  2798.529
 181  2908.497
 182  3009.438
 183  3364.577
 184  3235.786
 185  2955.202
 186  2941.629
 187  2671.064
 188  2649.528
 189  2842.31
 190  2799.35
 191  2758.107
 192  2705.104
 193  2829.052
 194  2940.952
 195  2908.015
 196  2664.6
 197  2796.436
 198  3194.874
 199  3257.599
 200  2971.058
 201  3118.056
 202  3195.221
 203  2661.18
 204  2908.689
 205  3341.655
 206  3032.645
 207  2715.289
 208  2723.288
 209  2470.832
 210  2440.066
 211  2742.889
 212  2868.206
 213  2554.212
 214  2387.883
 215  2786.497
 216  2358.315
 217  2544.239
 218  2866.836
 219  2965.503
 220  2741.085
 221  2926.981
 222  2608.347
 223  2335.217
 224  2394.176
 225  2704.329
 226  2614.447
 227  2481.483
 228  2492.237
 229  2494.658
 230  2500.641
 231  2848.054
 232  2971.276
 233  2816.096
 234  2589.868
 235  2703.259
 236  2838.149
 237  2831.659
 238  3161.539
 239  3236.194
 240  3312.492
 241  3362.329
 242  3258.544
 243  3092.794
 244  3141.789
 245  2923.942
 246  2938.321
 247  2899.238
 248  2760.634
 249  3073.265
 250  2707.632
 251  2453.168
 252  2704.373
 253  2526.299
 254  3008.161
 255  3172.988
 256  2913.655
 257  3230.688
 258  3134.809
 259  3117.178
 260  2873.807
 261  2776.582
 262  2640.618
 263  2851.86
 264  2996.541
 265  2953.989
 266  2995.802
 267  2471.529
 268  2678.227
 269  2806.5
 270  2473.299
 271  2420.223
 272  2460.272
 273  2676.279
 274  2879.793
 275  2693.723
 276  2319.234
 277  2358.247
 278  2545.449
 279  2719.634
 280  2608.725
 281  2520.382
 282  2666.389
 283  2584.234
 284  2557.927
 285  2811.443
 286  2535.497
 287  2516.587
 288  2590.47
 289  2347.04
 290  2282.54
 291  2479.314
 292  2788.185
 293  2801.373
 294  2782.158
 295  2693.092
 296  2683.848
 297  2748.847
 298  2697.128
 299  2603.476
 300  2896.062
 301  3022.977
 302  3083.66
 303  3422.379
 304  3896.303
 305  4679.815
 306  4983.119
 307  4510.422
 308  4084.523
 309  3520.974
 310  2847.697
 311  2590.955
 312  2438.879
 313  2572.517
 314  2580.913
 315  2627.527
 316  2501.863
 317  2245.209
 318  2147.226
 319  2418.601
 320  2718.847
 321  2651.156
 322  2573.653
 323  2682.861
 324  2564.649
 325  2330.046
 326  2496.895
 327  3030.116
 328  2788.412
 329  2753.631
 330  2809.302
 331  2680.027
 332  2694.554
 333  2567.397
 334  2647.583
 335  2933.775
 336  2936.803
 337  2789.114
 338  2993.976
 339  2992.862
 340  2855.345
 341  2704.751
 342  2806.52
 343  2740.637
 344  2508.104
 345  2729.424
 346  2826.113
 347  2915.274
 348  2920.457
 349  2615.276
 350  2665.689
 351  2502.795
 352  2493.526
 353  2555.45
 354  2256.628
 355  2384.907
 356  2414.819
 357  2479.081
 358  2389.111
 359  2436.937
 360  2509.719
 361  2674.158
 362  2687.609
 363  2382.019
 364  2503.856
 365  2432.458
 366  2326.18
 367  2545.478
 368  2509.222
 369  2283.017
 370  2513.425
 371  2431.95
 372  2295.263
 373  2430.744
 374  2287.194
 375  2194.836
 376  2230.122
 377  2283.759
 378  2516.242
 379  2408.508
 380  2007.781
 381  2117.876
 382  2406.383
 383  2299.666
 384  2781.567
 385  2851.241
 386  2571.107
 387  2334.088
 388  2746.563
 389  2685.038
 390  2521.54
 391  2504.308
 392  2561.463
 393  2139.646
 394  1852.739
 395  2276.633
 396  2402.206
 397  2260.824
 398  2277.028
 399  2310.31
 400  2444.019
 401  2367.566
 402  2780.141
 403  2616.85
 404  2935.958
 405  2994.507
 406  2741.37
 407  2595.93
 408  2664.831
 409  2636.876
 410  2344.979
 411  2471.303
 412  2505.394
 413  2377.399
 414  2560.471
 415  2546.193
 416  2298.658
 417  2620.608
 418  2756.089
 419  2772.637
 420  2806.162
 421  2574.3
 422  2385.308
 423  2344.675
 424  2472.476
 425  2778.63
 426  2772.317
 427  2722.642
 428  2706.298
 429  2767.082
 430  2693.859
 431  2862.482
 432  2884.015
 433  2870.697
 434  2586.446
 435  2318.35
 436  2361.771
 437  2430.696
 438  2672.677
 439  2492.217
 440  2164.905
 441  2070.398
 442  2111.83
 443  2360.109
 444  2136.885
 445  2075.402
 446  2358.822
 447  2083.574
 448  1831.285
 449  1778.875
 450  2135.426
 451  2466.897
 452  2446.482
 453  2236.633
 454  2259.562
 455  1979.888
 456  2112.904
 457  2194.43
 458  2186.503
 459  2551.067
 460  2556.453
 461  1996.09
 462  1704.878
 463  1741.715
 464  1599.31
 465  1674.328
 466  2151.113
 467  2174.68
 468  2083.758
 469  2331.241
 470  2326.603
 471  2057.723
 472  2199.074
 473  2644.219
 474  2728.932
 475  2639.675
 476  2829.097
 477  2659.882
 478  2738.274
 479  2695.027
 480  2687.834
 481  2582.294
 482  2680.095
 483  2647.114
 484  2283.431
 485  2724.043
 486  2625.102
 487  2331.445
 488  2315.005
 489  2617.455
 490  2661.729
 491  2713.468
 492  2694.411
 493  2359.848
 494  2389.333
 495  2273.249
 496  2255.191
 497  2414.238
 498  2298.832
 499  2422.381
 500  2664.765
 501  2197.633
 502  2394.771
 503  2728.499
 504  2759.236
 505  2816.036
 506  2800.028
 507  2777.442
 508  2493.259
 509  2322.151
 510  2301.078
 511  2356.683
