# Input file       =  1202725192.115500-PSRB0329-2ms-sampling-dd.dat
# Candidate        =  PSR_0332+5434
# Telescope        =  AR
# Epoch_topo       =  58164.430684207175
# Epoch_bary       =  N/A
# T_sample         =  0.002
# Data Folded      =  7208960
# Data Avg         =  -1.10318586977826e-10
# Data StdDev      =  7.19121377781412 
# Profile Bins     =  512
# Profile Avg      =  0.222405572608107
# Profile StdDev   =  853.303499830505 
# Reduced chi-sqr  =  0.538
# Prob(Noise)      <  1   (~0.0 sigma)
# P_topo (ms)      =  714.580061930906  +/- 0.000123
# P'_topo (s/s)    =  -0                +/- 6.58e-11
# P''_topo (s/s^2) =  0                 +/- 2.96e-14
# P_bary (ms)      =  N/A
# P'_bary (s/s)    =  N/A
# P''_bary (s/s^2) =  N/A
# P_orb (s)        =  N/A
# asin(i)/c (s)    =  N/A
# eccentricity     =  N/A
# w (rad)          =  N/A
# T_peri           =  N/A
######################################################
   0  -725.8677
   1  -798.5371
   2  -570.5134
   3  -384.9495
   4  -621.5745
   5  -616.6937
   6  -553.5892
   7  -835.7947
   8  -1070.089
   9  -1357.309
  10  -839.4406
  11  47.39608
  12  418.9239
  13  65.95539
  14  -306.757
  15  -276.052
  16  -241.2234
  17  -388.9714
  18  199.2894
  19  266.4792
  20  148.0572
  21  -387.4753
  22  -293.0593
  23  -142.5827
  24  -496.0678
  25  -307.5074
  26  -96.12988
  27  -189.345
  28  -581.9303
  29  -376.3972
  30  -518.7142
  31  -267.545
  32  -148.943
  33  -345.2002
  34  -730.4305
  35  -684.91
  36  -827.0054
  37  -824.8014
  38  -695.3666
  39  -428.6447
  40  -322.8299
  41  -219.9772
  42  -402.0407
  43  -269.7559
  44  -77.56538
  45  -65.40611
  46  -296.8263
  47  -484.0835
  48  -269.6151
  49  -100.6475
  50  83.72436
  51  50.15083
  52  288.2129
  53  -240.7844
  54  -731.2664
  55  -752.7834
  56  -662.5942
  57  -319.884
  58  -232.9759
  59  1.736476
  60  61.9097
  61  -173.3246
  62  -0.6117993
  63  -24.12293
  64  -340.3742
  65  -264.7896
  66  -132.7721
  67  149.6875
  68  185.7205
  69  -138.3259
  70  -209.1261
  71  -828.5169
  72  -739.9676
  73  -143.2887
  74  -102.0298
  75  147.98
  76  335.0599
  77  1268.746
  78  1385.696
  79  1405.597
  80  1478.418
  81  1534.497
  82  1860.011
  83  1277.975
  84  1347.588
  85  1128.198
  86  620.5194
  87  219.5015
  88  140.7347
  89  79.11386
  90  -428.5063
  91  -244.7867
  92  335.4283
  93  675.0489
  94  647.8572
  95  325.151
  96  122.6163
  97  -243.5788
  98  -435.4546
  99  -575.9677
 100  -224.5915
 101  87.34814
 102  640.4819
 103  342.7076
 104  -481.9562
 105  -409.0207
 106  -306.6584
 107  133.2653
 108  465.5311
 109  658.0701
 110  350.4784
 111  -279.9497
 112  -640.9174
 113  -324.5305
 114  206.5001
 115  70.04335
 116  16.58392
 117  303.4766
 118  219.3612
 119  -184.7915
 120  -425.2672
 121  -114.6831
 122  -340.6685
 123  16.20937
 124  -192.5379
 125  -152.402
 126  520.0771
 127  576.5521
 128  341.9881
 129  -78.99785
 130  -203.6371
 131  -703.1669
 132  -615.5623
 133  -470.3686
 134  -239.0311
 135  -148.9482
 136  -388.2141
 137  -879.3135
 138  -806.7969
 139  -406.5506
 140  5.206445
 141  438.6406
 142  295.3497
 143  266.699
 144  6.999707
 145  -195.7635
 146  35.30502
 147  12.94681
 148  465.1575
 149  -231.3734
 150  -101.757
 151  463.7618
 152  38.94808
 153  221.1299
 154  142.0597
 155  300.17
 156  -80.80927
 157  -539.8159
 158  -55.57898
 159  672.8877
 160  1216.924
 161  1099.225
 162  712.2707
 163  26.19373
 164  -58.29618
 165  -513.0892
 166  -188.6886
 167  670.0181
 168  822.4371
 169  610.9663
 170  -108.7039
 171  -86.72361
 172  -192.2451
 173  319.6542
 174  546.9545
 175  422.8711
 176  585.2118
 177  470.5777
 178  19.54709
 179  -250.8504
 180  326.1489
 181  251.7072
 182  -99.23937
 183  236.7788
 184  414.6848
 185  147.5975
 186  -161.9004
 187  89.22559
 188  308.6915
 189  -279.4412
 190  -169.072
 191  325.3311
 192  584.3167
 193  350.8327
 194  362.1018
 195  96.36224
 196  -570.8995
 197  -446.9037
 198  -425.9755
 199  -358.4675
 200  -169.5681
 201  41.61677
 202  90.04159
 203  -344.9809
 204  -431.5423
 205  -499.5095
 206  -194.4533
 207  -33.07426
 208  172.199
 209  340.2775
 210  214.1941
 211  231.0751
 212  345.5396
 213  -128.9813
 214  -227.8652
 215  -336.4428
 216  95.40204
 217  143.1372
 218  -203.9533
 219  -404.5654
 220  -185.143
 221  -100.0464
 222  -195.1346
 223  -753.52
 224  316.9792
 225  491.7718
 226  1059.568
 227  567.918
 228  -41.83617
 229  -395.6914
 230  -351.4541
 231  -348.3234
 232  -46.30679
 233  183.9369
 234  259.0986
 235  -58.32589
 236  -257.9495
 237  -71.40768
 238  -203.2045
 239  -353.5765
 240  -104.1442
 241  453.2999
 242  598.0701
 243  899.2842
 244  322.1969
 245  -179.9909
 246  -353.6942
 247  143.3167
 248  85.3178
 249  -22.79052
 250  -58.06872
 251  170.425
 252  369.8694
 253  -163.0284
 254  -515.4955
 255  -506.0429
 256  3.790777
 257  -27.13998
 258  648.6403
 259  701.498
 260  377.0082
 261  241.4224
 262  -343.1161
 263  -199.5698
 264  -348.5676
 265  49.32946
 266  591.9811
 267  350.546
 268  -33.11395
 269  -116.4243
 270  -48.11681
 271  -589.1109
 272  -483.3928
 273  -355.9088
 274  -77.70174
 275  393.728
 276  649.4161
 277  741.4178
 278  134.4446
 279  284.4332
 280  113.891
 281  125.4586
 282  291.3021
 283  295.3136
 284  336.7542
 285  -0.6869288
 286  -190.5738
 287  -209.9447
 288  220.3358
 289  177.6469
 290  -121.8198
 291  -117.2887
 292  -553.1832
 293  -538.3809
 294  -42.47233
 295  -29.69406
 296  -106.5737
 297  -529.3778
 298  -913.1366
 299  -686.736
 300  -168.4401
 301  -257.4861
 302  -211.8166
 303  -314.7337
 304  -511.8695
 305  -1113.101
 306  -893.5946
 307  -254.2935
 308  252.1562
 309  562.4869
 310  522.8596
 311  38.42233
 312  -421.3829
 313  -327.2544
 314  -503.6746
 315  2.298632
 316  302.8061
 317  -98.14997
 318  -40.2793
 319  -210.6707
 320  316.953
 321  255.3062
 322  -35.72265
 323  485.8159
 324  251.6173
 325  781.6249
 326  98.32494
 327  108.134
 328  723.8276
 329  510.6059
 330  290.7315
 331  -95.1617
 332  -385.2015
 333  -209.2909
 334  -355.4604
 335  1.324981
 336  -232.1886
 337  -218.891
 338  -638.1663
 339  -830.1661
 340  -586.0159
 341  353.3043
 342  289.0276
 343  89.97932
 344  107.6747
 345  127.131
 346  -338.9112
 347  -366.5429
 348  -365.9308
 349  -136.1344
 350  9.488506
 351  -278.7662
 352  -442.907
 353  -476.3356
 354  -93.88558
 355  17.41781
 356  -704.7629
 357  -210.4112
 358  239.2015
 359  81.42449
 360  198.9209
 361  338.904
 362  252.6623
 363  -491.1436
 364  -687.2622
 365  -651.5959
 366  -774.2601
 367  -331.537
 368  -458.2459
 369  -67.7907
 370  -194.137
 371  -526.8906
 372  -482.5276
 373  -525.255
 374  -225.4408
 375  -341.6865
 376  -321.247
 377  25.76651
 378  -353.5611
 379  -912.7159
 380  -506.4773
 381  -362.8553
 382  54.8741
 383  -106.768
 384  -179.5887
 385  -402.4367
 386  -597.1082
 387  295.2738
 388  129.8778
 389  588.1052
 390  1103.837
 391  1275.052
 392  813.1771
 393  -298.2213
 394  566.7092
 395  778.8896
 396  476.9555
 397  286.1483
 398  153.2597
 399  177.3934
 400  -138.0347
 401  180.0586
 402  180.295
 403  -399.4759
 404  -133.3426
 405  110.9558
 406  690.0324
 407  928.9927
 408  905.1781
 409  684.9464
 410  -11.66186
 411  666.1362
 412  860.2516
 413  436.2144
 414  771.2495
 415  481.8371
 416  794.5165
 417  524.2686
 418  498.9132
 419  288.5748
 420  -198.5421
 421  -454.3899
 422  -384.3987
 423  82.08924
 424  237.006
 425  31.69756
 426  399.9865
 427  484.2273
 428  265.0238
 429  31.41586
 430  6.966695
 431  421.7762
 432  55.35441
 433  246.0372
 434  103.1863
 435  200.1327
 436  289.246
 437  -218.3318
 438  -26.19034
 439  99.84815
 440  -55.7395
 441  280.8898
 442  94.63449
 443  168.5909
 444  226.5327
 445  268.6957
 446  -36.10208
 447  -345.5678
 448  -154.0974
 449  -100.6611
 450  228.544
 451  192.3681
 452  121.6241
 453  69.69198
 454  -46.33424
 455  -172.2424
 456  681.8827
 457  1020.959
 458  938.0424
 459  282.3069
 460  292.1347
 461  317.37
 462  375.4397
 463  672.4391
 464  361.5724
 465  455.0056
 466  235.6915
 467  343.7213
 468  750.913
 469  344.2106
 470  238.6345
 471  -103.047
 472  118.4145
 473  193.8189
 474  373.744
 475  336.8032
 476  321.252
 477  573.1547
 478  666.5191
 479  118.7005
 480  169.5105
 481  -112.4114
 482  -156.7318
 483  -227.3181
 484  -131.4228
 485  -393.1662
 486  -560.8125
 487  -177.9109
 488  -254.7879
 489  -443.2578
 490  463.8866
 491  332.6694
 492  150.5145
 493  -442.1291
 494  -367.5235
 495  -225.5087
 496  -488.4448
 497  -158.2719
 498  39.68102
 499  125.433
 500  -410.9221
 501  -699.9852
 502  -33.01069
 503  -88.53216
 504  19.09514
 505  -252.4502
 506  -462.8689
 507  -508.402
 508  -596.7231
 509  -199.0829
 510  -653.3193
 511  -510.025
