# Input file       =  1202294239.113467_cleaned.dat
# Candidate        =  PSR_0332+5434
# Telescope        =  AR
# Epoch_topo       =  58159.442802239202
# Epoch_bary       =  N/A
# T_sample         =  0.002
# Data Folded      =  7143424
# Data Avg         =  0.144242390149717
# Data StdDev      =  4.6263453245231  
# Profile Bins     =  512
# Profile Avg      =  2012.46776884016 
# Profile StdDev   =  546.457361056973 
# Reduced chi-sqr  =  3.225
# Prob(Noise)      <  1.22e-119   (~23.2 sigma)
# P_topo (ms)      =  714.579036440233  +/- 1.37e-05
# P'_topo (s/s)    =  -0                +/- 7.41e-12
# P''_topo (s/s^2) =  0                 +/- 3.36e-15
# P_bary (ms)      =  N/A
# P'_bary (s/s)    =  N/A
# P''_bary (s/s^2) =  N/A
# P_orb (s)        =  N/A
# asin(i)/c (s)    =  N/A
# eccentricity     =  N/A
# w (rad)          =  N/A
# T_peri           =  N/A
######################################################
   0  1402.446
   1  1975.393
   2  2844.359
   3  3108.596
   4  2981.007
   5  2245.727
   6  1777.216
   7  1667.036
   8  1178.803
   9  1340.022
  10  1964.894
  11  3086.4
  12  2960.535
  13  1767.583
  14  1460.954
  15  1487.497
  16  1415.451
  17  1338.012
  18  2084.811
  19  3443.312
  20  3497.553
  21  2770.072
  22  1752.842
  23  1503.078
  24  1335.432
  25  1215.78
  26  1814.078
  27  2785.384
  28  3004.051
  29  2006.245
  30  1555.643
  31  1041.993
  32  1171.554
  33  1175.509
  34  1663.679
  35  2480.777
  36  3349.104
  37  3050.677
  38  2261.201
  39  1869.201
  40  1993.177
  41  1443.584
  42  1297.704
  43  1900.113
  44  2510.707
  45  2263.411
  46  1933.495
  47  1382.075
  48  1484.52
  49  1114.612
  50  1177.447
  51  2098.901
  52  3084.607
  53  3380.207
  54  2302.785
  55  1546.004
  56  1328.566
  57  2023.693
  58  1848.532
  59  1668.088
  60  2338.89
  61  2772.479
  62  1943.802
  63  1155.855
  64  1239.549
  65  1316.882
  66  1551.677
  67  1989.037
  68  3058.09
  69  3346.866
  70  2812.547
  71  2294.419
  72  1713.723
  73  2059.02
  74  1601.336
  75  1223.861
  76  1748.682
  77  2106.747
  78  2141.555
  79  1873.713
  80  1634.801
  81  1215.29
  82  1348.662
  83  1833.447
  84  2438.46
  85  3152.736
  86  3226.045
  87  2747.701
  88  1810.917
  89  1217.292
  90  1469.338
  91  1368.086
  92  1484.95
  93  2291.966
  94  2644.758
  95  2162.648
  96  1346.487
  97  1062.322
  98  812.0159
  99  1103.063
 100  1716.003
 101  2710.35
 102  3581.532
 103  3558.002
 104  2527.867
 105  1780.705
 106  1081.765
 107  872.8079
 108  843.1144
 109  1669.889
 110  2905.027
 111  3102.719
 112  2059.298
 113  1357.306
 114  1298.783
 115  1247.64
 116  1376.688
 117  2106.19
 118  2880.302
 119  3240.937
 120  2653.771
 121  1400.707
 122  1623.338
 123  2085.466
 124  1683.962
 125  1694.994
 126  2252.52
 127  2508.673
 128  2137.739
 129  1565.683
 130  1295.855
 131  1094.37
 132  1150.287
 133  1647.716
 134  2564.136
 135  3511.508
 136  3055.166
 137  2213.464
 138  1538.986
 139  1584.951
 140  1417.741
 141  994.0438
 142  1608.552
 143  2505.893
 144  2765.259
 145  1944.847
 146  1333.438
 147  1226.427
 148  923.8886
 149  1408.999
 150  1824.372
 151  2580.696
 152  3255.986
 153  2301.898
 154  1543.716
 155  1483.136
 156  1619.093
 157  1599.699
 158  1641.732
 159  2353.312
 160  2941.846
 161  2328.083
 162  1495.723
 163  1231.09
 164  1297.228
 165  1331.821
 166  1766.398
 167  2418.576
 168  3024.806
 169  3290.71
 170  2466.418
 171  1640.504
 172  1214.473
 173  1071.254
 174  1517.67
 175  1917.746
 176  2573.973
 177  2676.817
 178  1808.846
 179  1209.139
 180  916.6112
 181  815.7773
 182  1116.252
 183  2010.847
 184  2920.511
 185  3096.715
 186  2596.516
 187  1675.885
 188  1536.295
 189  1564.126
 190  1417.832
 191  1767.487
 192  2343.448
 193  2604.814
 194  2076.337
 195  1636.522
 196  1436.671
 197  1063.889
 198  1349.654
 199  1709.691
 200  2752.41
 201  3624.73
 202  3283.248
 203  2240.221
 204  1516.785
 205  1209.594
 206  1676.855
 207  1512.963
 208  1574.431
 209  2100.455
 210  2131.134
 211  1929.868
 212  1236.61
 213  1474.003
 214  1234.47
 215  1430.616
 216  2069.776
 217  2801.043
 218  3283.482
 219  2696.38
 220  2403.158
 221  1915.723
 222  1823.525
 223  1469.094
 224  1301.82
 225  2212.876
 226  2608.104
 227  2355.975
 228  1535.489
 229  1400.14
 230  1631.153
 231  1624.943
 232  1860.469
 233  2436.934
 234  3353.27
 235  3402.776
 236  2505.222
 237  1865.713
 238  1882.299
 239  1837.129
 240  1636.846
 241  2125.226
 242  2633.505
 243  2632.394
 244  1709.454
 245  1124.46
 246  1111.142
 247  1211.682
 248  1544.958
 249  2289.006
 250  3096.271
 251  3461.492
 252  2893.659
 253  1893.472
 254  1708.8
 255  1652.241
 256  1518.965
 257  1423.367
 258  2251.628
 259  3263.96
 260  2597.706
 261  1763.25
 262  1125.211
 263  876.8356
 264  1265.028
 265  1635.55
 266  2550.839
 267  3212.489
 268  2967.364
 269  2125.935
 270  1340.36
 271  1612.498
 272  1718.03
 273  1690.568
 274  1890.219
 275  2653.269
 276  2739.168
 277  1939.43
 278  1137.467
 279  906.6586
 280  898.1789
 281  1545.019
 282  2228.177
 283  3019.74
 284  3489.07
 285  3003.838
 286  2294.578
 287  1910.984
 288  1764.997
 289  1408.986
 290  1584.851
 291  2474.147
 292  3205.682
 293  2504.025
 294  1925.809
 295  1385.619
 296  1163.983
 297  1214.68
 298  1576.874
 299  1989.116
 300  3146.072
 301  3168.51
 302  3046.74
 303  2491.64
 304  2724.571
 305  3227.165
 306  2967.961
 307  3226.365
 308  3901.548
 309  3354.019
 310  2494.156
 311  1664.154
 312  1497.752
 313  1498.439
 314  1721.052
 315  2449.147
 316  3046.813
 317  3583.057
 318  3027.863
 319  1999.02
 320  1573.209
 321  1654.432
 322  1273.627
 323  1350.046
 324  2061.702
 325  2844.628
 326  2240.089
 327  1485.73
 328  1311.079
 329  1205.793
 330  940.5551
 331  1283.766
 332  2383.116
 333  3254.259
 334  3069.562
 335  2309.377
 336  1779.835
 337  2029.772
 338  1961.268
 339  1801.127
 340  1926.313
 341  2564.659
 342  2701.764
 343  1397.995
 344  1307.237
 345  1067.909
 346  1065.348
 347  1161.909
 348  1934.187
 349  2761.807
 350  3279.097
 351  2766.189
 352  1504.959
 353  1093.211
 354  1235.872
 355  1467.249
 356  1513.094
 357  2509.462
 358  3306.008
 359  2503.888
 360  1458.96
 361  1137.481
 362  989.7336
 363  840.6413
 364  1332.584
 365  2234.876
 366  3245.069
 367  2974.767
 368  2359.158
 369  1816.363
 370  1520.426
 371  1473.92
 372  1390.37
 373  1804.985
 374  2490.278
 375  2339.697
 376  1952.521
 377  1182.438
 378  1027.104
 379  1258.479
 380  1424.573
 381  2004.569
 382  2943.885
 383  3430.85
 384  2718.319
 385  1873.964
 386  1506.362
 387  1861.283
 388  1794.922
 389  2026.036
 390  2486.412
 391  3103.04
 392  2698.767
 393  1571.186
 394  1301.539
 395  1426.902
 396  1404.244
 397  1528.963
 398  2158.271
 399  3223.019
 400  3342.443
 401  2320.699
 402  1598.1
 403  1666.093
 404  1777.043
 405  1651.713
 406  1600.438
 407  2304.681
 408  2858.597
 409  2288.899
 410  1499.972
 411  1232.423
 412  1418.909
 413  1667.255
 414  1904.485
 415  3131.193
 416  3274.405
 417  2615.748
 418  1811.929
 419  1242.182
 420  1626.258
 421  1753.372
 422  1687.491
 423  2462.686
 424  2931.244
 425  2327.459
 426  1210.051
 427  862.7533
 428  689.7902
 429  1373.726
 430  1614.829
 431  2473.073
 432  3009.781
 433  3535.987
 434  2727.154
 435  1784.098
 436  1700.696
 437  1696.817
 438  1285.342
 439  1603.452
 440  2447.063
 441  3446.286
 442  2811.549
 443  1823.563
 444  1839.344
 445  1516.552
 446  1403.955
 447  2189.95
 448  3162.42
 449  3615.263
 450  3072.814
 451  2029.517
 452  1756.979
 453  1656.092
 454  1414.11
 455  1339.889
 456  2065.861
 457  2751.822
 458  2637.624
 459  1743.433
 460  1163.702
 461  1418.053
 462  1108.999
 463  1477.196
 464  2294.681
 465  3331.719
 466  3738.669
 467  2848.168
 468  1951.713
 469  1642.272
 470  1470.614
 471  1403.795
 472  1627.424
 473  2671.518
 474  3117.208
 475  2515.418
 476  1683.995
 477  1451.913
 478  1327.669
 479  1500.651
 480  2098.82
 481  3024.418
 482  3547.456
 483  2752.462
 484  2215.906
 485  1623.525
 486  1961.707
 487  1956.779
 488  1637.63
 489  1899.645
 490  2333.725
 491  2081.896
 492  1309.593
 493  1165.045
 494  1241.707
 495  1196.445
 496  1628.927
 497  2484.501
 498  3353.093
 499  3442.298
 500  2671.026
 501  1749.998
 502  1231.284
 503  1632.484
 504  1823.649
 505  2044.561
 506  2827.836
 507  3079.134
 508  2416.324
 509  1204.627
 510  867.3246
 511  1021.371
