# Input file       =  1202496185.116841_cleaned.dat
# Candidate        =  PSR_0332+5434
# Telescope        =  AR
# Epoch_topo       =  58161.780140241215
# Epoch_bary       =  N/A
# T_sample         =  0.002
# Data Folded      =  7340032
# Data Avg         =  0.0530250048863569
# Data StdDev      =  2.89828259922996 
# Profile Bins     =  1024
# Profile Avg      =  380.041145341775 
# Profile StdDev   =  245.380319575948 
# Reduced chi-sqr  =  0.850
# Prob(Noise)      <  1   (~0.0 sigma)
# P_topo (ms)      =  714.57992968998   +/- 0.000162
# P'_topo (s/s)    =  -0                +/- 8.57e-11
# P''_topo (s/s^2) =  0                 +/- 3.78e-14
# P_bary (ms)      =  N/A
# P'_bary (s/s)    =  N/A
# P''_bary (s/s^2) =  N/A
# P_orb (s)        =  N/A
# asin(i)/c (s)    =  N/A
# eccentricity     =  N/A
# w (rad)          =  N/A
# T_peri           =  N/A
######################################################
   0  468.9154
   1  597.1161
   2  610.9196
   3  552.0801
   4  467.4467
   5  531.7418
   6  582.4507
   7  639.7705
   8  568.8439
   9  527.1142
  10  576.949
  11  544.1143
  12  494.0261
  13  288.1712
  14  250.9197
  15  274.451
  16  284.3021
  17  325.2159
  18  344.4598
  19  384.498
  20  436.719
  21  482.8243
  22  504.8711
  23  456.5733
  24  487.6924
  25  464.2268
  26  416.0143
  27  463.3279
  28  535.9232
  29  637.9024
  30  493.1421
  31  411.3762
  32  451.1075
  33  577.2857
  34  657.5468
  35  604.8273
  36  514.2084
  37  415.4828
  38  371.0697
  39  459.0802
  40  483.7743
  41  474.4739
  42  488.4172
  43  561.9974
  44  570.8884
  45  508.6211
  46  460.3699
  47  502.7098
  48  485.8217
  49  542.6308
  50  561.1215
  51  423.5409
  52  228.1084
  53  217.153
  54  367.6289
  55  460.956
  56  360.6717
  57  395.2601
  58  452.322
  59  514.8203
  60  607.8851
  61  632.9894
  62  560.9595
  63  375.9281
  64  259.7108
  65  330.1826
  66  338.6266
  67  381.5551
  68  307.1794
  69  317.5448
  70  307.7281
  71  296.4779
  72  314.7864
  73  330.657
  74  424.9289
  75  442.7521
  76  417.4897
  77  408.6996
  78  344.5189
  79  358.4309
  80  300.306
  81  305.8293
  82  372.1644
  83  445.7112
  84  471.1131
  85  382.4504
  86  358.1104
  87  377.9717
  88  373.2113
  89  272.5921
  90  336.8286
  91  376.9641
  92  415.1458
  93  367.2683
  94  321.2593
  95  237.9068
  96  193.6526
  97  190.2796
  98  192.7329
  99  221.4825
 100  286.9879
 101  244.2318
 102  213.5045
 103  219.284
 104  275.6235
 105  299.7111
 106  361.3373
 107  386.5616
 108  441.2556
 109  512.5086
 110  564.0422
 111  524.6484
 112  432.4944
 113  299.8811
 114  127.1795
 115  120.1086
 116  132.9268
 117  266.5066
 118  337.8612
 119  408.9735
 120  239.9884
 121  194.9822
 122  198.2097
 123  215.1021
 124  239.5976
 125  227.159
 126  274.073
 127  347.1371
 128  387.766
 129  492.5233
 130  426.2239
 131  436.2659
 132  283.485
 133  285.7113
 134  216.2106
 135  264.5023
 136  231.9884
 137  252.7405
 138  230.6954
 139  269.9854
 140  413.4869
 141  513.6965
 142  475.6037
 143  310.4085
 144  198.2903
 145  273.3844
 146  492.0719
 147  522.9
 148  482.4736
 149  357.7731
 150  393.2391
 151  410.7347
 152  454.5665
 153  515.8588
 154  544.1678
 155  392.6672
 156  241.8189
 157  143.2253
 158  99.47852
 159  118.1152
 160  235.5129
 161  334.7334
 162  289.7495
 163  321.1881
 164  322.3358
 165  496.5617
 166  511.7335
 167  589.1248
 168  534.5128
 169  434.8459
 170  283.4603
 171  286.444
 172  378.676
 173  491.3305
 174  553.8427
 175  643.6816
 176  567.4937
 177  538.5651
 178  430.0332
 179  445.1175
 180  417.1552
 181  502.7648
 182  541.5422
 183  516.2164
 184  527.1987
 185  535.8748
 186  593.8677
 187  497.4302
 188  477.8568
 189  402.7195
 190  406.6636
 191  336.8844
 192  297.049
 193  358.0842
 194  312.0833
 195  267.8622
 196  290.7492
 197  470.4844
 198  475.0746
 199  356.8539
 200  172.3773
 201  210.4969
 202  186.1971
 203  309.528
 204  233.2518
 205  208.2987
 206  231.9992
 207  308.5034
 208  378.4227
 209  435.4265
 210  513.5876
 211  490.0131
 212  457.1064
 213  432.5463
 214  415.1125
 215  358.7628
 216  378.9877
 217  362.4205
 218  406.2511
 219  339.36
 220  347.5234
 221  230.8693
 222  273.9971
 223  299.3876
 224  355.9919
 225  330.6892
 226  347.153
 227  303.529
 228  221.1594
 229  346.39
 230  417.3425
 231  459.0259
 232  372.3241
 233  330.5747
 234  325.8822
 235  276.4871
 236  294.5007
 237  297.0278
 238  281.5067
 239  259.3304
 240  220.4114
 241  297.9127
 242  348.1431
 243  530.3027
 244  484.4888
 245  513.723
 246  519.0331
 247  411.8707
 248  340.6623
 249  217.8041
 250  426.2354
 251  526.2254
 252  562.086
 253  362.8102
 254  227.8966
 255  174.2499
 256  270.3852
 257  352.4504
 258  422.7386
 259  520.2046
 260  566.6188
 261  568.4586
 262  466.8702
 263  398.4683
 264  365.5835
 265  371.0924
 266  401.4732
 267  412.5216
 268  503.7366
 269  408.6336
 270  299.1823
 271  318.0213
 272  394.3796
 273  385.0771
 274  236.1556
 275  277.5527
 276  297.067
 277  395.6242
 278  399.8153
 279  410.5842
 280  298.6741
 281  307.1562
 282  395.3555
 283  384.7757
 284  245.0637
 285  191.6825
 286  149.6693
 287  242.753
 288  251.7801
 289  254.4505
 290  244.521
 291  295.3007
 292  341.4594
 293  277.5454
 294  160.5532
 295  187.2022
 296  267.0903
 297  317.5445
 298  204.7098
 299  234.0078
 300  284.6439
 301  396.229
 302  362.4207
 303  417.7435
 304  388.101
 305  334.3036
 306  314.955
 307  337.8867
 308  334.8898
 309  352.5305
 310  338.2971
 311  328.1313
 312  323.5916
 313  323.8106
 314  474.3471
 315  457.2649
 316  386.9145
 317  223.3435
 318  255.5719
 319  309.9297
 320  416.1716
 321  356.5284
 322  409.0602
 323  302.9862
 324  359.6826
 325  433.9437
 326  475.594
 327  424.6035
 328  265.6535
 329  342.3849
 330  308.4715
 331  351.7404
 332  421.9583
 333  454.0455
 334  454.1169
 335  387.3691
 336  355.1688
 337  320.0275
 338  314.8112
 339  387.5936
 340  346.0048
 341  297.114
 342  242.4597
 343  306.1853
 344  403.7952
 345  540.9688
 346  585.765
 347  493.5136
 348  351.0825
 349  304.4533
 350  428.726
 351  495.8783
 352  463.387
 353  377.8962
 354  421.3408
 355  397.7716
 356  370.0589
 357  334.143
 358  346.3872
 359  346.1523
 360  344.3558
 361  410.2216
 362  466.948
 363  399.3224
 364  317.5448
 365  363.4703
 366  378.7318
 367  378.3563
 368  277.6455
 369  250.2172
 370  225.4788
 371  332.0437
 372  474.0896
 373  539.6893
 374  563.3837
 375  506.4557
 376  541.19
 377  507.2982
 378  497.289
 379  376.7775
 380  371.7274
 381  446.3347
 382  450.6086
 383  370.683
 384  380.5176
 385  399.7688
 386  392.4648
 387  324.7071
 388  367.4951
 389  418.5662
 390  462.5975
 391  364.7396
 392  238.5287
 393  230.9143
 394  307.2172
 395  283.1612
 396  195.0766
 397  235.2409
 398  313.2536
 399  286.1091
 400  200.9357
 401  307.6039
 402  436.9075
 403  484.4214
 404  389.3469
 405  372.041
 406  317.2921
 407  263.8796
 408  341.1846
 409  484.4341
 410  531.8064
 411  518.2501
 412  493.6198
 413  438.0983
 414  399.5212
 415  419.5034
 416  418.7488
 417  392.8765
 418  344.2449
 419  345.8018
 420  483.7787
 421  479.3282
 422  513.8613
 423  384.3631
 424  332.4648
 425  330.097
 426  381.4633
 427  408.6867
 428  411.7369
 429  380.246
 430  413.1222
 431  412.0528
 432  368.8451
 433  349.7886
 434  297.47
 435  355.9153
 436  491.1894
 437  501.8493
 438  367.6511
 439  188.835
 440  233.5931
 441  222.2438
 442  323.3312
 443  362.505
 444  382.9079
 445  263.0679
 446  203.8674
 447  259.5602
 448  348.231
 449  385.5179
 450  460.4881
 451  419.7844
 452  378.5111
 453  270.5384
 454  191.9473
 455  85.44711
 456  48.34997
 457  141.2895
 458  224.2356
 459  272.9062
 460  327.9099
 461  360.0141
 462  457.1886
 463  450.1736
 464  542.8527
 465  443.0855
 466  457.6847
 467  452.928
 468  398.8466
 469  475.0193
 470  462.1379
 471  474.6898
 472  364.9513
 473  287.9643
 474  297.6514
 475  406.6025
 476  480.4198
 477  460.5373
 478  507.0724
 479  531.452
 480  471.5856
 481  419.3821
 482  444.4597
 483  541.1046
 484  438.3715
 485  244.0737
 486  95.04578
 487  65.15096
 488  217.7049
 489  297.0182
 490  477.9225
 491  496.5319
 492  550.6038
 493  508.7674
 494  535.1143
 495  514.2636
 496  413.8691
 497  355.0204
 498  318.4058
 499  305.0858
 500  376.4641
 501  375.8395
 502  344.1946
 503  301.8535
 504  249.9531
 505  316.0059
 506  347.2901
 507  454.8226
 508  513.7858
 509  616.5603
 510  603.8898
 511  519.6562
 512  457.7171
 513  449.8182
 514  513.4195
 515  458.7496
 516  327.9373
 517  262.6942
 518  182.3816
 519  200.5017
 520  194.625
 521  266.4026
 522  353.2347
 523  315.6987
 524  348.6755
 525  236.763
 526  275.3453
 527  275.4351
 528  283.0386
 529  280.8889
 530  329.2769
 531  370.1571
 532  327.015
 533  233.1214
 534  167.5187
 535  222.3197
 536  275.2277
 537  271.0068
 538  244.7836
 539  238.9509
 540  195.9138
 541  155.6258
 542  185.591
 543  294.6483
 544  357.112
 545  299.2215
 546  341.7561
 547  415.0781
 548  530.8972
 549  476.9814
 550  491.5199
 551  349.0478
 552  435.2591
 553  397.1317
 554  470.6638
 555  492.7989
 556  500.5741
 557  442.7023
 558  471.6799
 559  538.7231
 560  496.9593
 561  398.6216
 562  407.7924
 563  506.4563
 564  451.3369
 565  277.1663
 566  313.4415
 567  380.8165
 568  472.3718
 569  412.3901
 570  361.9742
 571  328.3292
 572  350.3919
 573  374.0795
 574  377.1036
 575  323.8932
 576  310.0996
 577  297.1432
 578  353.4567
 579  397.0523
 580  397.9633
 581  366.3158
 582  278.4677
 583  305.9673
 584  315.3463
 585  371.06
 586  263.3863
 587  244.0003
 588  358.9299
 589  459.6193
 590  566.0397
 591  459.3535
 592  426.5162
 593  312.7201
 594  358.1722
 595  441.1584
 596  566.8929
 597  644.7847
 598  535.8735
 599  450.2258
 600  385.0233
 601  363.1878
 602  358.5919
 603  306.6068
 604  229.705
 605  258.9319
 606  352.545
 607  573.8275
 608  736.5292
 609  919.1214
 610  967.9881
 611  1003.818
 612  1019.994
 613  1062.402
 614  1065.43
 615  1043.817
 616  1083.392
 617  1033.586
 618  839.5785
 619  683.9208
 620  616.0379
 621  586.3039
 622  478.0854
 623  347.4176
 624  305.2609
 625  323.3109
 626  401.67
 627  483.0121
 628  583.7917
 629  580.3782
 630  513.5691
 631  481.7917
 632  475.5647
 633  444.2632
 634  448.3858
 635  355.0193
 636  435.637
 637  397.9846
 638  443.5746
 639  345.5771
 640  312.1258
 641  286.4368
 642  436.8366
 643  467.6705
 644  584.1035
 645  546.6905
 646  587.5827
 647  581.1505
 648  576.9128
 649  516.8278
 650  477.5679
 651  434.6248
 652  359.5644
 653  365.4741
 654  359.1014
 655  360.0775
 656  326.4121
 657  358.6244
 658  431.0583
 659  430.4321
 660  363.3443
 661  397.4461
 662  421.3059
 663  518.1324
 664  455.0622
 665  388.041
 666  357.2794
 667  315.0699
 668  336.2964
 669  397.1196
 670  523.9808
 671  548.8467
 672  520.5977
 673  403.0744
 674  440.0365
 675  397.792
 676  364.0309
 677  383.6306
 678  443.7792
 679  575.9742
 680  518.7546
 681  423.8236
 682  323.6706
 683  305.5702
 684  302.1302
 685  358.1334
 686  356.8541
 687  400.3258
 688  362.2022
 689  418.2118
 690  309.1919
 691  293.2203
 692  375.9246
 693  457.0266
 694  448.985
 695  286.8127
 696  253.3212
 697  294.3115
 698  323.0449
 699  341.3331
 700  258.7757
 701  270.7575
 702  323.2794
 703  285.0178
 704  180.5987
 705  72.78323
 706  107.1254
 707  150.8366
 708  229.8939
 709  256.0799
 710  313.8545
 711  333.2549
 712  397.0709
 713  328.4184
 714  229.9465
 715  192.4001
 716  353.4518
 717  463.0246
 718  451.9069
 719  354.2238
 720  427.9947
 721  487.9712
 722  504.0958
 723  371.5642
 724  350.6348
 725  354.6634
 726  350.209
 727  274.5622
 728  273.9912
 729  370.3409
 730  427.8095
 731  364.2689
 732  237.0768
 733  284.2112
 734  439.5786
 735  407.1686
 736  370.3494
 737  309.8228
 738  424.8036
 739  444.8925
 740  349.0186
 741  334.748
 742  309.2349
 743  387.1041
 744  384.896
 745  395.2719
 746  339.5403
 747  374.2256
 748  377.3182
 749  392.8781
 750  338.4438
 751  381.8083
 752  426.3745
 753  463.8372
 754  449.7874
 755  423.7767
 756  345.6608
 757  337.1977
 758  374.3891
 759  356.9417
 760  266.0419
 761  209.7631
 762  277.2388
 763  361.2265
 764  360.6788
 765  259.9659
 766  297.3211
 767  363.2615
 768  394.7995
 769  390.712
 770  316.442
 771  311.2644
 772  282.4683
 773  370.4347
 774  386.6647
 775  448.8569
 776  433.0469
 777  500.487
 778  438.9144
 779  342.5302
 780  214.8093
 781  179.4347
 782  268.6645
 783  223.0794
 784  217.8276
 785  196.2439
 786  280.7158
 787  370.5291
 788  352.5799
 789  309.2025
 790  349.3418
 791  470.7196
 792  511.3794
 793  367.245
 794  349.7844
 795  354.147
 796  271.2628
 797  197.3069
 798  189.2872
 799  305.8086
 800  290.581
 801  355.7345
 802  377.236
 803  452.8877
 804  379.9636
 805  433.1591
 806  415.1743
 807  446.4608
 808  445.6397
 809  437.3462
 810  418.4383
 811  293.5153
 812  297.7079
 813  270.924
 814  305.059
 815  376.5099
 816  536.7439
 817  562.9993
 818  471.57
 819  261.471
 820  276.7263
 821  252.0802
 822  307.7172
 823  175.4775
 824  252.06
 825  262.0625
 826  281.4601
 827  350.1553
 828  365.6969
 829  406.2732
 830  365.3833
 831  402.6085
 832  375.3868
 833  379.6909
 834  324.6003
 835  364.8813
 836  280.3812
 837  260.7613
 838  242.4667
 839  225.7513
 840  357.5616
 841  497.2907
 842  608.6925
 843  608.7467
 844  591.2919
 845  508.3748
 846  414.9052
 847  464.6046
 848  549.2729
 849  400.9825
 850  267.506
 851  224.9108
 852  262.7894
 853  132.8042
 854  112.4088
 855  147.2225
 856  183.4124
 857  246.3676
 858  287.1145
 859  358.099
 860  365.1813
 861  277.0983
 862  231.7476
 863  306.6095
 864  308.688
 865  367.0746
 866  435.214
 867  544.5356
 868  399.0331
 869  362.6762
 870  350.4855
 871  457.808
 872  444.2119
 873  360.7715
 874  299.6985
 875  273.6129
 876  304.4963
 877  272.4219
 878  298.2681
 879  341.0573
 880  321.7633
 881  313.0056
 882  294.8585
 883  349.4137
 884  316.324
 885  398.2081
 886  344.2049
 887  314.2827
 888  222.443
 889  228.7329
 890  352.1075
 891  337.5937
 892  283.3458
 893  235.7584
 894  303.9205
 895  341.8406
 896  241.5824
 897  165.0228
 898  139.1805
 899  194.1761
 900  233.5066
 901  232.1717
 902  325.1115
 903  395.3466
 904  332.874
 905  323.0836
 906  329.1155
 907  409.0022
 908  504.9711
 909  491.9805
 910  482.5655
 911  309.8065
 912  397.7797
 913  417.4666
 914  336.4417
 915  202.4836
 916  247.1879
 917  389.7193
 918  403.1841
 919  277.0052
 920  247.8534
 921  331.1043
 922  357.6236
 923  425.5681
 924  309.3965
 925  294.5064
 926  240.0217
 927  318.4551
 928  316.4765
 929  313.5738
 930  317.753
 931  358.3285
 932  392.5759
 933  454.677
 934  432.433
 935  370.2926
 936  342.0803
 937  301.5973
 938  291.97
 939  258.0979
 940  346.1505
 941  373.0428
 942  348.2837
 943  286.141
 944  202.1443
 945  305.3283
 946  394.4176
 947  437.3019
 948  404.5249
 949  420.3119
 950  545.4676
 951  545.2182
 952  461.4275
 953  306.3561
 954  331.1996
 955  380.2428
 956  393.7532
 957  350.2463
 958  348.6723
 959  335.1354
 960  274.4896
 961  270.6861
 962  283.0161
 963  295.1914
 964  316.2354
 965  401.1948
 966  393.6056
 967  323.1451
 968  202.0185
 969  211.3056
 970  164.7368
 971  228.5719
 972  243.4409
 973  254.1712
 974  254.3594
 975  348.0127
 976  563.3087
 977  505.0249
 978  460.0701
 979  376.7642
 980  481.7956
 981  482.0244
 982  471.5658
 983  429.2346
 984  378.7839
 985  485.6646
 986  466.8416
 987  458.394
 988  274.3108
 989  251.7398
 990  315.0803
 991  405.3496
 992  465.9238
 993  525.3307
 994  537.728
 995  534.6035
 996  599.6353
 997  617.514
 998  687.0953
 999  608.7109
1000  626.0134
1001  601.805
1002  613.4601
1003  509.4524
1004  457.4374
1005  390.7694
1006  421.2355
1007  345.6199
1008  387.3826
1009  463.9513
1010  433.3581
1011  346.5295
1012  375.3849
1013  481.0797
1014  527.5957
1015  616.0177
1016  583.6396
1017  627.3803
1018  542.4879
1019  493.7386
1020  428.2113
1021  434.2883
1022  426.7379
1023  455.0538
