# Input file       =  1202222673.110506_cleaned.dat
# Candidate        =  PSR_0332+5434
# Telescope        =  AR
# Epoch_topo       =  58158.614492019748
# Epoch_bary       =  N/A
# T_sample         =  0.002
# Data Folded      =  7340032
# Data Avg         =  0.035503285130467
# Data StdDev      =  1.00000056700861 
# Profile Bins     =  512
# Profile Avg      =  508.302554945952 
# Profile StdDev   =  119.733104266429 
# Reduced chi-sqr  =  1.089
# Prob(Noise)      <  0.0814   (~1.4 sigma)
# P_topo (ms)      =  714.578837092245  +/- 0.000319
# P'_topo (s/s)    =  -0                +/- 1.68e-10
# P''_topo (s/s^2) =  0                 +/- 7.43e-14
# P_bary (ms)      =  N/A
# P'_bary (s/s)    =  N/A
# P''_bary (s/s^2) =  N/A
# P_orb (s)        =  N/A
# asin(i)/c (s)    =  N/A
# eccentricity     =  N/A
# w (rad)          =  N/A
# T_peri           =  N/A
######################################################
   0  363.2921
   1  463.7684
   2  492.9974
   3  433.9291
   4  413.0797
   5  376.6751
   6  333.896
   7  362.6636
   8  517.1049
   9  504.6482
  10  373.1597
  11  320.9856
  12  323.1516
  13  294.3904
  14  435.0601
  15  457.5595
  16  462.5569
  17  424.5876
  18  442.5602
  19  363.5193
  20  366.4482
  21  340.2767
  22  385.8858
  23  396.1474
  24  444.1486
  25  504.8589
  26  539.1495
  27  623.2569
  28  629.0339
  29  603.2415
  30  561.3474
  31  536.6481
  32  572.2591
  33  449.3056
  34  396.9577
  35  519.6356
  36  572.6727
  37  475.4222
  38  476.8584
  39  500.4194
  40  366.4754
  41  464.1562
  42  495.4768
  43  411.7391
  44  469.8014
  45  494.6533
  46  525.3665
  47  493.1419
  48  535.0601
  49  486.5018
  50  371.0855
  51  524.844
  52  510.6547
  53  489.4149
  54  464.7051
  55  375.153
  56  446.6403
  57  424.3156
  58  533.0588
  59  453.3014
  60  491.6745
  61  509.8231
  62  357.8562
  63  352.3225
  64  452.0013
  65  539.1405
  66  564.3195
  67  590.2481
  68  594.9814
  69  481.8398
  70  481.189
  71  527.808
  72  442.7837
  73  517.2161
  74  614.1491
  75  620.7294
  76  611.6037
  77  460.3383
  78  538.5383
  79  456.0643
  80  328.3912
  81  426.5052
  82  622.0623
  83  538.1774
  84  565.0035
  85  627.632
  86  620.9088
  87  593.6901
  88  624.8845
  89  503.3211
  90  531.3054
  91  508.581
  92  506.5947
  93  564.7244
  94  575.33
  95  590.082
  96  532.8244
  97  461.7708
  98  467.1107
  99  517.7276
 100  606.8515
 101  738.9951
 102  785.5228
 103  951.5971
 104  908.1507
 105  927.6722
 106  1040.763
 107  995.3256
 108  915.8802
 109  727.3715
 110  626.2381
 111  645.7938
 112  591.1971
 113  597.4327
 114  584.9341
 115  558.8172
 116  520.817
 117  496.415
 118  514.1421
 119  583.9427
 120  548.0383
 121  508.3183
 122  524.0178
 123  515.2321
 124  535.4698
 125  451.5386
 126  457.6572
 127  511.3005
 128  480.298
 129  409.2852
 130  470.7332
 131  460.4501
 132  462.3283
 133  465.0876
 134  429.3595
 135  529.6675
 136  524.3572
 137  517.7928
 138  467.6916
 139  489.3874
 140  384.1999
 141  327.5238
 142  408.7648
 143  413.3172
 144  401.6168
 145  338.2402
 146  421.86
 147  425.9102
 148  452.7981
 149  424.7736
 150  354.6163
 151  395.5463
 152  437.1531
 153  394.0281
 154  354.156
 155  428.938
 156  529.4877
 157  514.6007
 158  483.0978
 159  452.9758
 160  427.0609
 161  479.1765
 162  472.0928
 163  553.1907
 164  550.6014
 165  577.2102
 166  549.6854
 167  573.6704
 168  568.9819
 169  536.8043
 170  504.8402
 171  423.423
 172  460.0547
 173  541.4136
 174  415.3461
 175  527.7159
 176  485.008
 177  464.7181
 178  542.8082
 179  380.8062
 180  398.4437
 181  522.0102
 182  635.6608
 183  519.1328
 184  544.2704
 185  498.4954
 186  397.0782
 187  483.6775
 188  566.6131
 189  627.2413
 190  579.3491
 191  466.6667
 192  490.4333
 193  501.1637
 194  533.6125
 195  442.6127
 196  587.9493
 197  700.1292
 198  609.6714
 199  566.9854
 200  567.0496
 201  451.1505
 202  434.4589
 203  423.2736
 204  310.3796
 205  363.7703
 206  610.8936
 207  638.1384
 208  562.1832
 209  505.701
 210  602.3106
 211  501.331
 212  358.3192
 213  458.841
 214  542.8896
 215  457.6496
 216  456.4582
 217  487.5491
 218  478.5077
 219  483.1189
 220  516.5024
 221  554.7896
 222  593.374
 223  430.5333
 224  416.7034
 225  392.7756
 226  552.1979
 227  558.0547
 228  430.2238
 229  523.9301
 230  548.2107
 231  524.7355
 232  529.2786
 233  611.4538
 234  462.3022
 235  428.101
 236  604.3123
 237  527.8801
 238  421.3737
 239  494.4905
 240  570.9293
 241  629.6132
 242  480.3739
 243  421.8223
 244  405.2326
 245  475.7309
 246  487.4184
 247  462.6043
 248  487.4325
 249  439.4169
 250  350.5814
 251  421.5013
 252  387.2308
 253  425.7783
 254  568.8031
 255  577.0577
 256  495.5409
 257  504.6013
 258  538.3802
 259  596.9579
 260  596.5201
 261  515.1718
 262  469.3565
 263  484.7525
 264  565.5901
 265  600.5528
 266  604.73
 267  529.0822
 268  585.9996
 269  561.1944
 270  558.3948
 271  563.4344
 272  663.7656
 273  663.8577
 274  601.0295
 275  555.3416
 276  459.2661
 277  426.346
 278  429.381
 279  460.8875
 280  475.4432
 281  520.6975
 282  470.976
 283  483.5127
 284  494.0163
 285  478.4843
 286  588.8499
 287  742.2974
 288  620.7239
 289  548.4234
 290  544.7991
 291  469.3636
 292  423.3525
 293  546.2721
 294  527.1182
 295  507.3451
 296  563.508
 297  600.5972
 298  626.1761
 299  551.2762
 300  477.7041
 301  532.6038
 302  642.6424
 303  557.2175
 304  450.9396
 305  448.4372
 306  433.1804
 307  368.1181
 308  501.3926
 309  599.2576
 310  553.5146
 311  452.1209
 312  518.9081
 313  507.2055
 314  550.4465
 315  566.6846
 316  597.8843
 317  530.114
 318  485.565
 319  469.7913
 320  526.6417
 321  464.9992
 322  402.3901
 323  435.7802
 324  471.3128
 325  479.0641
 326  435.3984
 327  448.0967
 328  390.3044
 329  394.9104
 330  464.0307
 331  538.8115
 332  563.0128
 333  485.5082
 334  551.6995
 335  554.2216
 336  502.1005
 337  473.1938
 338  466.3438
 339  527.1952
 340  583.685
 341  447.9313
 342  447.6978
 343  557.2949
 344  575.5662
 345  430.7206
 346  526.3412
 347  537.2897
 348  462.6754
 349  380.1347
 350  435.48
 351  503.2478
 352  429.1631
 353  442.5428
 354  512.0771
 355  594.626
 356  565.7761
 357  467.7915
 358  450.3904
 359  440.6155
 360  487.1888
 361  424.2124
 362  457.9604
 363  520.4105
 364  485.5224
 365  578.6022
 366  568.7173
 367  499.488
 368  538.8331
 369  545.4335
 370  548.2018
 371  436.9206
 372  504.745
 373  525.0417
 374  593.7015
 375  493.4416
 376  547.2448
 377  588.5435
 378  520.6898
 379  479.4825
 380  534.0038
 381  576.8207
 382  530.5924
 383  461.0123
 384  616.4691
 385  575.2423
 386  549.4456
 387  520.2231
 388  584.5661
 389  528.9357
 390  492.2491
 391  482.1943
 392  611.4487
 393  616.0955
 394  515.6386
 395  552.2451
 396  551.1628
 397  532.9767
 398  554.3051
 399  585.1593
 400  583.2413
 401  564.1998
 402  514.4479
 403  454.9988
 404  481.6059
 405  497.6939
 406  600.3652
 407  517.4333
 408  497.3766
 409  489.891
 410  422.9079
 411  388.5137
 412  430.5963
 413  445.3729
 414  530.9442
 415  450.4809
 416  388.5701
 417  473.0311
 418  575.5502
 419  449.5316
 420  441.5477
 421  530.9115
 422  564.0456
 423  483.2993
 424  550.0707
 425  564.7701
 426  654.5419
 427  665.382
 428  443.5804
 429  456.1395
 430  491.2012
 431  517.7991
 432  529.6421
 433  618.1898
 434  680.5181
 435  523.104
 436  567.1336
 437  597.2878
 438  486.8226
 439  542.2175
 440  547.5353
 441  582.7409
 442  525.7188
 443  436.6357
 444  534.9086
 445  594.1001
 446  521.6152
 447  603.7519
 448  666.6515
 449  704.2365
 450  584.9528
 451  597.121
 452  521.6213
 453  456.5226
 454  521.215
 455  500.3192
 456  479.8904
 457  571.4058
 458  655.9863
 459  634.5563
 460  429.2561
 461  394.1925
 462  440.749
 463  556.9949
 464  584.4976
 465  524.7437
 466  532.5742
 467  417.4664
 468  409.7084
 469  553.0432
 470  550.1505
 471  527.6319
 472  557.2863
 473  524.9677
 474  486.0045
 475  467.27
 476  454.1029
 477  568.8383
 478  595.0596
 479  620.2418
 480  524.4768
 481  531.2845
 482  481.4528
 483  475.7566
 484  445.7455
 485  491.9762
 486  364.2391
 487  353.8003
 488  494.7527
 489  484.0736
 490  446.4664
 491  470.1732
 492  446.0769
 493  412.2851
 494  544.7454
 495  490.6211
 496  508.4578
 497  447.0624
 498  457.5688
 499  540.6932
 500  427.0667
 501  469.751
 502  380.4569
 503  429.1268
 504  399.7579
 505  406.2291
 506  445.1912
 507  468.4395
 508  489.9576
 509  436.5493
 510  429.6776
 511  385.0864
