# Input file       =  1203256882.095392_cleaned.dat
# Candidate        =  PSR_0332+5434
# Telescope        =  AR
# Epoch_topo       =  58170.584503418890
# Epoch_bary       =  N/A
# T_sample         =  0.002
# Data Folded      =  7340032
# Data Avg         =  1.37278508970381 
# Data StdDev      =  10.1384743842732 
# Profile Bins     =  512
# Profile Avg      =  19680.6694438654 
# Profile StdDev   =  1213.9103222571  
# Reduced chi-sqr  =  0.816
# Prob(Noise)      <  0.999   (~0.0 sigma)
# P_topo (ms)      =  714.580697922718  +/- 0.000279
# P'_topo (s/s)    =  -0                +/- 1.47e-10
# P''_topo (s/s^2) =  0                 +/- 6.51e-14
# P_bary (ms)      =  N/A
# P'_bary (s/s)    =  N/A
# P''_bary (s/s^2) =  N/A
# P_orb (s)        =  N/A
# asin(i)/c (s)    =  N/A
# eccentricity     =  N/A
# w (rad)          =  N/A
# T_peri           =  N/A
######################################################
   0  20577.71
   1  20594.53
   2  20075.08
   3  20125.04
   4  20176.38
   5  19776.09
   6  19301.1
   7  18854.71
   8  19029.56
   9  19455.7
  10  19021.06
  11  19649.95
  12  20143.98
  13  19993.13
  14  19877.96
  15  19765.06
  16  19066.16
  17  18503.83
  18  18915.32
  19  19991.89
  20  20145.09
  21  19828.92
  22  19619.39
  23  19368.77
  24  18864.77
  25  19193.07
  26  19423.7
  27  19648.77
  28  19285.87
  29  18985.25
  30  18702.68
  31  18320.61
  32  18342.17
  33  18540.27
  34  19452.27
  35  19643.28
  36  19271.25
  37  18946.42
  38  18431
  39  18416.16
  40  18514.29
  41  18647.94
  42  20011.3
  43  19183.98
  44  18784.95
  45  18566.56
  46  18673.45
  47  18128.05
  48  18427.13
  49  19188.37
  50  19969.04
  51  19929.9
  52  19329.37
  53  19032.54
  54  19061.53
  55  19307.2
  56  18778.59
  57  18900.29
  58  19102.8
  59  19553.59
  60  18837.52
  61  18518.14
  62  18451.29
  63  17964.57
  64  17900.94
  65  17809.53
  66  18132.81
  67  18140.96
  68  18223.44
  69  18030.46
  70  17279.79
  71  17953.16
  72  17623.86
  73  17666.57
  74  18328.04
  75  18842.37
  76  19214.84
  77  19374.13
  78  19415.7
  79  18823.12
  80  19139.95
  81  19120.5
  82  19216.43
  83  19477.41
  84  19793.79
  85  19595.42
  86  19303.79
  87  19499.61
  88  19674.52
  89  19604.21
  90  19358.9
  91  19671.95
  92  20171.57
  93  19854.99
  94  18840.91
  95  18498.04
  96  18803.67
  97  19686.87
  98  19547.77
  99  20311.68
 100  21054.57
 101  19936.16
 102  19987.57
 103  20065.05
 104  19945.56
 105  20345.65
 106  20152.21
 107  19891.47
 108  19258.86
 109  19276.88
 110  19927.27
 111  20224.68
 112  19576.22
 113  18997.07
 114  19013.08
 115  19197.22
 116  19166.16
 117  19089.97
 118  19679.16
 119  19392.24
 120  19416.25
 121  19772.31
 122  19118.89
 123  19448.14
 124  19524.75
 125  19783.3
 126  20097.54
 127  20340.74
 128  20389.01
 129  19963.36
 130  19714.39
 131  19875.14
 132  20405.64
 133  20978.83
 134  20336.9
 135  20185.22
 136  20447.62
 137  20794.59
 138  20701.41
 139  20125.49
 140  20329.71
 141  20082.73
 142  20051.41
 143  20179.7
 144  20287.99
 145  20490.52
 146  20291.65
 147  20387.63
 148  20512.84
 149  20460.74
 150  20452.07
 151  20229.35
 152  20200.63
 153  20538.17
 154  20765.25
 155  20922.44
 156  20857.85
 157  20614.64
 158  20194.28
 159  20229.35
 160  20303.49
 161  20829.79
 162  20631.6
 163  21092.45
 164  21777.95
 165  20803.79
 166  20141.6
 167  20390.5
 168  20908.34
 169  21497.66
 170  21107.99
 171  20899.27
 172  20271.6
 173  20145.13
 174  20571.06
 175  20636.38
 176  20411.78
 177  20432.09
 178  20902.63
 179  21287.4
 180  20190.93
 181  20402.35
 182  20065.57
 183  20266.55
 184  20526.52
 185  21279.49
 186  20933.73
 187  20308.8
 188  20809.46
 189  20705.92
 190  20791.69
 191  21060.61
 192  21436.26
 193  21237.33
 194  20300.35
 195  20229.69
 196  20628.76
 197  21190.89
 198  21567.68
 199  21656.58
 200  21218.12
 201  20369.84
 202  20575.34
 203  21025.98
 204  21069.43
 205  21497.27
 206  20954.21
 207  21344.31
 208  21458.59
 209  21084.5
 210  21626.87
 211  21164.23
 212  21362.91
 213  21580.29
 214  21257.27
 215  21011.25
 216  20652.17
 217  20997.92
 218  20630.97
 219  20212.19
 220  20029.8
 221  20481.46
 222  20140.59
 223  19966.71
 224  20044.63
 225  20385.13
 226  20065.76
 227  19653
 228  19962.33
 229  19792
 230  19220.96
 231  19548.23
 232  19061.66
 233  19029.41
 234  19508.23
 235  19900.98
 236  19514.9
 237  18681.3
 238  19217.3
 239  18910.59
 240  18937.32
 241  19643.91
 242  19687.65
 243  19684.73
 244  19415.31
 245  19722.77
 246  19558.54
 247  18934.86
 248  19817.1
 249  19615.68
 250  19613.45
 251  19496.38
 252  20159.24
 253  20157.45
 254  19533.66
 255  19492.57
 256  19720.39
 257  20021.18
 258  20158.3
 259  20006.12
 260  20110.55
 261  20190.17
 262  20448.76
 263  20519.65
 264  19749.67
 265  19418.31
 266  19259.57
 267  19091.88
 268  19577.6
 269  19940.21
 270  20250.9
 271  20124.73
 272  20399.35
 273  20045.06
 274  19786.92
 275  20633.88
 276  20791.65
 277  20764.51
 278  21037.67
 279  20476.37
 280  19932.75
 281  20455.22
 282  20622.43
 283  20325.09
 284  21106.15
 285  21375.84
 286  21176.82
 287  20524.92
 288  20079.58
 289  20466.44
 290  21121.01
 291  21212.02
 292  20629.54
 293  20383.08
 294  20185.25
 295  19982.7
 296  19802.11
 297  19712.72
 298  20904.82
 299  20598.5
 300  20528.14
 301  19730.05
 302  19179.1
 303  18964.08
 304  19378.98
 305  19955.78
 306  19688.98
 307  19342.06
 308  19136.84
 309  18429.7
 310  18589.34
 311  19223.28
 312  19768.09
 313  19514.43
 314  18603.01
 315  19165.84
 316  18800.62
 317  18954.01
 318  19290.1
 319  19577.95
 320  19595.12
 321  19313.6
 322  19702.59
 323  19340.36
 324  19433.02
 325  19543.44
 326  19872.8
 327  19848.91
 328  18858.08
 329  18669.33
 330  18571.83
 331  19259.21
 332  19079.76
 333  19188.83
 334  18972.87
 335  19351.51
 336  19314.94
 337  19082.06
 338  19321.86
 339  19751.63
 340  19769.81
 341  20066.63
 342  20003.7
 343  20387.43
 344  19907.72
 345  19420.87
 346  19373.52
 347  19716.45
 348  19669.38
 349  20058.06
 350  20115.54
 351  19951.63
 352  19529.58
 353  19755.32
 354  20051.95
 355  19722.56
 356  19447.72
 357  19566.25
 358  19726.66
 359  19710.77
 360  19509.64
 361  19584
 362  19365.49
 363  19900.11
 364  19860.06
 365  19714.99
 366  19149.81
 367  19383.43
 368  19176.79
 369  19001.49
 370  19329.01
 371  19575.67
 372  20029.44
 373  20569.99
 374  20073.78
 375  19648.76
 376  19964.5
 377  20493.16
 378  19602.84
 379  19376.34
 380  19900.32
 381  19771.53
 382  19280.45
 383  19264.84
 384  19069.97
 385  18675.36
 386  19270.33
 387  19924.53
 388  19589.48
 389  18869.29
 390  18518.37
 391  19159.78
 392  19281.9
 393  18963.89
 394  18976.08
 395  19203.05
 396  19144.59
 397  18717.22
 398  19089.79
 399  18923.15
 400  19000.12
 401  19470.83
 402  18502.25
 403  18829.65
 404  18940.87
 405  19069.21
 406  19422.2
 407  19542.88
 408  19441.92
 409  18876.36
 410  18800.38
 411  19527.94
 412  19132.06
 413  19299.66
 414  19707.75
 415  19725.17
 416  18965.03
 417  19042.86
 418  19339.14
 419  18817.08
 420  18485.87
 421  18535.19
 422  18692.97
 423  19367.46
 424  19163.94
 425  19380.91
 426  18417.01
 427  18042.6
 428  18558.98
 429  18094.97
 430  17841.35
 431  18203.99
 432  18835.51
 433  18568.07
 434  18441.17
 435  18157.49
 436  18434.27
 437  18557.02
 438  17778.24
 439  19027.7
 440  19263.62
 441  19097.2
 442  19097.18
 443  19242.87
 444  18773.75
 445  18899.14
 446  19462.44
 447  18944.31
 448  18660.83
 449  19137.8
 450  19267.12
 451  18794.16
 452  18959.02
 453  19186.2
 454  19882.3
 455  19240.48
 456  19381.78
 457  19123.79
 458  18815.51
 459  18721.56
 460  19325.1
 461  19854.66
 462  19380.41
 463  19442.5
 464  19411.28
 465  18811.9
 466  18540.95
 467  18984.52
 468  19971.04
 469  19011.55
 470  18670.83
 471  19594.07
 472  18964.61
 473  19207.08
 474  19086.4
 475  19238.48
 476  19621.74
 477  19921.7
 478  20385.21
 479  19780.9
 480  19490.17
 481  19454.61
 482  19849.59
 483  20236.31
 484  20342.71
 485  20616.65
 486  20447.7
 487  20362.19
 488  19950.34
 489  20500.06
 490  20926.29
 491  20121.41
 492  20198.73
 493  20016.99
 494  20234.79
 495  19893.77
 496  20401.51
 497  21025.36
 498  19554.63
 499  19791.84
 500  19485.65
 501  19183.97
 502  19339.96
 503  19896.79
 504  20563.76
 505  19915.66
 506  19669.92
 507  19547.44
 508  19644.35
 509  19830.98
 510  20098.85
 511  20743.96
