# Input file       =  1203328409.099087-PSRB0329-2ms-sampling-dd.dat
# Candidate        =  PSR_0332+5434
# Telescope        =  AR
# Epoch_topo       =  58171.412362257950
# Epoch_bary       =  N/A
# T_sample         =  0.002
# Data Folded      =  7208960
# Data Avg         =  -1.20400354287979e-09
# Data StdDev      =  8.11010977364218 
# Profile Bins     =  512
# Profile Avg      =  0.0601005010856197
# Profile StdDev   =  962.338941335438 
# Reduced chi-sqr  =  2.156
# Prob(Noise)      <  1.98e-45   (~14.1 sigma)
# P_topo (ms)      =  714.580703862634  +/- 2.11e-05
# P'_topo (s/s)    =  -0                +/- 1.13e-11
# P''_topo (s/s^2) =  0                 +/- 5.1e-15
# P_bary (ms)      =  N/A
# P'_bary (s/s)    =  N/A
# P''_bary (s/s^2) =  N/A
# P_orb (s)        =  N/A
# asin(i)/c (s)    =  N/A
# eccentricity     =  N/A
# w (rad)          =  N/A
# T_peri           =  N/A
######################################################
   0  -392.9466
   1  -316.419
   2  -505.4633
   3  -208.5794
   4  611.1079
   5  904.696
   6  330.9899
   7  -201.1577
   8  -618.5284
   9  -680.4348
  10  -221.6008
  11  531.9344
  12  1439.457
  13  1448.874
  14  1192.765
  15  786.5391
  16  -0.9300973
  17  -696.1325
  18  -851.913
  19  -302.176
  20  -58.00399
  21  12.07135
  22  -131.0075
  23  -400.4769
  24  -704.8126
  25  -1030.124
  26  -795.0657
  27  52.84
  28  846.5693
  29  1202.604
  30  1661.285
  31  1492.175
  32  865.5804
  33  260.4084
  34  -551.2101
  35  -289.3148
  36  -712.527
  37  -293.7488
  38  211.6422
  39  332.9989
  40  -106.1517
  41  -676.8733
  42  -677.7475
  43  -409.8195
  44  796.5288
  45  2162.298
  46  3442.12
  47  3474.738
  48  2107.308
  49  1889.834
  50  1322.194
  51  1308.148
  52  480.2839
  53  515.1148
  54  767.7491
  55  15.77538
  56  -404.9293
  57  -814.5399
  58  -1007.243
  59  -501.2948
  60  299.8456
  61  356.699
  62  1505.173
  63  1854.643
  64  1338.878
  65  569.8494
  66  50.04707
  67  -310.4213
  68  -591.4362
  69  -285.988
  70  -305.727
  71  37.73075
  72  -237.6031
  73  -1146.215
  74  -1755.512
  75  -1863.609
  76  -1413.064
  77  -624.4484
  78  343.1269
  79  1340.642
  80  1869.804
  81  1299.44
  82  -118.5021
  83  -1124.911
  84  -1331.457
  85  -544.0427
  86  -97.02175
  87  571.0237
  88  780.6194
  89  -75.23478
  90  -1163.859
  91  -1414.398
  92  -1200.919
  93  -491.5521
  94  54.82859
  95  1112.187
  96  1160.34
  97  84.89814
  98  -118.717
  99  -693.0041
 100  -444.937
 101  -540.5955
 102  -439.6327
 103  77.30708
 104  146.7254
 105  269.8925
 106  -163.8618
 107  -564.3414
 108  -671.9052
 109  -128.4845
 110  -22.5512
 111  628.6829
 112  1540.487
 113  1758.666
 114  957.7475
 115  -257.637
 116  -233.5982
 117  -229.0702
 118  78.49423
 119  -266.74
 120  -2.225451
 121  229.1083
 122  -407.7528
 123  -898.16
 124  -635.5554
 125  -601.4446
 126  -502.2276
 127  700.0378
 128  1575.298
 129  2144.983
 130  1896.521
 131  308.6275
 132  -137.8095
 133  -931.6224
 134  -310.3524
 135  -460.4919
 136  -250.4893
 137  285.7113
 138  -56.87887
 139  -678.2227
 140  -1344.301
 141  -1257.273
 142  -611.4481
 143  -76.16035
 144  525.3669
 145  1124.219
 146  1129.594
 147  266.0253
 148  -835.7953
 149  -1056.218
 150  -1039.489
 151  -1187.668
 152  -1031.094
 153  -84.00523
 154  108.5572
 155  -916.0458
 156  -1539.778
 157  -1856.364
 158  -1388.378
 159  -1023.357
 160  6.801276
 161  1134.889
 162  1722.163
 163  651.688
 164  -267.4975
 165  -1352.05
 166  -1168.549
 167  -892.0972
 168  -709.92
 169  292.6228
 170  336.2504
 171  195.8495
 172  -852.7566
 173  -1904.193
 174  -1576.679
 175  -850.1915
 176  27.37234
 177  595.7406
 178  949.0754
 179  1474.107
 180  571.2281
 181  -842.2926
 182  -1042.381
 183  -791.39
 184  -473.8622
 185  -427.4519
 186  234.6698
 187  136.1782
 188  -877.1063
 189  -1503.486
 190  -1747.101
 191  -1665.221
 192  -996.011
 193  -53.84889
 194  1149.568
 195  1373.79
 196  664.2368
 197  -46.46101
 198  -589.8152
 199  -777.8152
 200  -1029.756
 201  -771.8188
 202  -35.71402
 203  362.6141
 204  37.21945
 205  -499.015
 206  -1025.395
 207  -1051.524
 208  -660.1406
 209  -161.5288
 210  769.4116
 211  1347.536
 212  1392.259
 213  817.1909
 214  -321.1506
 215  -906.5001
 216  -577.7393
 217  -673.5986
 218  -266.4523
 219  49.29486
 220  620.0941
 221  -145.0407
 222  -933.2502
 223  -1322.568
 224  -896.9641
 225  -108.8767
 226  393.856
 227  1126.917
 228  1563.94
 229  1138.903
 230  157.8383
 231  -269.9335
 232  -553.2862
 233  -441.3648
 234  -238.7696
 235  -75.39441
 236  346.6643
 237  167.9789
 238  -717.6749
 239  -1687.258
 240  -987.8977
 241  -183.008
 242  -17.50066
 243  859.8464
 244  1696.523
 245  2129.031
 246  1126.391
 247  512.0121
 248  -344.544
 249  -804.2098
 250  -577.112
 251  -268.7813
 252  878.5379
 253  1264.507
 254  -29.51627
 255  -1137.811
 256  -1693.817
 257  -1582.64
 258  -987.7509
 259  -153.7429
 260  1264.813
 261  1965.015
 262  1381.977
 263  -6.979431
 264  -1124.775
 265  -809.6761
 266  -932.6253
 267  -415.3112
 268  -367.715
 269  -229.2037
 270  592.4316
 271  -467.7717
 272  -1370.201
 273  -1492.114
 274  -1087.342
 275  -664.98
 276  -28.97217
 277  1239.731
 278  1423.783
 279  658.7621
 280  -801.0876
 281  -1440.485
 282  -1551.727
 283  -1475.223
 284  -1442.078
 285  -978.1542
 286  -548.9052
 287  -816.0485
 288  -1670.389
 289  -2007.676
 290  -2212.346
 291  -1927.814
 292  -830.4575
 293  241.2825
 294  1041.985
 295  583.5081
 296  -684.0232
 297  -1714.486
 298  -1853.806
 299  -1369.998
 300  -1144.892
 301  -859.6519
 302  -363.959
 303  -369.3833
 304  -793.4807
 305  -1953.716
 306  -2112.885
 307  -1400.239
 308  -905.8903
 309  -738.5055
 310  471.4394
 311  1017.553
 312  213.5685
 313  -711.7168
 314  -1664.277
 315  -1689.328
 316  -1698.082
 317  -1287.047
 318  -925.6394
 319  -58.16999
 320  152.9055
 321  -1325.425
 322  -2227.886
 323  -1854.622
 324  -913.794
 325  330.8612
 326  1612.09
 327  2071.892
 328  1657.339
 329  -8.165075
 330  -1410.506
 331  -1932.072
 332  -1840.33
 333  -1179.705
 334  -623.7234
 335  141.8929
 336  517.4456
 337  -334.6273
 338  -1253.156
 339  -1104.702
 340  -937.3474
 341  -24.10897
 342  781.8485
 343  1467.012
 344  1915.635
 345  1640.767
 346  164.0341
 347  -377.7132
 348  -321.4448
 349  -410.9262
 350  -535.1931
 351  -158.1982
 352  669.2031
 353  703.8538
 354  -282.9366
 355  -1300.089
 356  -916.3892
 357  -318.8445
 358  9.258505
 359  1268.051
 360  1960.824
 361  2195.031
 362  983.8082
 363  180.4052
 364  -62.27248
 365  35.05611
 366  185.907
 367  262.8926
 368  798.5999
 369  435.7341
 370  -75.8597
 371  -873.5914
 372  -1366.201
 373  -589.2393
 374  111.8861
 375  749.1967
 376  1522.865
 377  1787.395
 378  1562.621
 379  245.6015
 380  -191.6408
 381  -301.7291
 382  -221.0716
 383  -149.1235
 384  103.0577
 385  139.5766
 386  184.9547
 387  -604.3533
 388  -1163.604
 389  -1035.803
 390  -526.4456
 391  -338.7572
 392  534.8994
 393  1711.036
 394  2091.841
 395  1371.354
 396  -218.9458
 397  -1106.386
 398  -514.7143
 399  -71.08742
 400  -152.5535
 401  428.5905
 402  1236.137
 403  402.0774
 404  -885.1586
 405  -1595.505
 406  -1105.549
 407  -105.4345
 408  893.748
 409  1782.957
 410  2292.584
 411  1395.178
 412  -58.54007
 413  -1068.846
 414  -1071.425
 415  -481.7714
 416  16.25747
 417  511.5977
 418  738.5155
 419  282.4479
 420  -324.8805
 421  -928.6373
 422  117.3576
 423  401.8582
 424  760.4468
 425  1250.769
 426  1661.663
 427  2678.38
 428  2286.528
 429  1248.99
 430  -304.9375
 431  -549.3599
 432  -484.0911
 433  -495.3388
 434  -175.6716
 435  454.535
 436  578.1853
 437  -7.194321
 438  -711.4797
 439  -957.0586
 440  -847.5264
 441  134.3524
 442  1150.885
 443  1849.025
 444  1655.422
 445  479.5413
 446  -164.2519
 447  -453.8069
 448  -323.3211
 449  -407.3712
 450  1.288232
 451  45.31326
 452  -259.9102
 453  -666.9005
 454  -863.0632
 455  -757.1748
 456  -298.3552
 457  482.071
 458  1625.526
 459  2386.09
 460  2187.789
 461  2180.53
 462  961.9963
 463  464.8028
 464  -111.1712
 465  683.8499
 466  1183.414
 467  1518.925
 468  1525.28
 469  845.5132
 470  -128.3575
 471  -866.9733
 472  -578.0452
 473  194.8001
 474  1068.395
 475  1966.013
 476  2678.425
 477  2394.199
 478  1392.401
 479  -105.5218
 480  -719.7764
 481  -475.3206
 482  463.342
 483  1491.559
 484  1792.677
 485  1431.73
 486  -1.340546
 487  -1317.909
 488  -886.7097
 489  -224.0914
 490  497.3179
 491  1728.71
 492  2088.038
 493  2024.562
 494  807.5967
 495  234.3094
 496  -177.2973
 497  -576.3066
 498  -373.2281
 499  -374.2077
 500  -206.39
 501  402.755
 502  282.1594
 503  -109.8302
 504  -555.7788
 505  -674.6703
 506  -268.6078
 507  -22.31605
 508  825.5298
 509  1517.46
 510  1429.911
 511  421.6507
