# Input file       =  1203931188.137021_cleaned.dat
# Candidate        =  PSR_0332+5434
# Telescope        =  AR
# Epoch_topo       =  58178.388971493303
# Epoch_bary       =  N/A
# T_sample         =  0.002
# Data Folded      =  7274496
# Data Avg         =  1.46169192384853 
# Data StdDev      =  16.2615806129788 
# Profile Bins     =  512
# Profile Avg      =  20767.7138982312 
# Profile StdDev   =  1938.3367533255  
# Reduced chi-sqr  =  1.349
# Prob(Noise)      <  2.19e-07   (~5.1 sigma)
# P_topo (ms)      =  714.58045631954   +/- 2e-05
# P'_topo (s/s)    =  -0                +/- 1.06e-11
# P''_topo (s/s^2) =  0                 +/- 4.73e-15
# P_bary (ms)      =  N/A
# P'_bary (s/s)    =  N/A
# P''_bary (s/s^2) =  N/A
# P_orb (s)        =  N/A
# asin(i)/c (s)    =  N/A
# eccentricity     =  N/A
# w (rad)          =  N/A
# T_peri           =  N/A
######################################################
   0  22549.09
   1  22191.82
   2  20809.23
   3  20449.2
   4  22551.79
   5  24450.22
   6  21911.47
   7  20754.54
   8  21473.63
   9  21579.35
  10  19515.04
  11  17326.71
  12  19664.58
  13  21270.6
  14  20922.97
  15  19630.7
  16  20433.04
  17  22251.88
  18  20835.33
  19  20256.44
  20  21764.15
  21  23444.12
  22  23456.34
  23  21086.49
  24  21669
  25  21445.68
  26  19464.85
  27  16778.59
  28  16605.75
  29  19382.53
  30  21764.66
  31  20985.83
  32  20256.1
  33  21845.35
  34  22083.74
  35  19817.38
  36  19542.3
  37  22588.81
  38  23816.01
  39  22566.04
  40  20374.31
  41  21894.22
  42  21757.46
  43  19093.36
  44  17270.47
  45  18952.34
  46  20612.15
  47  20158.04
  48  19736.25
  49  20746.11
  50  21817.17
  51  21420.65
  52  20087.56
  53  20757.08
  54  22851.69
  55  22246.69
  56  21500.76
  57  21237.04
  58  22699.56
  59  20399.07
  60  17676.04
  61  17516.77
  62  19019.52
  63  22073.45
  64  21481.99
  65  21252.53
  66  22866.55
  67  22445.67
  68  21309.44
  69  20461.55
  70  22043.54
  71  23478.92
  72  20953.7
  73  20079.29
  74  21773.54
  75  22575.26
  76  20055.32
  77  18353.89
  78  19214.63
  79  20615.73
  80  19916.82
  81  19285.55
  82  20260.88
  83  22236.55
  84  22179.9
  85  21065.72
  86  21996.11
  87  23511.65
  88  22844.53
  89  20701.8
  90  21216.77
  91  21294.87
  92  20265.71
  93  18091.09
  94  17589.12
  95  20801.58
  96  21329.33
  97  21108.33
  98  20767.46
  99  21601.57
 100  21296.9
 101  20086.11
 102  20209.88
 103  22069.25
 104  24287.91
 105  23730.21
 106  21468.29
 107  22566.39
 108  22126.13
 109  19210.48
 110  17053.87
 111  18284.11
 112  20882.03
 113  20955.06
 114  20552.65
 115  21693.73
 116  22925.78
 117  22695.63
 118  20161.43
 119  20859.23
 120  23348.21
 121  23677.59
 122  22172.21
 123  21257.54
 124  22721.52
 125  20695.75
 126  17139.44
 127  16859.57
 128  19439.78
 129  21432.49
 130  20362.33
 131  19240.5
 132  21395.5
 133  21923.88
 134  21332.48
 135  19965.11
 136  21779.8
 137  23365.88
 138  22187.1
 139  21853.41
 140  21923.63
 141  22757.57
 142  19414.63
 143  16831.26
 144  18364.09
 145  19713.76
 146  20342.86
 147  19804.73
 148  21047.52
 149  22772.12
 150  21477.4
 151  20353.81
 152  20348.6
 153  22550.27
 154  23066.09
 155  20852.68
 156  20919.88
 157  21881.83
 158  20971.42
 159  19126.12
 160  17764.45
 161  19645.61
 162  20872.85
 163  20007.46
 164  19306.44
 165  20855.4
 166  21840.46
 167  20603.3
 168  20725.26
 169  21940.91
 170  23199.82
 171  22279.44
 172  20514.44
 173  21413.07
 174  21659.33
 175  19423.44
 176  17676.88
 177  18227.76
 178  21225.56
 179  21260.68
 180  20332.1
 181  20971.8
 182  21171.89
 183  21153.15
 184  20119.45
 185  21641.34
 186  23223
 187  23562.28
 188  22276.18
 189  20527.33
 190  21291.47
 191  20056.86
 192  18083.4
 193  17724.12
 194  19720.11
 195  21654.69
 196  20285.49
 197  20082.46
 198  21453.54
 199  22078.15
 200  20577.75
 201  18995.88
 202  20881.53
 203  23411.6
 204  22687.95
 205  21410.24
 206  21964.42
 207  22479.93
 208  19250.51
 209  15975.03
 210  17312.75
 211  20140.47
 212  21711.62
 213  20702.26
 214  21055.63
 215  22408.98
 216  21066.56
 217  20601.1
 218  20621.4
 219  22462.1
 220  23117.04
 221  20939.13
 222  20841.43
 223  21606.55
 224  20928.26
 225  17786.57
 226  16781.27
 227  19420.42
 228  20280.72
 229  19759.21
 230  19521.69
 231  20338.69
 232  21984.59
 233  20891.4
 234  20357.68
 235  21140.69
 236  23177.96
 237  21895.34
 238  20422.62
 239  21185.05
 240  21691.33
 241  19978.29
 242  16578.8
 243  17692.01
 244  20628.8
 245  21609.93
 246  20447.39
 247  20516.38
 248  21787.93
 249  21599.71
 250  20119.74
 251  20698.43
 252  22205.39
 253  23595.19
 254  22316.68
 255  20609.26
 256  22374.54
 257  21519.93
 258  18746.28
 259  17491.12
 260  19161.24
 261  20838.9
 262  19992.54
 263  19862.96
 264  21548.21
 265  21984.8
 266  20824.63
 267  20274.57
 268  22198.55
 269  23138.22
 270  22565.55
 271  20974.43
 272  20255.46
 273  20833.28
 274  19021.74
 275  16013.23
 276  17436.5
 277  20818.98
 278  21833.63
 279  19449.91
 280  19650.62
 281  21169.48
 282  20617.62
 283  19801.15
 284  20027.07
 285  22707.15
 286  24056.48
 287  21390.52
 288  21000.79
 289  22578.55
 290  20799.2
 291  17131.57
 292  16184.27
 293  18579.4
 294  19881.06
 295  20206.44
 296  20348.22
 297  21810.8
 298  22724.99
 299  20881.58
 300  19415.26
 301  21218.39
 302  23288.78
 303  22995.08
 304  19891.55
 305  20619.71
 306  21661.08
 307  19697.6
 308  16955.25
 309  17915.56
 310  22071.83
 311  20502.84
 312  19553.59
 313  19851.07
 314  21826.79
 315  21708.99
 316  20496.78
 317  20464.12
 318  21491.17
 319  22409.27
 320  20861.98
 321  21104.55
 322  22074.12
 323  21357.14
 324  18162.07
 325  16154.01
 326  17937.9
 327  19344.44
 328  20287.98
 329  20348.16
 330  22161.93
 331  22424.47
 332  20250.35
 333  20109.32
 334  21605.6
 335  22914.66
 336  22368.46
 337  20801.75
 338  20826.15
 339  21456.33
 340  19952.46
 341  17769.11
 342  19371.71
 343  20780.67
 344  20838.21
 345  19757.87
 346  19814.59
 347  22719.42
 348  22112.72
 349  20225.07
 350  20503.46
 351  23575.99
 352  24222.17
 353  22199.89
 354  21412.08
 355  22359.93
 356  21915.46
 357  18410.78
 358  17625.22
 359  18454.03
 360  20511.86
 361  21311.5
 362  20752.35
 363  22120.38
 364  22233.54
 365  21149.93
 366  20565.52
 367  21644.25
 368  23595.1
 369  22647.28
 370  21502.42
 371  20799.13
 372  22806.88
 373  20677.2
 374  17753.05
 375  18047.27
 376  19892.81
 377  20735.35
 378  19554.9
 379  20606.49
 380  21413.6
 381  21359.34
 382  20043.69
 383  20046.44
 384  22887.07
 385  23254.78
 386  21619.13
 387  21715.21
 388  23120.45
 389  21035.91
 390  17779.98
 391  15806.19
 392  18090.62
 393  20649.82
 394  20253.58
 395  21004.74
 396  21113.65
 397  22772.27
 398  21083.9
 399  20078.12
 400  21461.76
 401  21921.05
 402  22812.95
 403  20862.56
 404  21617.58
 405  22066.77
 406  20513.85
 407  18008.96
 408  17540.99
 409  19651.21
 410  19831.35
 411  20543.53
 412  20444.67
 413  21338.96
 414  21702.94
 415  20649.43
 416  20683.67
 417  23293.99
 418  23609.54
 419  22206.68
 420  21011.44
 421  21744.83
 422  20998.69
 423  17963.52
 424  16532.64
 425  18959.59
 426  21266.04
 427  21358.21
 428  20325.47
 429  20930.7
 430  21186
 431  20480.4
 432  20824.8
 433  21083.39
 434  23785.86
 435  23093
 436  21645.08
 437  21366.09
 438  22322.69
 439  20703.2
 440  17222.72
 441  18435.4
 442  19651.49
 443  21070.15
 444  19662.5
 445  19493.9
 446  22171.26
 447  22482.8
 448  20925.04
 449  20480.34
 450  23415.38
 451  24004.56
 452  22747.73
 453  21286.36
 454  20980.25
 455  20937.96
 456  17820.9
 457  17226.9
 458  18704.89
 459  21034.63
 460  21279.69
 461  20845.52
 462  21185.36
 463  21242.01
 464  20839
 465  19660.56
 466  21595.51
 467  23214.17
 468  22523.67
 469  20757.18
 470  21601.97
 471  22765.74
 472  19655.29
 473  17133.85
 474  16759.83
 475  19334.16
 476  20343.99
 477  20060.89
 478  20652.77
 479  21750.23
 480  22061.86
 481  19944.82
 482  19617.67
 483  21755.34
 484  22669.15
 485  22007.53
 486  20181.02
 487  22313.44
 488  21555.2
 489  18169.49
 490  16632.02
 491  18892.96
 492  21233.83
 493  20846.96
 494  19859.36
 495  20521.78
 496  21835.66
 497  21162.52
 498  19987.98
 499  21354.19
 500  23257.41
 501  22576.99
 502  20572.71
 503  20926.73
 504  22031.29
 505  20369.18
 506  18015.98
 507  17776.62
 508  19815.88
 509  20599.21
 510  20185.66
 511  19767.59
