# Input file       =  1203525206.118787_cleaned.dat
# Candidate        =  PSR_0332+5434
# Telescope        =  AR
# Epoch_topo       =  58173.690105541515
# Epoch_bary       =  N/A
# T_sample         =  0.002
# Data Folded      =  7340032
# Data Avg         =  0.520909686641451
# Data StdDev      =  8.88271756368994 
# Profile Bins     =  256
# Profile Avg      =  14935.426788211  
# Profile StdDev   =  1504.09354495674 
# Reduced chi-sqr  =  0.749
# Prob(Noise)      <  0.999   (~0.0 sigma)
# P_topo (ms)      =  714.580942634589  +/- 0.000491
# P'_topo (s/s)    =  -0                +/- 2.59e-10
# P''_topo (s/s^2) =  0                 +/- 1.14e-13
# P_bary (ms)      =  N/A
# P'_bary (s/s)    =  N/A
# P''_bary (s/s^2) =  N/A
# P_orb (s)        =  N/A
# asin(i)/c (s)    =  N/A
# eccentricity     =  N/A
# w (rad)          =  N/A
# T_peri           =  N/A
######################################################
   0  13034.52
   1  13532.33
   2  13555.5
   3  13459.2
   4  13543.39
   5  13611.21
   6  13413.29
   7  13150.77
   8  12772.29
   9  13020.58
  10  14108.94
  11  14114.18
  12  13579.88
  13  13240.83
  14  13775.5
  15  14311.49
  16  14470.69
  17  14706.93
  18  15060.9
  19  15584.03
  20  15532.58
  21  15988.55
  22  15872
  23  15625.57
  24  14533.97
  25  14797.64
  26  14474.25
  27  14628.23
  28  15904.67
  29  15632.9
  30  13802.48
  31  13625.47
  32  13789.1
  33  13327.21
  34  12822.21
  35  13386.53
  36  13767.88
  37  14129.35
  38  13996.66
  39  13744.93
  40  14161.3
  41  13939.49
  42  13116.11
  43  13493.08
  44  14248.06
  45  14243.12
  46  14726.09
  47  14435.06
  48  15157.94
  49  15603.58
  50  15590.6
  51  15414.73
  52  15961.97
  53  15865.82
  54  16740.13
  55  17159.32
  56  15457.19
  57  16334.72
  58  16228.58
  59  15693.62
  60  15222.21
  61  15623.1
  62  16169.49
  63  16515.96
  64  15912.41
  65  15152.74
  66  16373.93
  67  16191.58
  68  15855.84
  69  16095.4
  70  16281.8
  71  15062.43
  72  15813.3
  73  16523.41
  74  16407.51
  75  15522.86
  76  15493.37
  77  15379.24
  78  15272.55
  79  14754.76
  80  13877.01
  81  14269.58
  82  14073.95
  83  14381.59
  84  14808.92
  85  14810.08
  86  13848.3
  87  14370.42
  88  13695.66
  89  13581.8
  90  13987.2
  91  14305.73
  92  14530.34
  93  14673.38
  94  15638.79
  95  15275.98
  96  14794.55
  97  14317.82
  98  14802.31
  99  14616.96
 100  14439.12
 101  14717.59
 102  13928.3
 103  14793.11
 104  14736.93
 105  14667.81
 106  13539.12
 107  14390.25
 108  14954.28
 109  15810.7
 110  16483.3
 111  17453.76
 112  18130.63
 113  16666.28
 114  16886.38
 115  16703.03
 116  16418.3
 117  16297.01
 118  15652.8
 119  15927.21
 120  16360.75
 121  15377.96
 122  16478.68
 123  15805.09
 124  15495.7
 125  16251
 126  16409.47
 127  16574.95
 128  17290.01
 129  16848.88
 130  17052.84
 131  16598.67
 132  17068.19
 133  16159.99
 134  16995.11
 135  16763.87
 136  15100.44
 137  15688.55
 138  15239.18
 139  15217.32
 140  15139
 141  14724.1
 142  14837.21
 143  15107.28
 144  15754.63
 145  16818.24
 146  16494.4
 147  16625.28
 148  16607.66
 149  17022.98
 150  17192.53
 151  16562.95
 152  18209.9
 153  18821.9
 154  15725.57
 155  14919.9
 156  15378.76
 157  14559.46
 158  13634.26
 159  14853.29
 160  13794.17
 161  13358.69
 162  13519.85
 163  13950.58
 164  15273.16
 165  14842.2
 166  15119.19
 167  15307.62
 168  15671.68
 169  15124.01
 170  15226.75
 171  14327.91
 172  13562.37
 173  13147.49
 174  12807.95
 175  12680.61
 176  12363.19
 177  13859.23
 178  13607.83
 179  14043.2
 180  14171.37
 181  15285.37
 182  14026.08
 183  14139.49
 184  14660.93
 185  14058.6
 186  14953.38
 187  15530.08
 188  15703.9
 189  14422.25
 190  14491.56
 191  14295.59
 192  13975.95
 193  13963.9
 194  14649.01
 195  13661.53
 196  14061.25
 197  13984.44
 198  14158.57
 199  14450.7
 200  14653.5
 201  14598.75
 202  15262.33
 203  15174.76
 204  14921.52
 205  14698.48
 206  15818.67
 207  15724.61
 208  14653.05
 209  14719.22
 210  14441.23
 211  14010.33
 212  13895.76
 213  13923.83
 214  14803.3
 215  14656.32
 216  14866.32
 217  15140.75
 218  14849.53
 219  14443.45
 220  13569.04
 221  14106.26
 222  15109.4
 223  15132.52
 224  15249.21
 225  15159.38
 226  15495.78
 227  14756.58
 228  14484.7
 229  14726.48
 230  14136.03
 231  14454.84
 232  13816.33
 233  14080.18
 234  15405.77
 235  15473.17
 236  15677.48
 237  16138.78
 238  16441.52
 239  16467.26
 240  15839.64
 241  15250.52
 242  15589.08
 243  14902.21
 244  13965.77
 245  14336.85
 246  14150.77
 247  14113.24
 248  13923.06
 249  13415.12
 250  13917.03
 251  14059.07
 252  13483
 253  13154.65
 254  14121.17
 255  14234.71
