# Input file       =  1203414632.110324-PSRB0329-2ms-sampling-dd.dat
# Candidate        =  PSR_0332+5434
# Telescope        =  AR
# Epoch_topo       =  58172.410313776898
# Epoch_bary       =  N/A
# T_sample         =  0.002
# Data Folded      =  7208960
# Data Avg         =  5.50013833120972e-10
# Data StdDev      =  9.04055267738435 
# Profile Bins     =  512
# Profile Avg      =  0.146298026242799
# Profile StdDev   =  1072.74452941642 
# Reduced chi-sqr  =  0.850
# Prob(Noise)      <  0.994   (~0.0 sigma)
# P_topo (ms)      =  714.580719632067  +/- 9.14e-05
# P'_topo (s/s)    =  -0                +/- 4.91e-11
# P''_topo (s/s^2) =  0                 +/- 2.21e-14
# P_bary (ms)      =  N/A
# P'_bary (s/s)    =  N/A
# P''_bary (s/s^2) =  N/A
# P_orb (s)        =  N/A
# asin(i)/c (s)    =  N/A
# eccentricity     =  N/A
# w (rad)          =  N/A
# T_peri           =  N/A
######################################################
   0  -450.7025
   1  -281.4576
   2  -198.4577
   3  -241.6608
   4  -427.0217
   5  -558.434
   6  -550.2404
   7  -401.7426
   8  -234.2043
   9  -182.8293
  10  -253.7652
  11  117.8612
  12  240.1396
  13  343.2348
  14  -158.9808
  15  -83.07554
  16  -123.0351
  17  -627.6208
  18  -269.8932
  19  -57.23334
  20  535.865
  21  420.9659
  22  -217.6485
  23  -738.838
  24  -1407.42
  25  -1194.724
  26  -740.4725
  27  -228.9005
  28  224.7666
  29  385.7263
  30  568.8303
  31  41.17208
  32  -460.0251
  33  -654.0649
  34  -587.4035
  35  -334.9931
  36  -737.0468
  37  132.4414
  38  329.4427
  39  104.0624
  40  -359.7907
  41  -46.13071
  42  -202.8344
  43  -647.7216
  44  -501.2945
  45  84.9647
  46  378.7697
  47  31.29706
  48  46.35004
  49  -277.2636
  50  -344.5691
  51  -189.3469
  52  -490.8751
  53  -211.8027
  54  -255.1667
  55  -523.1464
  56  -995.7747
  57  -1132.127
  58  -1069.282
  59  -1085.725
  60  -571.9247
  61  -402.9352
  62  -2.996353
  63  -222.7142
  64  -590.0359
  65  -747.1594
  66  -1205.512
  67  -947.9525
  68  -776.7574
  69  -738.9327
  70  127.955
  71  521.3006
  72  -634.4003
  73  -1320.683
  74  -1024.452
  75  -954.5862
  76  -1291.6
  77  -753.4902
  78  -275.2325
  79  -94.08318
  80  -492.3781
  81  -824.3989
  82  -903.6138
  83  -1009.089
  84  -1053.166
  85  -583.5712
  86  -382.1996
  87  -594.9001
  88  -1186.836
  89  -1865.441
  90  -1516.483
  91  -1018.372
  92  -408.0564
  93  -557.2271
  94  -209.484
  95  192.231
  96  -383.6222
  97  -32.49055
  98  -537.4516
  99  -946.4614
 100  -702.697
 101  -650.6208
 102  -478.4738
 103  -50.49691
 104  662.5363
 105  245.905
 106  -320.2784
 107  -297.8649
 108  -363.2629
 109  -460.8122
 110  -155.9255
 111  -84.19386
 112  135.4568
 113  -428.3034
 114  -785.7883
 115  -613.0507
 116  -622.6836
 117  -605.7701
 118  -498.0955
 119  -137.6748
 120  -484.527
 121  -142.0931
 122  -149.7298
 123  -475.6822
 124  -62.47158
 125  24.34008
 126  261.7927
 127  358.5265
 128  316.68
 129  73.93277
 130  -765.3557
 131  -769.9319
 132  -602.6907
 133  -513.4727
 134  -707.0429
 135  -291.4344
 136  -101.9725
 137  196.604
 138  -154.7701
 139  -152.3995
 140  -95.85751
 141  -66.93879
 142  58.32574
 143  -82.13079
 144  512.8893
 145  364.5227
 146  507.3016
 147  583.5379
 148  764.699
 149  654.6465
 150  45.73513
 151  -312.2611
 152  -814.6168
 153  -396.9915
 154  -452.6533
 155  -390.5565
 156  -247.9878
 157  -540.0312
 158  -131.7866
 159  -238.9564
 160  -316.6819
 161  296.2825
 162  -40.00936
 163  -275.071
 164  -447.8048
 165  14.45187
 166  -11.44671
 167  -321.4255
 168  -49.17689
 169  501.4217
 170  329.2556
 171  -51.03701
 172  -731.6483
 173  -851.3624
 174  -730.8217
 175  -640.8761
 176  -306.7183
 177  -184.3744
 178  351.8019
 179  39.80772
 180  186.8647
 181  285.496
 182  -8.423257
 183  -319.6728
 184  -724.9573
 185  -841.156
 186  -757.5743
 187  -420.4843
 188  -261.585
 189  -487.905
 190  -64.67622
 191  -523.8982
 192  -428.313
 193  -215.6885
 194  -103.2584
 195  -21.82543
 196  -198.1644
 197  -241.2128
 198  -735.3651
 199  -1104.617
 200  -256.8759
 201  355.806
 202  769.7293
 203  288.0441
 204  -364.4113
 205  -638.3671
 206  -726.2499
 207  -511.0102
 208  -77.79196
 209  123.7139
 210  534.2162
 211  540.935
 212  320.9287
 213  -115.948
 214  132.9906
 215  -147.1207
 216  -434.7792
 217  -683.6805
 218  -904.691
 219  -485.0735
 220  194.808
 221  -252.0225
 222  135.0533
 223  -42.66489
 224  -324.8407
 225  -620.6742
 226  -390.4423
 227  126.1301
 228  1.590272
 229  -129.5273
 230  -26.56464
 231  -351.8111
 232  -128.8347
 233  70.48267
 234  196.2683
 235  245.0139
 236  11.40282
 237  -592.438
 238  -688.8423
 239  -881.8132
 240  -289.9117
 241  95.77472
 242  282.9655
 243  382.5815
 244  714.6251
 245  161.4754
 246  102.7841
 247  523.3157
 248  775.047
 249  -122.2314
 250  -624.8936
 251  -537.9296
 252  231.8768
 253  753.0683
 254  835.8658
 255  540.4245
 256  425.2591
 257  309.6077
 258  -351.4595
 259  -104.6292
 260  364.9408
 261  1026.575
 262  418.0714
 263  31.91858
 264  90.85421
 265  73.27484
 266  125.4444
 267  193.1102
 268  507.8986
 269  300.7858
 270  198.677
 271  53.06988
 272  -6.471392
 273  66.48211
 274  379.8012
 275  325.5681
 276  411.2166
 277  746.7031
 278  1178.699
 279  801.8388
 280  392.3654
 281  168.8475
 282  400.912
 283  4.351074
 284  285.5981
 285  884.2418
 286  1057.002
 287  529.4661
 288  590.7178
 289  616.2469
 290  762.9556
 291  885.6029
 292  882.1696
 293  1217.151
 294  1296.135
 295  890.8678
 296  890.9603
 297  809.7585
 298  814.4799
 299  610.3021
 300  175.0833
 301  470.23
 302  557.9922
 303  992.3541
 304  515.8113
 305  382.4293
 306  1021.856
 307  770.9893
 308  727.19
 309  984.8367
 310  1189.479
 311  825.5947
 312  331.3149
 313  -32.29775
 314  -254.8057
 315  132.1205
 316  310.5548
 317  736.7429
 318  884.0037
 319  1062.128
 320  167.9727
 321  206.8866
 322  -9.136876
 323  157.7742
 324  457.122
 325  659.6869
 326  779.2012
 327  534.209
 328  339.6648
 329  160.0545
 330  -14.83276
 331  343.9539
 332  6.622871
 333  -333.9648
 334  -578.8843
 335  -528.9313
 336  -609.3412
 337  -200.8092
 338  93.70427
 339  -236.4455
 340  -265.3953
 341  275.8033
 342  342.6939
 343  605.8937
 344  660.136
 345  -21.23842
 346  -304.7357
 347  -233.722
 348  -499.9332
 349  -186.4139
 350  284.3912
 351  639.4897
 352  -38.39655
 353  -547.9973
 354  -944.4169
 355  -942.4926
 356  -636.4805
 357  110.2476
 358  505.7356
 359  985.3651
 360  627.1211
 361  334.973
 362  201.8869
 363  551.7586
 364  1910.002
 365  2422.469
 366  2535.283
 367  3719.139
 368  2956.068
 369  1816.802
 370  -613.6312
 371  2049.083
 372  3352.551
 373  3713.536
 374  3854.897
 375  3244.814
 376  955.9247
 377  517.8333
 378  575.2242
 379  356.8473
 380  84.55211
 381  225.3527
 382  69.06299
 383  740.3649
 384  808.8573
 385  930.5198
 386  661.566
 387  518.1201
 388  480.6019
 389  921.0198
 390  1410.422
 391  2108.93
 392  2472.046
 393  2289.815
 394  1477.351
 395  1168.783
 396  735.089
 397  676.6226
 398  539.7479
 399  276.9065
 400  -30.85623
 401  224.8975
 402  242.1567
 403  60.22056
 404  -514.231
 405  -386.863
 406  -525.5011
 407  -301.5888
 408  103.4609
 409  266.2424
 410  241.8498
 411  -283.471
 412  -286.5706
 413  -27.7468
 414  -9.307333
 415  295.9567
 416  544.3464
 417  966.7839
 418  694.7474
 419  -169.8805
 420  -840.4408
 421  -824.3737
 422  -429.5765
 423  -604.5128
 424  235.6031
 425  577.2897
 426  673.217
 427  876.5504
 428  15.4893
 429  -493.0971
 430  -497.3943
 431  -356.7021
 432  -180.0865
 433  298.5507
 434  651.0458
 435  369.0175
 436  -440.3362
 437  -943.4205
 438  -1129.04
 439  -564.7495
 440  -273.2776
 441  135.3398
 442  443.8998
 443  168.8851
 444  -332.2438
 445  -427.1176
 446  -535.134
 447  -531.2316
 448  -119.6078
 449  -149.2242
 450  -243.8709
 451  -431.4698
 452  -1101.384
 453  -1310.569
 454  -636.6898
 455  -780.7794
 456  -772.2617
 457  -707.0632
 458  -184.246
 459  177.5277
 460  154.0801
 461  -53.16334
 462  -213.3378
 463  -311.373
 464  -358.7979
 465  -795.8738
 466  -36.20747
 467  182.5882
 468  419.7043
 469  17.96101
 470  1.422417
 471  -363.8369
 472  -595.0708
 473  -448.0298
 474  -411.779
 475  326.8283
 476  189.549
 477  -75.29637
 478  -118.0126
 479  346.2193
 480  547.6051
 481  271.809
 482  88.02985
 483  -480.7664
 484  -664.8323
 485  -916.2991
 486  -518.2021
 487  -604.8928
 488  -595.5282
 489  -421.1304
 490  121.3689
 491  455.0623
 492  2.9028
 493  -579.1384
 494  -769.8245
 495  -1146.793
 496  -852.1871
 497  -558.732
 498  -143.9908
 499  -338.9122
 500  289.1626
 501  -409.4493
 502  -789.0081
 503  -1047.627
 504  -987.9583
 505  -503.5069
 506  -441.494
 507  187.2958
 508  441.9978
 509  408.3243
 510  159.1248
 511  -157.2379
