# Input file       =  1203358026.105044-PSRB0329-2ms-sampling-dd.dat
# Candidate        =  PSR_0332+5434
# Telescope        =  AR
# Epoch_topo       =  58171.755151678750
# Epoch_bary       =  N/A
# T_sample         =  0.002
# Data Folded      =  7340032
# Data Avg         =  7.05012660274339e-10
# Data StdDev      =  5.59776321364964 
# Profile Bins     =  512
# Profile Avg      =  0.132540682827442
# Profile StdDev   =  670.237186488435 
# Reduced chi-sqr  =  0.710
# Prob(Noise)      <  1   (~0.0 sigma)
# P_topo (ms)      =  714.581073434642  +/- 0.000114
# P'_topo (s/s)    =  -0                +/- 6e-11
# P''_topo (s/s^2) =  0                 +/- 2.65e-14
# P_bary (ms)      =  N/A
# P'_bary (s/s)    =  N/A
# P''_bary (s/s^2) =  N/A
# P_orb (s)        =  N/A
# asin(i)/c (s)    =  N/A
# eccentricity     =  N/A
# w (rad)          =  N/A
# T_peri           =  N/A
######################################################
   0  -895.3834
   1  -466.9584
   2  1.534007
   3  7.962048
   4  -128.72
   5  -303.2756
   6  -304.5177
   7  -705.1112
   8  -750.944
   9  -619.6962
  10  -248.0367
  11  -198.5486
  12  -393.6561
  13  -456.9917
  14  -894.7194
  15  -905.4463
  16  -296.2362
  17  -8.051929
  18  193.5462
  19  -42.83904
  20  -206.8487
  21  -148.7994
  22  -478.0262
  23  -598.4517
  24  59.05256
  25  -133.0048
  26  -352.7888
  27  -534.9977
  28  -281.8026
  29  -216.3183
  30  -432.0269
  31  -400.3678
  32  -698.6043
  33  -711.5092
  34  -920.9139
  35  -836.2689
  36  -732.0303
  37  -443.0705
  38  -599.5689
  39  -500.5886
  40  -510.4403
  41  -565.951
  42  -345.0499
  43  -354.8447
  44  -296.3182
  45  -288.8417
  46  -311.0016
  47  -89.82353
  48  -343.753
  49  -413.8001
  50  239.2354
  51  205.4211
  52  29.23568
  53  226.4097
  54  322.5416
  55  213.1791
  56  146.3041
  57  -62.92813
  58  -96.79101
  59  -281.1774
  60  -50.31048
  61  -311.2426
  62  -255.0044
  63  100.4495
  64  21.25859
  65  -101.5981
  66  -449.6629
  67  -352.97
  68  -165.8628
  69  -242.8749
  70  -404.7152
  71  -302.7576
  72  -359.4874
  73  -455.6601
  74  -553.7758
  75  -685.2427
  76  -1057.672
  77  -853.0901
  78  -399.6536
  79  -273.3448
  80  278.1805
  81  -244.397
  82  -433.9003
  83  -466.0176
  84  -211.6916
  85  -207.0104
  86  -44.42808
  87  143.1904
  88  -123.665
  89  -218.1383
  90  -109.0842
  91  288.5606
  92  -18.15886
  93  40.2205
  94  -76.86617
  95  -243.646
  96  -497.9136
  97  -679.5272
  98  -697.2805
  99  -613.6471
 100  -398.519
 101  -388.4447
 102  -348.635
 103  -423.1978
 104  -509.5685
 105  -334.5471
 106  -564.284
 107  -372.1337
 108  -225.7898
 109  -214.5235
 110  -738.6635
 111  -514.824
 112  -356.4463
 113  -552.3101
 114  -521.8704
 115  -548.7906
 116  -709.8463
 117  -273.4608
 118  44.52478
 119  133.8893
 120  327.2029
 121  467.5483
 122  140.1595
 123  -147.6905
 124  -45.67022
 125  -77.68423
 126  231.6096
 127  112.0245
 128  106.7227
 129  471.1571
 130  101.6711
 131  207.1899
 132  -27.00776
 133  -536.8775
 134  -124.2865
 135  -405.77
 136  -157.6274
 137  141.509
 138  316.6601
 139  263.1766
 140  -97.66777
 141  -162.0571
 142  -506.9675
 143  -576.3558
 144  -652.9452
 145  -463.8228
 146  226.6117
 147  138.4335
 148  -114.9637
 149  0.4350187
 150  359.3358
 151  143.8199
 152  -283.0814
 153  301.4211
 154  598.139
 155  117.4429
 156  -44.44702
 157  -261.0242
 158  -62.85402
 159  -278.5805
 160  -337.6453
 161  -286.036
 162  -37.36617
 163  -17.99275
 164  -200.9072
 165  -359.4412
 166  -325.119
 167  -151.3543
 168  340.9031
 169  -286.065
 170  -162.2491
 171  266.825
 172  341.209
 173  -235.5172
 174  -449.9127
 175  -30.02851
 176  -57.27894
 177  -183.724
 178  -310.9673
 179  33.53582
 180  124.4556
 181  370.291
 182  134.1694
 183  16.26012
 184  -182.2757
 185  -197.5448
 186  -128.5373
 187  131.6376
 188  585.1424
 189  432.1873
 190  147.2491
 191  153.6391
 192  -219.272
 193  149.0093
 194  86.79761
 195  125.9049
 196  110.4902
 197  107.6731
 198  -245.0504
 199  -445.8437
 200  -143.0118
 201  -5.628378
 202  265.6046
 203  578.5361
 204  785.2068
 205  698.2894
 206  327.2426
 207  334.7177
 208  431.3365
 209  668.6545
 210  835.1925
 211  755.3433
 212  803.7971
 213  82.97534
 214  121.4775
 215  -54.22896
 216  86.73966
 217  -367.165
 218  -667.9843
 219  -181.2206
 220  289.1074
 221  666.9854
 222  285.5416
 223  -164.7461
 224  -135.8872
 225  88.86015
 226  397.9918
 227  375.079
 228  140.8999
 229  254.1449
 230  290.4658
 231  -164.0248
 232  -507.0385
 233  -341.212
 234  107.4659
 235  -311.6534
 236  2.09671
 237  704.1679
 238  642.929
 239  230.3249
 240  -373.0519
 241  -16.88009
 242  95.1216
 243  -160.8123
 244  65.84527
 245  556.3829
 246  556.7528
 247  368.993
 248  478.5747
 249  335.8697
 250  188.9642
 251  258.6745
 252  853.1856
 253  1556.756
 254  1358.384
 255  997.7705
 256  571.1354
 257  393.813
 258  353.3647
 259  858.3224
 260  1090.175
 261  1046.209
 262  729.6647
 263  795.12
 264  426.3157
 265  123.8617
 266  239.7865
 267  402.3401
 268  507.3822
 269  445.735
 270  655.9478
 271  485.2983
 272  546.0989
 273  407.5359
 274  228.9019
 275  779.2479
 276  577.5742
 277  600.0267
 278  901.6337
 279  786.6594
 280  343.7031
 281  7.22681
 282  794.4578
 283  673.1744
 284  385.5365
 285  518.9504
 286  618.5733
 287  609.4876
 288  475.1857
 289  489.1873
 290  116.018
 291  118.9313
 292  456.6052
 293  418.8208
 294  423.6162
 295  412.094
 296  585.4762
 297  707.924
 298  448.8557
 299  762.4095
 300  780.838
 301  606.952
 302  625.3444
 303  695.7303
 304  575.4388
 305  258.2352
 306  261.7708
 307  307.0377
 308  89.0693
 309  193.5211
 310  216.7014
 311  640.5939
 312  393.5192
 313  586.9753
 314  295.0249
 315  43.46545
 316  225.9056
 317  -229.2377
 318  140.0517
 319  -73.14993
 320  169.991
 321  172.7836
 322  101.6894
 323  -64.45811
 324  -66.14705
 325  282.6346
 326  287.5506
 327  323.3167
 328  103.8099
 329  186.1729
 330  164.4813
 331  -227.8474
 332  62.82721
 333  11.98046
 334  181.1986
 335  228.4462
 336  194.2503
 337  193.8297
 338  -24.57374
 339  -33.59848
 340  76.68611
 341  419.75
 342  453.9205
 343  375.8915
 344  307.8415
 345  189.9868
 346  166.8142
 347  174.4425
 348  129.2606
 349  76.10044
 350  98.13602
 351  69.14969
 352  212.1389
 353  87.26791
 354  45.56256
 355  9.914804
 356  -330.0365
 357  -267.4488
 358  -12.972
 359  -69.7393
 360  -162.8522
 361  85.59837
 362  125.4671
 363  253.0343
 364  54.7664
 365  112.031
 366  206.2175
 367  232.5812
 368  103.0911
 369  287.1281
 370  421.6257
 371  -97.32681
 372  28.10235
 373  255.3092
 374  296.2259
 375  318.2157
 376  -147.4318
 377  -605.5803
 378  -590.2947
 379  323.9697
 380  -24.62232
 381  113.8951
 382  345.0481
 383  388.415
 384  -104.3769
 385  86.70483
 386  272.0565
 387  31.09924
 388  283.6529
 389  88.80991
 390  277.8434
 391  30.84743
 392  -116.8339
 393  -178.5957
 394  -49.10706
 395  -442.4688
 396  84.75081
 397  371.3118
 398  -43.35982
 399  -41.86009
 400  -117.828
 401  64.60504
 402  -330.269
 403  -666.1458
 404  -390.6225
 405  -224.1653
 406  -27.25599
 407  229.772
 408  513.8688
 409  147.1594
 410  -137.4082
 411  411.8214
 412  -220.4458
 413  -550.2661
 414  -192.338
 415  750.7578
 416  167.88
 417  -550.626
 418  -391.9677
 419  -579.6318
 420  -578.0992
 421  -690.9102
 422  -356.4946
 423  -60.42823
 424  126.3682
 425  -216.0942
 426  -298.7771
 427  -213.0333
 428  34.26976
 429  38.01358
 430  25.45715
 431  325.9812
 432  512.946
 433  -61.74418
 434  -530.239
 435  -752.7779
 436  -335.7781
 437  -480.4342
 438  -195.3406
 439  -86.52319
 440  347.4852
 441  355.4247
 442  225.983
 443  -350.5882
 444  -598.6854
 445  -441.6824
 446  -307.0989
 447  317.8949
 448  887.0007
 449  682.4808
 450  -39.82985
 451  -98.99615
 452  -291.7174
 453  -520.0621
 454  -55.90572
 455  474.1451
 456  592.8462
 457  642.2667
 458  247.4547
 459  133.7211
 460  -396.5924
 461  -572.8013
 462  172.5543
 463  290.433
 464  718.9075
 465  593.3327
 466  612.8702
 467  605.293
 468  95.35284
 469  80.23311
 470  -13.90253
 471  -351.2849
 472  49.00349
 473  298.2976
 474  -101.5836
 475  -363.4453
 476  -230.8685
 477  -473.962
 478  -400.6015
 479  -264.5749
 480  -287.8173
 481  -479.8145
 482  -505.4858
 483  -466.0327
 484  -296.3023
 485  -587.9674
 486  -1127.109
 487  -936.5567
 488  -1113.582
 489  -379.0272
 490  -115.1932
 491  -133.1153
 492  -598.2534
 493  -652.5848
 494  -511.8018
 495  -765.2873
 496  -56.0214
 497  414.9602
 498  44.80137
 499  19.03486
 500  -86.24918
 501  -306.2637
 502  -394.6863
 503  -122.8913
 504  144.1429
 505  398.9433
 506  362.6385
 507  7.177402
 508  -224.3579
 509  8.986121
 510  -244.4433
 511  -503.0441
