# Input file       =  1203429282.104877_cleaned.dat
# Candidate        =  PSR_0332+5434
# Telescope        =  AR
# Epoch_topo       =  58172.579873899042
# Epoch_bary       =  N/A
# T_sample         =  0.002
# Data Folded      =  7340032
# Data Avg         =  0.538007333990078
# Data StdDev      =  9.95913641368611 
# Profile Bins     =  256
# Profile Avg      =  15425.6279984415 
# Profile StdDev   =  1686.36148630919 
# Reduced chi-sqr  =  2.406
# Prob(Noise)      <  1.47e-31   (~11.6 sigma)
# P_topo (ms)      =  714.580744070334  +/- 0.000615
# P'_topo (s/s)    =  -0                +/- 3.25e-10
# P''_topo (s/s^2) =  0                 +/- 1.43e-13
# P_bary (ms)      =  N/A
# P'_bary (s/s)    =  N/A
# P''_bary (s/s^2) =  N/A
# P_orb (s)        =  N/A
# asin(i)/c (s)    =  N/A
# eccentricity     =  N/A
# w (rad)          =  N/A
# T_peri           =  N/A
######################################################
   0  13471.56
   1  13548.97
   2  13073.32
   3  11924.81
   4  12403.79
   5  12710.51
   6  13018.17
   7  14588.68
   8  14765.25
   9  15608.38
  10  15587.83
  11  13489.57
  12  13053.35
  13  13744.03
  14  12928.06
  15  12280.89
  16  12674.97
  17  14446.98
  18  15832.16
  19  15870.62
  20  16165.19
  21  15839.59
  22  16816.89
  23  16834.58
  24  15943.17
  25  15181.92
  26  14218.13
  27  15872.49
  28  15628.82
  29  14830.6
  30  14960.95
  31  15349.4
  32  16245.47
  33  15939.05
  34  16933.9
  35  15970.15
  36  13948.76
  37  12882.6
  38  13293.94
  39  13195.08
  40  12785.67
  41  11762.28
  42  12097.89
  43  11804.18
  44  11363.72
  45  11475.28
  46  11138.39
  47  10732.97
  48  11287.93
  49  11908.83
  50  12052.21
  51  12185.33
  52  13302.54
  53  12288.73
  54  12342.97
  55  12179.7
  56  13435.58
  57  14642.76
  58  13705.57
  59  13841.69
  60  13665.22
  61  14529.81
  62  15899.86
  63  14847.34
  64  14384.29
  65  15808.47
  66  14861.29
  67  14063.87
  68  13918.98
  69  12647.91
  70  13088.35
  71  14596.68
  72  13944.08
  73  11461.66
  74  12054.63
  75  12717.37
  76  13648.25
  77  13380.77
  78  13941.48
  79  14817.14
  80  15094.93
  81  14796.73
  82  15805.43
  83  15901.84
  84  14671.41
  85  15627.9
  86  16369.79
  87  16506.8
  88  17193.72
  89  17056.4
  90  16464.93
  91  17453.76
  92  17014.38
  93  15181.36
  94  14203.57
  95  13863.17
  96  12527.51
  97  14110.08
  98  14970.08
  99  14523.74
 100  14444.73
 101  14731.95
 102  14345.91
 103  12643.93
 104  13389.66
 105  14228.57
 106  14341.9
 107  13298.62
 108  13743.7
 109  16350.24
 110  14919.79
 111  14008.52
 112  15644.95
 113  15139.24
 114  12453.64
 115  13539.58
 116  15002.97
 117  14924.98
 118  16470.51
 119  16843.45
 120  15950.51
 121  15955.98
 122  17099.72
 123  17237.22
 124  16709.86
 125  17974.21
 126  17678.79
 127  19068.12
 128  17498.01
 129  17402.22
 130  18784.26
 131  17141.28
 132  16705.99
 133  17191.73
 134  18606.17
 135  18488.35
 136  19311.55
 137  19037.17
 138  19468.32
 139  19467.96
 140  18979.19
 141  18843.21
 142  18623.77
 143  18848.87
 144  19622.75
 145  18600.13
 146  19686.77
 147  21047.46
 148  21764.82
 149  20572.16
 150  20892.15
 151  22864.57
 152  22168.03
 153  23459.49
 154  22536.09
 155  19967.15
 156  18930.26
 157  18833.56
 158  17307.76
 159  16044.01
 160  15805.27
 161  15649.72
 162  16895.73
 163  17452.57
 164  17550.71
 165  18050.97
 166  17105.42
 167  15221.28
 168  16843.64
 169  17116.23
 170  16669.88
 171  15939.87
 172  16760.72
 173  16530.66
 174  14637.26
 175  14448.17
 176  13969.17
 177  15686.8
 178  14270.12
 179  14705.69
 180  16655.21
 181  17012.63
 182  16696.65
 183  17617.21
 184  19300.8
 185  19386.11
 186  18464.12
 187  17833.38
 188  19393.67
 189  18353.46
 190  16567.78
 191  18103.91
 192  18329.11
 193  17824.95
 194  17722.02
 195  16037.2
 196  14485.65
 197  14354.94
 198  14500.19
 199  13186.44
 200  13700.67
 201  14410.02
 202  14815.88
 203  14515.72
 204  15274.71
 205  15136.74
 206  14146.07
 207  12971.12
 208  13544.05
 209  14353.75
 210  15214.42
 211  15108.46
 212  14663.67
 213  14957.06
 214  15107.57
 215  14478.73
 216  14655.25
 217  14568.76
 218  14924.33
 219  15456.83
 220  16771.29
 221  15936.19
 222  16127.1
 223  16726.85
 224  15327.1
 225  14675.17
 226  15104.23
 227  14737.39
 228  14594.03
 229  15279.27
 230  14533.4
 231  14140.87
 232  14840.6
 233  14495.04
 234  15180.64
 235  13878.11
 236  14509.86
 237  15193.9
 238  14662.34
 239  13657.24
 240  13363.05
 241  14208.02
 242  13974.44
 243  13644
 244  14725.76
 245  15532.84
 246  15400.12
 247  14719.6
 248  15405.57
 249  14431.53
 250  14232.43
 251  15291.84
 252  15746.21
 253  14296.12
 254  13637.87
 255  12983.39
