# Input file       =  1203343110.089843-PSRB0329-2ms-sampling-dd.dat
# Candidate        =  PSR_0332+5434
# Telescope        =  AR
# Epoch_topo       =  58171.582512613924
# Epoch_bary       =  N/A
# T_sample         =  0.002
# Data Folded      =  7340032
# Data Avg         =  2.89646148652146e-09
# Data StdDev      =  45.9132692015699 
# Profile Bins     =  512
# Profile Avg      =  0.584193813864258
# Profile StdDev   =  5497.33513148782 
# Reduced chi-sqr  =  1.125
# Prob(Noise)      <  0.0264   (~1.9 sigma)
# P_topo (ms)      =  714.580730703343  +/- 0.000487
# P'_topo (s/s)    =  -0                +/- 2.57e-10
# P''_topo (s/s^2) =  0                 +/- 1.13e-13
# P_bary (ms)      =  N/A
# P'_bary (s/s)    =  N/A
# P''_bary (s/s^2) =  N/A
# P_orb (s)        =  N/A
# asin(i)/c (s)    =  N/A
# eccentricity     =  N/A
# w (rad)          =  N/A
# T_peri           =  N/A
######################################################
   0  -619.7231
   1  -343.5497
   2  307.0703
   3  647.0814
   4  -360.0373
   5  -1633.642
   6  -2328.999
   7  -1591.405
   8  -1026.645
   9  -832.253
  10  -939.531
  11  -775.0654
  12  -1462.48
  13  -2087.266
  14  -2345.23
  15  -2105.295
  16  -2019.613
  17  -1726.584
  18  -1557.809
  19  -1940.145
  20  -1415.069
  21  -821.4526
  22  110.7736
  23  -245.3009
  24  -556.2981
  25  -913.3065
  26  -2122.494
  27  -1916.301
  28  -1285.469
  29  951.3503
  30  1672.447
  31  1409.48
  32  775.2325
  33  -300.4239
  34  -579.8799
  35  -1232.11
  36  -951.8841
  37  -360.3115
  38  -158.3601
  39  -240.7698
  40  -807.8295
  41  -1191.907
  42  -1326.935
  43  -126.026
  44  782.9308
  45  1809.735
  46  1184.271
  47  541.178
  48  166.8447
  49  -1235.547
  50  -664.1762
  51  -447.8986
  52  -123.2163
  53  -299.0311
  54  -678.4059
  55  -998.1392
  56  -1238.383
  57  -1200.199
  58  -1356.135
  59  -1222.76
  60  -1409.904
  61  -2121.836
  62  -1688.497
  63  -1973.107
  64  -1660.577
  65  -1376.075
  66  -1583.047
  67  -1673.083
  68  -1803.691
  69  -1524.194
  70  -1055.603
  71  -888.7468
  72  -181.5858
  73  -218.8743
  74  -446.9488
  75  -611.2413
  76  -542.233
  77  -687.5674
  78  -491.7073
  79  -206.1026
  80  61.55441
  81  -151.1652
  82  -246.7978
  83  -111.5241
  84  274.1301
  85  178.2199
  86  777.6637
  87  682.2151
  88  732.6601
  89  750.1805
  90  328.5272
  91  -425.7924
  92  -772.843
  93  -394.0567
  94  337.4107
  95  784.8199
  96  647.59
  97  183.2115
  98  -71.67649
  99  -153.7629
 100  280.8195
 101  949.7861
 102  1214.405
 103  1391.072
 104  1194.084
 105  892.309
 106  1082.321
 107  731.9926
 108  566.1776
 109  -54.9767
 110  -189.6155
 111  -197.3777
 112  -55.30101
 113  -167.8614
 114  -210.3701
 115  1069.231
 116  1731.719
 117  863.5972
 118  1085.068
 119  865.6324
 120  1016.742
 121  973.1532
 122  2224.08
 123  1569.456
 124  472.0633
 125  -529.9571
 126  -1038.184
 127  -1125.832
 128  -427.6331
 129  -319.5799
 130  -365.3969
 131  -1087.082
 132  -1321.472
 133  -1618.212
 134  -1273.044
 135  -944.3949
 136  -586.463
 137  -742.5229
 138  -799.9727
 139  -802.1472
 140  -993.8607
 141  -561.8948
 142  -4.501387
 143  -2.214781
 144  322.1306
 145  -523.5457
 146  -1288.31
 147  -1513.347
 148  -841.5895
 149  -545.7398
 150  -564.6526
 151  -702.6012
 152  -836.5222
 153  -1275.18
 154  -1430.959
 155  -880.1546
 156  -518.3989
 157  -202.7827
 158  -188.0514
 159  -765.1423
 160  -1277.354
 161  -1109.741
 162  -1213.191
 163  -968.2974
 164  -173.5656
 165  -364.5029
 166  -1002.965
 167  -1382.913
 168  -1264.04
 169  -1337.41
 170  -192.7471
 171  -909.4686
 172  -673.6498
 173  -531.0094
 174  -1845.852
 175  -1228.975
 176  -961.0339
 177  -2090.553
 178  -766.6648
 179  -305.9655
 180  -1229.261
 181  17862.43
 182  29879.01
 183  42493.71
 184  33782.26
 185  25496.16
 186  17206.29
 187  -1542.709
 188  12412.94
 189  22037.68
 190  27100.65
 191  25309.96
 192  20745.28
 193  10202.82
 194  1159.181
 195  -390.4176
 196  -918.6202
 197  -2076.82
 198  -1741.858
 199  -1064.658
 200  -955.999
 201  -1255.55
 202  -1108.771
 203  -1638.859
 204  -1071.077
 205  -1296.074
 206  -1236.335
 207  -1294.512
 208  -1782.125
 209  -1706.508
 210  -2056.134
 211  -1570.635
 212  -1031.876
 213  -649.2722
 214  -849.4877
 215  -1248.286
 216  -1482.697
 217  -1863.678
 218  -1823.965
 219  -1676.506
 220  -1689.578
 221  -2032.797
 222  -1736.163
 223  -2279.103
 224  -2672.463
 225  -2435.416
 226  -2122.445
 227  -2173.989
 228  -2307.381
 229  -2246.125
 230  -2479.153
 231  -2082.554
 232  -1552.089
 233  -1338.12
 234  -1479.713
 235  -1357.177
 236  -1736.937
 237  -1773.556
 238  -1434.972
 239  -1609.552
 240  -1404.026
 241  -1302.351
 242  -1344.546
 243  -1340.278
 244  -1270.976
 245  -1386.716
 246  -1991.113
 247  -1577.672
 248  -1510.166
 249  -1269.671
 250  -1310.928
 251  -1281.238
 252  -1716.026
 253  -2010.082
 254  -1733.18
 255  -1862.559
 256  -1082.973
 257  -1079.895
 258  -1015.747
 259  -1333.816
 260  -1958.245
 261  -1610.237
 262  -1660.757
 263  -1810.978
 264  -1698.613
 265  -1373.264
 266  -1722.135
 267  -1918.441
 268  -2033.723
 269  -2233.544
 270  -202.6875
 271  132.5963
 272  432.0242
 273  -14.99955
 274  -1241.997
 275  -1480.96
 276  -1406.778
 277  -406.9832
 278  -315.2784
 279  -456.5072
 280  -746.6616
 281  -1071.488
 282  -1517.233
 283  -1219.458
 284  -889.1755
 285  -402.7834
 286  -307.2562
 287  -355.5257
 288  -707.4092
 289  -1636.021
 290  -875.8277
 291  -362.1043
 292  561.2471
 293  291.7807
 294  -78.85724
 295  -694.4065
 296  -1587.418
 297  -1394.44
 298  -1180.192
 299  -500.9801
 300  -323.3242
 301  -592.4311
 302  -1250.286
 303  -1809.535
 304  -1779.878
 305  -1986.97
 306  257.2441
 307  2469.867
 308  5566.926
 309  7206.746
 310  6157.959
 311  4088.178
 312  1384.858
 313  1665.095
 314  1611.238
 315  3557.712
 316  4072.925
 317  3553.333
 318  2166.978
 319  696.9
 320  -431.0716
 321  -1462.983
 322  -2133.49
 323  -2334.9
 324  -2175.858
 325  -1920.362
 326  -1510.219
 327  -1213.548
 328  -1185.917
 329  -876.2896
 330  -1382.014
 331  -1479.793
 332  -1642.86
 333  -1444.029
 334  -1194.79
 335  -631.496
 336  -839.6927
 337  -1231.474
 338  -1444.66
 339  -1102.609
 340  -685.4341
 341  -172.2223
 342  -12.19828
 343  -506.2206
 344  -674.7233
 345  -975.3434
 346  -1229.223
 347  -760.54
 348  -314.0479
 349  -198.221
 350  -659.3039
 351  -1095.724
 352  -1621.215
 353  -2060.488
 354  -1972.279
 355  -1634.074
 356  -1325.612
 357  -1301.28
 358  -1521.208
 359  -1869.032
 360  -2193.095
 361  -2135.191
 362  -1979.515
 363  -1648.206
 364  -1870.522
 365  -1639.71
 366  -1656.393
 367  -1674.934
 368  -1631.37
 369  -831.6577
 370  -826.6368
 371  -844.8642
 372  -593.9156
 373  -731.8482
 374  -939.5211
 375  -1270.012
 376  -979.2275
 377  -1359.575
 378  -1465.455
 379  -1233.587
 380  -1107.803
 381  -1226.92
 382  -1110.894
 383  -901.9236
 384  -1115.966
 385  -1397.478
 386  -1282.663
 387  -974.8583
 388  -1303.109
 389  -1624.909
 390  -1209.681
 391  -1335.847
 392  -1667.032
 393  -1811.43
 394  -1797.549
 395  -1682.196
 396  -1482.353
 397  -1155.986
 398  -1250.494
 399  -1486.378
 400  -1486.818
 401  -1198.76
 402  -1504.044
 403  -2028.745
 404  -1989.277
 405  -1447.349
 406  -1584.363
 407  -1438.243
 408  -1094.133
 409  -1322.794
 410  -1153.246
 411  -999.7707
 412  -429.5821
 413  -508.6895
 414  -884.0068
 415  -1325.323
 416  -1548.932
 417  -1206.375
 418  -886.9493
 419  -821.9641
 420  -876.7863
 421  -790.9154
 422  -861.8441
 423  -1051.63
 424  -1372.264
 425  -1678.86
 426  -1491.487
 427  -1623.808
 428  -1280.631
 429  -1170.285
 430  -1453.091
 431  -1476.966
 432  -1914.829
 433  -2097.446
 434  -1656.596
 435  -1574.467
 436  -1837.538
 437  -1935.68
 438  -2039.437
 439  -2309.669
 440  -2330.742
 441  -1952.267
 442  -1698.274
 443  -1409.809
 444  -1112.736
 445  -1309.212
 446  -1689.169
 447  -2180.877
 448  -199.737
 449  2816.083
 450  6652.398
 451  10555.52
 452  10261.48
 453  9866.035
 454  4604.057
 455  3588.755
 456  3844.2
 457  4772.146
 458  7572.491
 459  7840.016
 460  7001.702
 461  2118.484
 462  1670.212
 463  348.6654
 464  -1084.528
 465  -1415.99
 466  -1660.792
 467  -1981.446
 468  -1520.865
 469  -1172.258
 470  -190.1353
 471  778.0806
 472  641.8042
 473  465.788
 474  -278.1328
 475  -962.8213
 476  -1270.876
 477  -616.3295
 478  750.1887
 479  569.4223
 480  477.2649
 481  332.1685
 482  -468.9928
 483  -77.74649
 484  468.2069
 485  3129.897
 486  2601.905
 487  1869.612
 488  1202.577
 489  -288.394
 490  -561.1551
 491  231.6409
 492  520.1018
 493  374.8856
 494  109.516
 495  -632.348
 496  -1155.177
 497  -1084.607
 498  -395.7083
 499  -198.6662
 500  139.5626
 501  322.1221
 502  -163.4011
 503  -258.0804
 504  -704.8884
 505  -631.0393
 506  -202.8172
 507  390.19
 508  466.4682
 509  -224.6812
 510  -800.0981
 511  -1291.406
