# Input file       =  1203090916.122294-PSRB0329-2ms-sampling-dd.dat
# Candidate        =  PSR_0332+5434
# Telescope        =  AR
# Epoch_topo       =  58168.663600952474
# Epoch_bary       =  N/A
# T_sample         =  0.002
# Data Folded      =  7340032
# Data Avg         =  9.53550406315544e-10
# Data StdDev      =  6.86839435343395 
# Profile Bins     =  512
# Profile Avg      =  0.444213969027233
# Profile StdDev   =  822.373710969682 
# Reduced chi-sqr  =  0.694
# Prob(Noise)      <  1   (~0.0 sigma)
# P_topo (ms)      =  714.580705522024  +/- 0.000721
# P'_topo (s/s)    =  -0                +/- 3.8e-10
# P''_topo (s/s^2) =  0                 +/- 1.68e-13
# P_bary (ms)      =  N/A
# P'_bary (s/s)    =  N/A
# P''_bary (s/s^2) =  N/A
# P_orb (s)        =  N/A
# asin(i)/c (s)    =  N/A
# eccentricity     =  N/A
# w (rad)          =  N/A
# T_peri           =  N/A
######################################################
   0  585.9881
   1  404.1109
   2  406.4855
   3  702.2868
   4  599.8034
   5  410.8173
   6  -116.4584
   7  -255.6987
   8  -260.2363
   9  -44.3283
  10  97.92011
  11  -474.2424
  12  -731.9393
  13  -564.5453
  14  -312.9188
  15  -141.4507
  16  -33.67863
  17  -116.0151
  18  -537.524
  19  -357.4852
  20  151.7645
  21  -39.0912
  22  -122.534
  23  9.219117
  24  22.03882
  25  -332.2922
  26  -328.5705
  27  -622.3309
  28  -546.6075
  29  -252.0298
  30  -453.4546
  31  -620.6216
  32  -908.0381
  33  -1221.145
  34  -864.6711
  35  -700.2596
  36  -802.0186
  37  -723.0707
  38  -914.8878
  39  -1158.859
  40  -1287.442
  41  -666.6768
  42  -428.2387
  43  -659.2346
  44  -219.1195
  45  -193.2932
  46  1.569128
  47  -257.2156
  48  -95.53928
  49  -262.189
  50  -221.2882
  51  -74.16421
  52  242.7995
  53  64.20089
  54  -84.14032
  55  131.9553
  56  195.2544
  57  224.6525
  58  409.0076
  59  17.0491
  60  -111.4222
  61  -588.8925
  62  -341.9507
  63  71.86102
  64  235.9149
  65  324.6411
  66  -189.1136
  67  -401.9461
  68  -23.63246
  69  -464.4548
  70  -602.4939
  71  -286.9045
  72  250.2341
  73  -7.65109
  74  -475.0506
  75  -487.4487
  76  -369.6772
  77  -369.3901
  78  -270.4003
  79  -143.1034
  80  -360.7988
  81  -554.7235
  82  -748.7119
  83  -530.9644
  84  -296.2448
  85  -533.3529
  86  -47.35468
  87  -275.9755
  88  -671.4444
  89  -903.86
  90  -900.0656
  91  -189.308
  92  45.0623
  93  -29.87289
  94  100.4093
  95  148.9502
  96  -143.1535
  97  -405.9145
  98  -474.5823
  99  -151.6171
 100  -201.2753
 101  -312.0938
 102  -245.417
 103  -500.3542
 104  -568.1682
 105  -543.8076
 106  -307.4955
 107  -231.9767
 108  -282.5732
 109  -449.3079
 110  -786.4194
 111  -589.7048
 112  -556.2496
 113  -395.7061
 114  -204.8616
 115  -195.8447
 116  -9.935499
 117  -354.9065
 118  -69.94704
 119  -174.8154
 120  -121.8446
 121  -229.7862
 122  -360.0333
 123  -185.0119
 124  -189.8067
 125  -363.3486
 126  -285.4736
 127  -304.0969
 128  -170.1015
 129  -1.43985
 130  -130.6484
 131  -381.9084
 132  -82.17359
 133  83.56187
 134  -325.1284
 135  -367.0045
 136  -73.55531
 137  -82.63835
 138  -264.6784
 139  -450.2885
 140  -362.6921
 141  -141.7311
 142  -231.9355
 143  -325.9501
 144  259.4812
 145  242.7078
 146  10.82609
 147  156.2369
 148  82.31339
 149  -11.67692
 150  500.5171
 151  671.9216
 152  412.7448
 153  94.25145
 154  269.0205
 155  -108.6304
 156  -22.73038
 157  490.1737
 158  741.098
 159  849.9127
 160  627.86
 161  924.7284
 162  1014.512
 163  700.8832
 164  758.0314
 165  1007.942
 166  1367.238
 167  1065.705
 168  734.1761
 169  808.7287
 170  503.0244
 171  383.011
 172  239.774
 173  319.6242
 174  -9.217393
 175  -247.7504
 176  -102.5074
 177  -195.2548
 178  -256.2758
 179  -204.3897
 180  -589.3594
 181  -519.4983
 182  -137.1371
 183  219.9109
 184  55.25951
 185  167.494
 186  30.01858
 187  164.4957
 188  147.0672
 189  -59.76569
 190  -475.572
 191  -302.425
 192  202.4873
 193  -39.7225
 194  149.0971
 195  -143.4822
 196  -145.9478
 197  -122.0322
 198  -250.803
 199  -623.3185
 200  -534.1918
 201  1.499983
 202  -31.07359
 203  106.3012
 204  -270.6165
 205  -465.8171
 206  -429.9451
 207  -338.5305
 208  -399.1279
 209  -174.3185
 210  -26.89958
 211  -22.50941
 212  -158.5342
 213  -194.2845
 214  -251.8885
 215  -807.1625
 216  -546.2101
 217  -336.1345
 218  -52.29333
 219  -173.0872
 220  -214.07
 221  -355.3895
 222  -132.2516
 223  -151.7577
 224  -179.8309
 225  -87.87318
 226  -88.0877
 227  80.35312
 228  -118.8406
 229  -15.46932
 230  513.3505
 231  745.6972
 232  188.5595
 233  105.4084
 234  -276.8158
 235  41.40712
 236  18.80144
 237  -23.61985
 238  150.8594
 239  -328.0069
 240  -413.7255
 241  -713.105
 242  -737.6786
 243  -221.3632
 244  -278.1122
 245  -311.3555
 246  -835.9835
 247  -1227.656
 248  -823.6884
 249  -93.2168
 250  19.9742
 251  18.85162
 252  -178.7397
 253  -655.7862
 254  -367.7703
 255  -14.03289
 256  253.1023
 257  244.0787
 258  205.1585
 259  52.89885
 260  -24.46582
 261  141.7467
 262  272.9717
 263  477.7712
 264  251.9946
 265  32.30795
 266  -348.4756
 267  -131.8085
 268  -334.0589
 269  -40.54551
 270  317.8869
 271  299.9001
 272  -119.9701
 273  -154.2789
 274  -388.7058
 275  -242.5132
 276  -97.61197
 277  -103.092
 278  1.977428
 279  -531.2215
 280  -610.12
 281  -569.5177
 282  -271.048
 283  -54.7488
 284  -84.73953
 285  65.41819
 286  361.1796
 287  291.5378
 288  -159.8346
 289  -196.9066
 290  19.13403
 291  455.5195
 292  514.8105
 293  634.0205
 294  439.0633
 295  235.0523
 296  251.4688
 297  88.5893
 298  26.88604
 299  -311.8223
 300  83.32362
 301  116.4137
 302  206.4735
 303  144.415
 304  212.6699
 305  -222.0665
 306  -578.5646
 307  -152.9528
 308  -73.54943
 309  -230.0076
 310  -17.70635
 311  346.5169
 312  710.0596
 313  246.3064
 314  -492.0807
 315  -399.3249
 316  -283.3397
 317  -403.7454
 318  -87.86666
 319  -55.39434
 320  -112.6062
 321  67.59182
 322  -30.1802
 323  -23.69101
 324  -112.3102
 325  226.2583
 326  17.2543
 327  -569.4092
 328  -320.4613
 329  -293.0551
 330  -448.4905
 331  -367.6674
 332  -119.7622
 333  -255.1937
 334  -582.7686
 335  -406.0976
 336  -593.7126
 337  -696.4154
 338  -606.0769
 339  -516.4338
 340  -751.9811
 341  -359.886
 342  -417.5344
 343  -552.2516
 344  -448.6352
 345  34.63639
 346  -159.799
 347  -547.8348
 348  -380.4323
 349  -124.7896
 350  -132.1619
 351  -354.8942
 352  -283.0172
 353  194.7545
 354  -32.75023
 355  -199.3597
 356  -458.0796
 357  -533.6649
 358  -500.8438
 359  -813.0393
 360  -973.3243
 361  -583.3557
 362  -186.5198
 363  -445.6019
 364  -822.1929
 365  -833.7094
 366  -865.5026
 367  -318.79
 368  -434.4977
 369  -496.0877
 370  -404.7006
 371  -275.9997
 372  -245.4942
 373  -308.0225
 374  -192.461
 375  -115.8879
 376  -22.70897
 377  215.9795
 378  352.2198
 379  338.5654
 380  7.043044
 381  -83.2952
 382  288.0136
 383  163.6049
 384  134.8519
 385  -132.6717
 386  282.9478
 387  301.8368
 388  86.86519
 389  167.3777
 390  284.2921
 391  -210.4521
 392  -661.7176
 393  -470.7507
 394  -340.2475
 395  -440.3809
 396  -454.9476
 397  178.828
 398  595.4903
 399  603.5263
 400  515.9814
 401  262.8122
 402  494.842
 403  476.3097
 404  378.6691
 405  791.1135
 406  823.5568
 407  554.9507
 408  329.5663
 409  429.0285
 410  128.7803
 411  429.6673
 412  845.9067
 413  216.8108
 414  -16.37922
 415  -388.8714
 416  -339.3271
 417  -36.05558
 418  -395.2032
 419  -348.4188
 420  -234.6874
 421  -172.2793
 422  -263.6357
 423  -321.4565
 424  -63.20523
 425  -21.00384
 426  -26.26644
 427  224.9208
 428  198.9727
 429  474.7368
 430  378.5519
 431  32.23952
 432  51.74023
 433  27.969
 434  60.39595
 435  247.0474
 436  556.6392
 437  694.6729
 438  477.5898
 439  840.1096
 440  1108.515
 441  1409.052
 442  1313.287
 443  1263.647
 444  1644.169
 445  2009.401
 446  2120.335
 447  1928.149
 448  1416.432
 449  1012.204
 450  398.0592
 451  20.48774
 452  137.6145
 453  -91.32212
 454  85.6451
 455  229.8843
 456  129.9469
 457  -7.753248
 458  -247.6877
 459  223.2424
 460  490.0822
 461  831.3366
 462  657.6694
 463  543.592
 464  4.501107
 465  -163.1693
 466  -12.29276
 467  92.566
 468  669.1534
 469  683.6552
 470  1012.445
 471  279.3902
 472  -178.3474
 473  -114.0758
 474  142.1351
 475  360.3407
 476  232.3012
 477  318.8535
 478  496.3076
 479  276.2881
 480  619.6876
 481  611.7238
 482  707.9186
 483  954.8612
 484  678.3289
 485  1009.454
 486  533.2324
 487  458.2595
 488  435.4111
 489  470.2759
 490  665.1255
 491  1078.004
 492  1071.303
 493  847.0842
 494  820.2786
 495  744.3527
 496  1086.969
 497  830.7582
 498  1090.653
 499  995.8553
 500  1175.794
 501  951.3662
 502  1044.547
 503  837.7021
 504  680.6948
 505  699.0577
 506  804.9552
 507  956.7806
 508  985.5153
 509  687.4502
 510  651.0081
 511  746.9094
