# Input file       =  1203105821.111271_cleaned.dat
# Candidate        =  PSR_0332+5434
# Telescope        =  AR
# Epoch_topo       =  58168.836112398967
# Epoch_bary       =  N/A
# T_sample         =  0.002
# Data Folded      =  7340032
# Data Avg         =  0.0458038375924973
# Data StdDev      =  2.45372093221852 
# Profile Bins     =  256
# Profile Avg      =  1311.61265052124 
# Profile StdDev   =  415.483863897843 
# Reduced chi-sqr  =  1.247
# Prob(Noise)      <  0.00445   (~2.6 sigma)
# P_topo (ms)      =  714.581091279726  +/- 0.000256
# P'_topo (s/s)    =  -0                +/- 1.35e-10
# P''_topo (s/s^2) =  0                 +/- 5.97e-14
# P_bary (ms)      =  N/A
# P'_bary (s/s)    =  N/A
# P''_bary (s/s^2) =  N/A
# P_orb (s)        =  N/A
# asin(i)/c (s)    =  N/A
# eccentricity     =  N/A
# w (rad)          =  N/A
# T_peri           =  N/A
######################################################
   0  1253.007
   1  1035.386
   2  1227.735
   3  853.4785
   4  841.8737
   5  1421.158
   6  1014.186
   7  1605.845
   8  1303.738
   9  1078.502
  10  1257.683
  11  816.7969
  12  1223.977
  13  693.5823
  14  738.1568
  15  1145.498
  16  1293.871
  17  1441.196
  18  1416.583
  19  1047.54
  20  1072.191
  21  1228.152
  22  990.118
  23  1829.027
  24  1218.726
  25  1121.721
  26  1526.32
  27  970.7125
  28  1571.473
  29  1072.137
  30  989.1754
  31  693.8416
  32  896.8727
  33  1215.573
  34  1150.949
  35  1256.404
  36  752.4492
  37  1259.505
  38  1553.727
  39  1441.735
  40  890.139
  41  1413.181
  42  1025.424
  43  1593.687
  44  2167.506
  45  1427.286
  46  1379.158
  47  1368.706
  48  1102.658
  49  1518.801
  50  1638.332
  51  1644.925
  52  1156.904
  53  2075.569
  54  1621.828
  55  1191.514
  56  1303.957
  57  1285.869
  58  1273.192
  59  1407.799
  60  999.3761
  61  1289.263
  62  1165.882
  63  989.5038
  64  1158.549
  65  909.9788
  66  1393.519
  67  1303.016
  68  1450.586
  69  1660.876
  70  1970.934
  71  1553.645
  72  1607.334
  73  1067.007
  74  1647.846
  75  1188.041
  76  763.6287
  77  2264.174
  78  1715.538
  79  1134.049
  80  1450.702
  81  1276.257
  82  1014.87
  83  1130.521
  84  1546.504
  85  1171.996
  86  1054.757
  87  928.2498
  88  1541.419
  89  1279.765
  90  1460.77
  91  1887.198
  92  1574.868
  93  1190.964
  94  1699.438
  95  1516.117
  96  1259.236
  97  825.9542
  98  1540.179
  99  1205.194
 100  1175.818
 101  1016.51
 102  720.3386
 103  1231.519
 104  775.6577
 105  1243.856
 106  1801.561
 107  1304.216
 108  1412.64
 109  1498.075
 110  1916.148
 111  1596.754
 112  1748.353
 113  1692.968
 114  1664.448
 115  1824.758
 116  1167.061
 117  1169.913
 118  344.3378
 119  1524.535
 120  606.91
 121  1717.536
 122  1566.838
 123  1601.575
 124  1210.919
 125  1248.408
 126  1488.361
 127  853.4922
 128  1171.21
 129  2000.879
 130  1069.61
 131  1426.25
 132  1477.927
 133  1336.753
 134  1919.644
 135  1573.522
 136  1484.355
 137  1019.673
 138  1458.346
 139  1153.386
 140  1112.119
 141  1650.492
 142  1970.356
 143  1338.843
 144  2268.654
 145  1416.817
 146  1623.218
 147  478.8291
 148  1386.046
 149  1710.082
 150  1587.303
 151  2687.987
 152  3500.742
 153  3327.99
 154  2043.382
 155  936.4976
 156  1675.234
 157  1354.107
 158  1276.494
 159  724.2636
 160  1563.358
 161  1322.396
 162  1718.268
 163  1579.739
 164  1544.563
 165  1290.663
 166  1806.683
 167  1843.622
 168  1324.126
 169  834.5084
 170  931.8562
 171  892.7598
 172  731.4689
 173  1048.897
 174  1227.045
 175  1717.198
 176  484.1368
 177  704.22
 178  942.2278
 179  1474.076
 180  1368.807
 181  866.1514
 182  414.7392
 183  936.1293
 184  989.652
 185  1074.776
 186  825.3537
 187  704.6866
 188  852.433
 189  1293.711
 190  1233.668
 191  1213.945
 192  1197.876
 193  1201.476
 194  690.6382
 195  1174.987
 196  1739.78
 197  1291.152
 198  810.7346
 199  1081.995
 200  1109.401
 201  1376.523
 202  1313.01
 203  1573.514
 204  1131.028
 205  1195.977
 206  1334.2
 207  782.4831
 208  1133.599
 209  800.7271
 210  1238.756
 211  1588.471
 212  1123.704
 213  1712.476
 214  900.8108
 215  1103.965
 216  1283.322
 217  1830.809
 218  1500.558
 219  1508.056
 220  1731.814
 221  1440.886
 222  1066.679
 223  1054.925
 224  1213.196
 225  703.5939
 226  910.8631
 227  1035.37
 228  1267.609
 229  1210.479
 230  1348.467
 231  1238.688
 232  1865.911
 233  1243.772
 234  1724.126
 235  1180.921
 236  634.4807
 237  1228.432
 238  1513.315
 239  1837.073
 240  1502.956
 241  1530.164
 242  1053.254
 243  1354.517
 244  1320.083
 245  1358.548
 246  984.8823
 247  1186.828
 248  741.2321
 249  1808.389
 250  1485.755
 251  1704.835
 252  1611.915
 253  1379.851
 254  1701.973
 255  1031.906
