# Input file       =  1203414632.110324_cleaned.dat
# Candidate        =  PSR_0332+5434
# Telescope        =  AR
# Epoch_topo       =  58172.410313776898
# Epoch_bary       =  N/A
# T_sample         =  0.002
# Data Folded      =  7208960
# Data Avg         =  0.479135544990738
# Data StdDev      =  5.72910939577847 
# Profile Bins     =  256
# Profile Avg      =  13491.7282671228 
# Profile StdDev   =  961.398500228353 
# Reduced chi-sqr  =  1.317
# Prob(Noise)      <  0.000499   (~3.3 sigma)
# P_topo (ms)      =  714.580719835708  +/- 6.22e-05
# P'_topo (s/s)    =  -0                +/- 3.34e-11
# P''_topo (s/s^2) =  0                 +/- 1.5e-14
# P_bary (ms)      =  N/A
# P'_bary (s/s)    =  N/A
# P''_bary (s/s^2) =  N/A
# P_orb (s)        =  N/A
# asin(i)/c (s)    =  N/A
# eccentricity     =  N/A
# w (rad)          =  N/A
# T_peri           =  N/A
######################################################
   0  12167.69
   1  10797.93
   2  12166.66
   3  12780.62
   4  13242.78
   5  12636.51
   6  12117.86
   7  12289.82
   8  13395.69
   9  12762
  10  12592.36
  11  13353.05
  12  13381.27
  13  12007.43
  14  12247.36
  15  13049.11
  16  13193.25
  17  12951.03
  18  12665.52
  19  14112.94
  20  14189.18
  21  12708.36
  22  12228.53
  23  12172.41
  24  13606.32
  25  13753.57
  26  12697.54
  27  13146.45
  28  14265.03
  29  13885.62
  30  14278.21
  31  13866.91
  32  12662.04
  33  12387.65
  34  12635.62
  35  13014.52
  36  12851.5
  37  14258.52
  38  12848.11
  39  13418.31
  40  13391.21
  41  14220.51
  42  12634.66
  43  11682.35
  44  13180.15
  45  14149.79
  46  13576.81
  47  13561.17
  48  13226.7
  49  12283.26
  50  12625.89
  51  12736.85
  52  12779.2
  53  13590.92
  54  13742.84
  55  12397.66
  56  12289.99
  57  14961.62
  58  13271.58
  59  11558.98
  60  12912.9
  61  14999.82
  62  14658.14
  63  13489.25
  64  12995.25
  65  12515.63
  66  13161.78
  67  12563.53
  68  12718.78
  69  12473.38
  70  13091.13
  71  12516.85
  72  12737.64
  73  13756.82
  74  13500.61
  75  12259
  76  12255.1
  77  13412.77
  78  14468.58
  79  13153.38
  80  13563.13
  81  12419.69
  82  13159.83
  83  14409.71
  84  13197.76
  85  13387.34
  86  13998.46
  87  14166.68
  88  13213.17
  89  13710.63
  90  13954.97
  91  13258.61
  92  13077.83
  93  13666.5
  94  14653.09
  95  15621.86
  96  14322.27
  97  14162.76
  98  14303.59
  99  15801.38
 100  13998.14
 101  14129.6
 102  14992.75
 103  15825.7
 104  14933.92
 105  15120.88
 106  14345.83
 107  14775.31
 108  14502.86
 109  14270.82
 110  14561.52
 111  16011.34
 112  14514.09
 113  12836.74
 114  14306.33
 115  15397.63
 116  14838.69
 117  13735.5
 118  14090.48
 119  15045.18
 120  15010.2
 121  14229.75
 122  13545.51
 123  13089.2
 124  12522.26
 125  13357.78
 126  13677.65
 127  14868.84
 128  14960.37
 129  13682.03
 130  13569.72
 131  14059.5
 132  14179.14
 133  12376.9
 134  12036.3
 135  14109.32
 136  15337.38
 137  13596.88
 138  14937.5
 139  13406.34
 140  13449.92
 141  13317.55
 142  13757.06
 143  13629.69
 144  14620.85
 145  14886.66
 146  13678.66
 147  13463.33
 148  14952.61
 149  14593.33
 150  12962.45
 151  14748.44
 152  17185
 153  16955.38
 154  14894.23
 155  13107.84
 156  12834.75
 157  14124.44
 158  13215.75
 159  12890.71
 160  13032.42
 161  13463.39
 162  13180.6
 163  13316.66
 164  13436.27
 165  13213.11
 166  11324.75
 167  12890.01
 168  13356.78
 169  14874.54
 170  13632.56
 171  12503.47
 172  12933.49
 173  13896.78
 174  13204.35
 175  11890.94
 176  13035
 177  14808.89
 178  14235.79
 179  13712.99
 180  14001.16
 181  13382.74
 182  12475.24
 183  12519.82
 184  13040.37
 185  13546.46
 186  14617.96
 187  13566.52
 188  13434.4
 189  13216.65
 190  14255.94
 191  13630.17
 192  12626.89
 193  13246.81
 194  14353.26
 195  13786
 196  14635.43
 197  13870.77
 198  12672.96
 199  12738.52
 200  13450.25
 201  13377.29
 202  13857.5
 203  12235.11
 204  12409.49
 205  13679.09
 206  14111.62
 207  12816.23
 208  12230
 209  13559.17
 210  14954.19
 211  14530.81
 212  13827.7
 213  14310.49
 214  13316.15
 215  13343.07
 216  13818.84
 217  13554.84
 218  14284.08
 219  14058.41
 220  13728.54
 221  13756.78
 222  14899.86
 223  14288.89
 224  11843.8
 225  12128.02
 226  14077.83
 227  14458.46
 228  13522.59
 229  13358.2
 230  13009.65
 231  14096.35
 232  13516.92
 233  13414.72
 234  12588.26
 235  14081.67
 236  13581.26
 237  13003.64
 238  13522.68
 239  13552.77
 240  12212.52
 241  11923.88
 242  12993.73
 243  13881.11
 244  12993.79
 245  12156.68
 246  12400.08
 247  13219.72
 248  13280.43
 249  11631.72
 250  11566.86
 251  12915.28
 252  12894.48
 253  12008.41
 254  12630.26
 255  13065.84
