# Input file       =  1203105821.111271_cleaned.dat
# Candidate        =  PSR_0332+5434
# Telescope        =  AR
# Epoch_topo       =  58168.836112398967
# Epoch_bary       =  N/A
# T_sample         =  0.002
# Data Folded      =  7340032
# Data Avg         =  0.0190801082818948
# Data StdDev      =  0.999977811935143
# Profile Bins     =  512
# Profile Avg      =  273.209507432878 
# Profile StdDev   =  119.730379732389 
# Reduced chi-sqr  =  1.127
# Prob(Noise)      <  0.0245   (~2.0 sigma)
# P_topo (ms)      =  714.581091381856  +/- 0.000204
# P'_topo (s/s)    =  -0                +/- 1.08e-10
# P''_topo (s/s^2) =  0                 +/- 4.75e-14
# P_bary (ms)      =  N/A
# P'_bary (s/s)    =  N/A
# P''_bary (s/s^2) =  N/A
# P_orb (s)        =  N/A
# asin(i)/c (s)    =  N/A
# eccentricity     =  N/A
# w (rad)          =  N/A
# T_peri           =  N/A
######################################################
   0  447.2
   1  367.5311
   2  255.4928
   3  279.9304
   4  249.9547
   5  211.5191
   6  332.3052
   7  305.2137
   8  158.9947
   9  287.0486
  10  356.2283
  11  280.7393
  12  181.7256
  13  298.6178
  14  191.593
  15  180.4639
  16  161.4934
  17  110.9965
  18  193.0066
  19  209.0803
  20  253.6066
  21  285.721
  22  260.0311
  23  216.0359
  24  230.4921
  25  278.4367
  26  120.374
  27  259.118
  28  257.2519
  29  250.9133
  30  282.5638
  31  402.4604
  32  408.4976
  33  208.225
  34  173.4312
  35  268.4166
  36  355.4163
  37  283.6112
  38  224.3248
  39  237.4104
  40  335.8846
  41  348.6679
  42  494.4946
  43  433.807
  44  341.2684
  45  292.9799
  46  307.3365
  47  273.0203
  48  265.5839
  49  363.8232
  50  256.5862
  51  149.452
  52  321.1418
  53  347.8975
  54  266.272
  55  477.905
  56  381.4019
  57  242.0541
  58  223.1711
  59  337.9847
  60  455.8728
  61  399.8359
  62  389.0486
  63  267.8663
  64  211.7734
  65  335.7625
  66  331.554
  67  199.198
  68  316.7943
  69  327.8274
  70  256.0936
  71  302.3698
  72  288.5235
  73  279.4776
  74  246.3673
  75  151.9759
  76  261.4518
  77  313.7865
  78  285.5559
  79  144.3365
  80  189.233
  81  284.4048
  82  297.1197
  83  197.8314
  84  227.8695
  85  153.6278
  86  257.7587
  87  374.878
  88  245.6392
  89  218.1674
  90  242.2453
  91  375.9135
  92  281.9305
  93  422.522
  94  434.3466
  95  300.9688
  96  285.9604
  97  312.2749
  98  357.0564
  99  329.3865
 100  180.7988
 101  259.079
 102  367.0695
 103  259.9357
 104  265.3229
 105  188.617
 106  136.9122
 107  197.455
 108  483.2556
 109  426.2973
 110  362.3481
 111  310.8553
 112  217.5938
 113  250.7257
 114  309.8367
 115  282.4529
 116  248.6721
 117  263.4339
 118  252.9895
 119  148.3825
 120  235.4641
 121  237.9642
 122  304.4375
 123  320.5759
 124  253.0664
 125  214.3154
 126  201.9299
 127  196.8486
 128  159.1309
 129  251.8098
 130  357.8319
 131  215.4232
 132  221.383
 133  247.0172
 134  245.5665
 135  301.7037
 136  359.8759
 137  366.1398
 138  275.4026
 139  381.3291
 140  262.4112
 141  186.8364
 142  329.7209
 143  346.2817
 144  281.2859
 145  297.3083
 146  263.3502
 147  201.2071
 148  169.2732
 149  164.7207
 150  250.507
 151  424.7695
 152  250.5987
 153  219.5154
 154  129.7903
 155  381.9534
 156  282.2903
 157  75.02512
 158  177.7526
 159  163.2787
 160  257.6316
 161  242.1489
 162  163.5437
 163  263.9476
 164  292.6263
 165  224.1826
 166  373.6326
 167  399.0977
 168  292.8355
 169  276.1421
 170  297.0677
 171  344.5367
 172  319.5527
 173  331.3309
 174  391.8606
 175  405.5219
 176  341.5466
 177  300.7654
 178  379.374
 179  351.0658
 180  347.2662
 181  378.0478
 182  346.6632
 183  351.386
 184  350.0875
 185  439.5205
 186  244.6706
 187  239.5522
 188  263.9912
 189  233.8793
 190  46.75644
 191  124.1292
 192  315.1547
 193  346.5808
 194  151.2687
 195  136.9922
 196  375.0559
 197  403.9201
 198  376.3223
 199  296.0181
 200  365.5717
 201  281.3904
 202  265.9182
 203  240.7643
 204  232.8043
 205  338.6031
 206  301.1998
 207  294.8784
 208  124.8766
 209  204.3202
 210  212.8472
 211  298.435
 212  441.822
 213  349.1396
 214  174.8092
 215  290.2169
 216  315.2101
 217  296.3603
 218  357.1026
 219  229.7161
 220  271.4932
 221  352.7977
 222  387.233
 223  430.5415
 224  327.316
 225  306.787
 226  362.2418
 227  245.9618
 228  171.1189
 229  312.7047
 230  319.5849
 231  276.8013
 232  211.1006
 233  287.8397
 234  247.1501
 235  211.4467
 236  349.6767
 237  379.5841
 238  394.8359
 239  421.4926
 240  260.0071
 241  256.0605
 242  454.2033
 243  476.4337
 244  227.7587
 245  341.2946
 246  374.7299
 247  234.9908
 248  112.6106
 249  105.2962
 250  285.3726
 251  335.1465
 252  393.864
 253  285.5436
 254  367.0787
 255  355.7868
 256  539.789
 257  652.6361
 258  688.675
 259  796.2584
 260  698.3239
 261  649.7609
 262  437.8386
 263  320.1175
 264  195.0227
 265  197.1409
 266  368.6088
 267  318.4554
 268  280.2325
 269  274.0712
 270  296.8246
 271  213.156
 272  119.2
 273  180.1144
 274  345.7554
 275  256.1777
 276  272.3863
 277  322.8667
 278  293.5358
 279  457.1125
 280  340.5322
 281  280.1128
 282  286.5297
 283  363.7867
 284  269.004
 285  235.259
 286  315.055
 287  422.2261
 288  379.0822
 289  371.9018
 290  328.5583
 291  210.6067
 292  182.0437
 293  181.2489
 294  231.3699
 295  177.3358
 296  172.3497
 297  198.2857
 298  185.1093
 299  93.19562
 300  211.228
 301  293.0428
 302  237.6984
 303  317.971
 304  426.043
 305  262.5692
 306  110.7946
 307  73.94353
 308  115.0759
 309  178.5607
 310  129.4984
 311  262.4272
 312  324.2217
 313  273.9221
 314  324.3549
 315  210.8552
 316  241.771
 317  112.7022
 318  88.74986
 319  133.9811
 320  173.8047
 321  251.0703
 322  255.314
 323  136.5764
 324  232.7294
 325  212.7101
 326  200.8453
 327  168.3433
 328  138.822
 329  145.1151
 330  136.0678
 331  211.3261
 332  227.1547
 333  310.9165
 334  299.5196
 335  185.7655
 336  219.4012
 337  316.7885
 338  234.8559
 339  300.6678
 340  268.6514
 341  219.6529
 342  186.3457
 343  87.42209
 344  200.4239
 345  409.9542
 346  404.0031
 347  263.3827
 348  239.1617
 349  283.3457
 350  118.6704
 351  165.8424
 352  268.0602
 353  144.8374
 354  206.3537
 355  308.2993
 356  289.5172
 357  208.1488
 358  246.7533
 359  334.8987
 360  356.4274
 361  232.4638
 362  238.6115
 363  190.9373
 364  206.0691
 365  288.602
 366  277.021
 367  248.1879
 368  164.5476
 369  180.7347
 370  224.6582
 371  277.2808
 372  141.6822
 373  225.6886
 374  207.0541
 375  361.2708
 376  337.5894
 377  296.2357
 378  206.9944
 379  288.7415
 380  411.613
 381  295.2558
 382  229.4208
 383  118.9246
 384  244.5329
 385  221.472
 386  286.0744
 387  282.1636
 388  365.2224
 389  405.488
 390  315.6169
 391  248.2097
 392  293.5306
 393  358.4962
 394  319.6948
 395  390.0356
 396  309.1662
 397  246.3775
 398  225.7418
 399  178.425
 400  191.3747
 401  243.6155
 402  201.8182
 403  294.6259
 404  134.8321
 405  219.0692
 406  203.4399
 407  191.1075
 408  171.625
 409  261.5866
 410  259.3538
 411  259.2859
 412  297.9726
 413  181.7944
 414  290.0206
 415  271.1115
 416  216.602
 417  358.3484
 418  460.6941
 419  292.7981
 420  223.8126
 421  317.5623
 422  337.3926
 423  364.8614
 424  297.2075
 425  186.0152
 426  99.38941
 427  171.9076
 428  263.2625
 429  267.8737
 430  263.2682
 431  357.8555
 432  400.3957
 433  349.0413
 434  316.4857
 435  288.9813
 436  313.7213
 437  239.377
 438  205.6181
 439  186.0191
 440  265.386
 441  253.7609
 442  269.4442
 443  223.7486
 444  305.2016
 445  281.1889
 446  233.1517
 447  186.8047
 448  284.5047
 449  180.3007
 450  85.10293
 451  320.0151
 452  406.0056
 453  364.2619
 454  256.8702
 455  373.1112
 456  363.1531
 457  303.2071
 458  335.7706
 459  326.5434
 460  306.7402
 461  267.9955
 462  346.2965
 463  350.4831
 464  207.0666
 465  208.743
 466  271.5297
 467  265.2307
 468  203.3509
 469  197.3185
 470  222.4711
 471  295.7812
 472  198.5127
 473  118.6548
 474  135.6661
 475  278.5095
 476  314.9209
 477  271.867
 478  186.6732
 479  186.1698
 480  305.0274
 481  353.6374
 482  319.1142
 483  172.1995
 484  198.3787
 485  224.3926
 486  250.7025
 487  237.2469
 488  175.7749
 489  140.2723
 490  200.076
 491  302.3383
 492  93.27776
 493  183.076
 494  152.8523
 495  201.1335
 496  191.9439
 497  338.0518
 498  266.925
 499  221.9429
 500  281.0963
 501  379.4983
 502  316.4766
 503  227.864
 504  198.8899
 505  245.7492
 506  245.002
 507  234.5836
 508  214.346
 509  326.5512
 510  225.9222
 511  207.9608
