# Input file       =  1203075975.116474-PSRB0329-2ms-sampling-dd.dat
# Candidate        =  PSR_0332+5434
# Telescope        =  AR
# Epoch_topo       =  58168.490672644373
# Epoch_bary       =  N/A
# T_sample         =  0.002
# Data Folded      =  7340032
# Data Avg         =  -3.59079872778771e-10
# Data StdDev      =  10.4599213526945 
# Profile Bins     =  512
# Profile Avg      =  -0.786669629230321
# Profile StdDev   =  1252.39814382029 
# Reduced chi-sqr  =  1.074
# Prob(Noise)      <  0.12   (~1.2 sigma)
# P_topo (ms)      =  714.580508839591  +/- 0.000525
# P'_topo (s/s)    =  -0                +/- 2.77e-10
# P''_topo (s/s^2) =  0                 +/- 1.22e-13
# P_bary (ms)      =  N/A
# P'_bary (s/s)    =  N/A
# P''_bary (s/s^2) =  N/A
# P_orb (s)        =  N/A
# asin(i)/c (s)    =  N/A
# eccentricity     =  N/A
# w (rad)          =  N/A
# T_peri           =  N/A
######################################################
   0  169.4792
   1  -135.6971
   2  -377.7058
   3  -641.6732
   4  -684.2719
   5  -609.7219
   6  -640.6824
   7  -787.7256
   8  -567.2355
   9  -653.1774
  10  -494.8441
  11  -454.6365
  12  -770.3518
  13  -741.3659
  14  -237.229
  15  -58.52041
  16  159.5476
  17  151.1485
  18  147.9988
  19  -469.6004
  20  -590.5783
  21  -520.2469
  22  -382.9984
  23  -267.1548
  24  -29.49627
  25  -18.33984
  26  46.14209
  27  170.7679
  28  -55.5382
  29  -39.61296
  30  -28.11166
  31  -154.2573
  32  -513.3826
  33  -45.47895
  34  -209.0974
  35  -205.9098
  36  -245.9812
  37  -348.131
  38  -476.3174
  39  -617.0603
  40  -603.6399
  41  -525.6283
  42  -614.9083
  43  -144.0206
  44  -160.762
  45  -157.5581
  46  -329.9698
  47  -234.1879
  48  -467.489
  49  -298.9193
  50  -140.0142
  51  -264.7939
  52  -359.1657
  53  -541.9116
  54  -306.5698
  55  -518.1484
  56  -69.76611
  57  327.9853
  58  -41.23125
  59  -186.6483
  60  -684.7822
  61  -445.7039
  62  -524.281
  63  -654.2963
  64  -476.7341
  65  -381.2832
  66  -724.8292
  67  -542.6186
  68  -405.2237
  69  -361.4257
  70  -688.5143
  71  -960.3336
  72  -850.0673
  73  -636.8907
  74  -329.4152
  75  -214.5104
  76  -140.4318
  77  -155.003
  78  -211.4815
  79  129.2065
  80  171.1389
  81  404.6129
  82  189.8804
  83  401.5919
  84  629.9664
  85  366.7057
  86  52.00357
  87  -111.2484
  88  -146.9578
  89  -303.7299
  90  6.483857
  91  238.4695
  92  156.7291
  93  -167.4776
  94  -179.3414
  95  -440.2557
  96  -257.3791
  97  -55.30304
  98  -132.4013
  99  -389.241
 100  -336.4859
 101  -27.88618
 102  -472.6407
 103  -296.7837
 104  -356.4489
 105  -575.8249
 106  -789.4861
 107  -711.558
 108  -380.2458
 109  -588.2799
 110  -656.8351
 111  -607.3954
 112  -728.3411
 113  -666.0498
 114  -585.0108
 115  -478.8327
 116  -319.7165
 117  -66.12508
 118  -204.9665
 119  -834.1801
 120  -395.0874
 121  -254.3762
 122  -920.1143
 123  -861.1858
 124  -656.6578
 125  -379.1836
 126  -7.363656
 127  -617.0146
 128  -605.3718
 129  -461.2649
 130  -622.838
 131  -589.9187
 132  -472.6364
 133  -148.4209
 134  -373.9673
 135  -409.6064
 136  -520.8581
 137  -828.8646
 138  -431.2545
 139  -191.009
 140  -390.3138
 141  -428.016
 142  -157.89
 143  376.5844
 144  1629.622
 145  2273.685
 146  3281.806
 147  4500.304
 148  456.9817
 149  1182.168
 150  2930.518
 151  8093.812
 152  8631.194
 153  8479.024
 154  5424.463
 155  676.7808
 156  85.60355
 157  295.7782
 158  -242.2527
 159  -486.8921
 160  -255.727
 161  -361.8999
 162  88.31903
 163  -33.15365
 164  -271.6807
 165  -70.03428
 166  155.1454
 167  -96.9007
 168  -343.1765
 169  -227.7641
 170  -311.9944
 171  -609.8198
 172  -295.0093
 173  -424.3335
 174  -555.1347
 175  -239.2192
 176  98.67573
 177  -79.25706
 178  35.28739
 179  -465.6069
 180  -459.9571
 181  -454.2273
 182  -379.0892
 183  -110.3844
 184  -212.7792
 185  -432.8
 186  -594.6312
 187  -1014.092
 188  -960.5287
 189  -886.6576
 190  -708.854
 191  -865.9529
 192  -678.5592
 193  -854.3954
 194  -1271.133
 195  -1477.412
 196  -1148.819
 197  -1094.594
 198  -996.1849
 199  -928.4
 200  -1059.301
 201  -1086.952
 202  -1364.506
 203  -1275.479
 204  -1257.624
 205  -1474.198
 206  -1464.993
 207  -1124.027
 208  -1074.994
 209  -1253.675
 210  -1498.262
 211  -1040.777
 212  -1110.101
 213  -1263.913
 214  -788.2457
 215  -899.9615
 216  -650.1776
 217  -566.3141
 218  -774.0633
 219  -1236.415
 220  -1247.56
 221  -1252.699
 222  -1125.779
 223  -1062.668
 224  -856.8096
 225  -904.7627
 226  -829.9041
 227  -719.0117
 228  -1028.672
 229  -1259.825
 230  -1055.313
 231  -777.6703
 232  -479.745
 233  -826.4446
 234  -559.1178
 235  -358.3161
 236  -276.3622
 237  -307.1994
 238  -613.1843
 239  -441.8322
 240  -536.769
 241  -184.2396
 242  -128.6371
 243  -57.7392
 244  -415.4814
 245  -56.88966
 246  363.1582
 247  623.3865
 248  452.3877
 249  232.6253
 250  -31.49711
 251  -108.725
 252  -34.29679
 253  156.41
 254  -20.16558
 255  7.869978
 256  350.7488
 257  282.7796
 258  215.2555
 259  -117.2426
 260  -73.28808
 261  114.7561
 262  562.6832
 263  450.3943
 264  155.2406
 265  123.504
 266  188.343
 267  114.4119
 268  362.258
 269  493.0293
 270  484.9517
 271  327.525
 272  255.3944
 273  195.2705
 274  126.3478
 275  333.4166
 276  90.64983
 277  -304.5192
 278  -305.0609
 279  237.7582
 280  407.3467
 281  -38.95993
 282  -113.8174
 283  136.879
 284  -201.5462
 285  -165.1348
 286  216.314
 287  169.6176
 288  255.3831
 289  -25.0744
 290  19.32834
 291  -240.8492
 292  -78.63332
 293  178.9624
 294  170.049
 295  -27.43538
 296  -315.0833
 297  -315.3787
 298  -412.57
 299  -314.5435
 300  -172.721
 301  -61.48938
 302  -149.475
 303  -356.8816
 304  -538.831
 305  -499.8925
 306  -403.7546
 307  -134.3631
 308  -94.44511
 309  -277.6468
 310  -399.5786
 311  -505.4951
 312  -382.8327
 313  -221.3155
 314  -292.9134
 315  -169.4704
 316  -309.4825
 317  -144.2717
 318  -713.2892
 319  -614.8777
 320  -619.0743
 321  -461.2739
 322  -128.4701
 323  -291.246
 324  -288.5169
 325  -119.8404
 326  -29.26274
 327  -103.9766
 328  348.1267
 329  590.3513
 330  1132.664
 331  1516.493
 332  1792.918
 333  1655.013
 334  1155.376
 335  403.4306
 336  -65.49078
 337  304.6992
 338  298.3971
 339  107.5751
 340  135.1111
 341  90.43813
 342  -208.8
 343  279.1746
 344  227.3756
 345  171.6261
 346  535.8442
 347  505.7639
 348  170.9024
 349  130.8286
 350  92.60159
 351  392.6245
 352  425.6076
 353  764.5163
 354  533.4836
 355  338.9178
 356  428.343
 357  171.8741
 358  -102.8096
 359  -88.41481
 360  44.95267
 361  380.4279
 362  554.191
 363  543.02
 364  443.0703
 365  430.811
 366  323.4213
 367  429.9506
 368  672.5522
 369  511.8961
 370  398.0117
 371  496.6356
 372  749.7163
 373  531.3304
 374  421.6017
 375  502.5837
 376  481.9262
 377  657.7551
 378  677.5742
 379  804.7554
 380  826.6566
 381  702.9779
 382  945.5685
 383  877.4297
 384  1115.993
 385  830.7886
 386  804.8542
 387  595.6887
 388  575.1487
 389  659.835
 390  140.2499
 391  514.3022
 392  740.5469
 393  947.0302
 394  881.7554
 395  608.977
 396  786.0904
 397  895.9671
 398  541.9043
 399  395.1286
 400  545.3427
 401  656.9216
 402  685.7945
 403  317.5876
 404  9.592475
 405  335.9177
 406  343.121
 407  155.7827
 408  -114.5625
 409  -160.7456
 410  144.2688
 411  130.6081
 412  219.1873
 413  324.6531
 414  148.8463
 415  183.7342
 416  41.54331
 417  -246.4477
 418  196.3995
 419  32.66611
 420  146.7364
 421  195.2464
 422  188.7892
 423  267.9132
 424  -106.5382
 425  -285.869
 426  146.7332
 427  8.179929
 428  247.7594
 429  167.3763
 430  -176.587
 431  -89.35706
 432  -249.4278
 433  -384.5499
 434  -285.796
 435  -243.118
 436  -96.29314
 437  264.7744
 438  286.0428
 439  45.82321
 440  43.24623
 441  168.8385
 442  84.3054
 443  -258.2729
 444  109.6293
 445  -34.26506
 446  103.5608
 447  -102.8093
 448  -6.689534
 449  57.19993
 450  98.80144
 451  97.75981
 452  179.7331
 453  107.832
 454  44.96946
 455  1471.995
 456  1259.644
 457  1661.717
 458  2134.227
 459  1496.763
 460  872.8155
 461  -65.57715
 462  1478.392
 463  1972.721
 464  2192.911
 465  2130.005
 466  1471.441
 467  1105.763
 468  606.5919
 469  547.3264
 470  242.4955
 471  162.9252
 472  257.0839
 473  309.4569
 474  251.405
 475  -16.39022
 476  -185.4724
 477  -261.8422
 478  -315.4706
 479  -247.8143
 480  -365.4949
 481  -502.9919
 482  -333.0938
 483  -343.272
 484  -241.3278
 485  -338.4865
 486  -497.0556
 487  -526.0156
 488  -149.8089
 489  -51.07583
 490  -396.1116
 491  -395.7456
 492  -178.1825
 493  -245.4034
 494  105.8779
 495  442.8387
 496  127.2501
 497  -160.4763
 498  -332.5106
 499  -151.3721
 500  33.4082
 501  159.5166
 502  473.0301
 503  581.8607
 504  456.3507
 505  107.7701
 506  -111.5373
 507  -211.2997
 508  -190.0225
 509  -9.976734
 510  364.1852
 511  373.0703
