# Input file       =  1203611338.104799-PSRB0329-2ms-sampling-dd.dat
# Candidate        =  PSR_0332+5434
# Telescope        =  AR
# Epoch_topo       =  58174.687003527768
# Epoch_bary       =  N/A
# T_sample         =  0.002
# Data Folded      =  7340032
# Data Avg         =  7.25945224356428e-10
# Data StdDev      =  10.4533382328697 
# Profile Bins     =  512
# Profile Avg      =  -0.0194650846826031
# Profile StdDev   =  1251.60992689483 
# Reduced chi-sqr  =  0.277
# Prob(Noise)      <  1   (~0.0 sigma)
# P_topo (ms)      =  714.58091737581   +/- 0.00146
# P'_topo (s/s)    =  -0                +/- 7.7e-10
# P''_topo (s/s^2) =  0                 +/- 3.4e-13
# P_bary (ms)      =  N/A
# P'_bary (s/s)    =  N/A
# P''_bary (s/s^2) =  N/A
# P_orb (s)        =  N/A
# asin(i)/c (s)    =  N/A
# eccentricity     =  N/A
# w (rad)          =  N/A
# T_peri           =  N/A
######################################################
   0  -64.7713
   1  343.384
   2  82.49542
   3  -365.4229
   4  -391.2207
   5  -435.778
   6  -593.2279
   7  -106.7551
   8  -123.5344
   9  -150.3181
  10  -23.35514
  11  69.24517
  12  134.7112
  13  -540.6651
  14  -573.2792
  15  -351.4265
  16  -289.35
  17  -10.8751
  18  283.0559
  19  -390.1583
  20  -850.4133
  21  -688.15
  22  -724.3052
  23  49.20538
  24  103.8892
  25  45.55959
  26  -117.2192
  27  -539.0455
  28  -593.5936
  29  -528.835
  30  -336.8398
  31  -338.0229
  32  -457.5666
  33  -623.2761
  34  -925.7753
  35  -1070.961
  36  -1270.273
  37  -1015.373
  38  -759.7723
  39  -546.1533
  40  -679.6592
  41  -1192.63
  42  -1021.533
  43  -1228.459
  44  -1313.481
  45  -722.6099
  46  -771.7651
  47  -806.4037
  48  -629.639
  49  -958.0817
  50  -617.5087
  51  -406.3569
  52  -541.8925
  53  -466.4842
  54  -331.4721
  55  89.63425
  56  281.4527
  57  269.2408
  58  -201.9165
  59  -447.3708
  60  -337.3221
  61  20.17753
  62  -50.46727
  63  28.74466
  64  -2.399956
  65  142.3678
  66  5.126576
  67  75.57266
  68  -217.2327
  69  -179.9476
  70  -317.9813
  71  -559.4677
  72  172.5731
  73  396.354
  74  339.3439
  75  -451.8419
  76  -518.3013
  77  -729.4069
  78  -667.5016
  79  -342.5267
  80  -116.111
  81  -131.0978
  82  5.443729
  83  154.3616
  84  453.0707
  85  515.076
  86  1100.857
  87  1355.238
  88  1288
  89  1250.764
  90  1045.846
  91  1076.992
  92  787.8032
  93  199.5176
  94  140.707
  95  -304.3314
  96  -509.7989
  97  -208.219
  98  -103.1948
  99  -213.34
 100  -169.0193
 101  -172.5867
 102  -426.2022
 103  -631.3394
 104  -507.9317
 105  -435.682
 106  -17.48797
 107  46.69976
 108  -76.884
 109  -563.4999
 110  -791.0341
 111  -743.9794
 112  -586.7223
 113  -204.0811
 114  -144.269
 115  -197.7247
 116  -570.5628
 117  -1073.911
 118  -917.8496
 119  -486.3464
 120  -436.0414
 121  -604.498
 122  -374.3554
 123  -324.4254
 124  -164.8243
 125  83.85455
 126  -93.11716
 127  74.87766
 128  394.6547
 129  692.6447
 130  426.9092
 131  157.0783
 132  34.88789
 133  -76.81704
 134  -370.6366
 135  -90.45438
 136  226.0772
 137  321.3078
 138  549.1988
 139  136.0041
 140  -614.0659
 141  -313.5616
 142  -365.4433
 143  -18.67085
 144  229.769
 145  -31.85077
 146  -120.9008
 147  -94.21909
 148  -375.9752
 149  -164.1626
 150  369.3783
 151  755.8519
 152  631.1919
 153  322.5184
 154  86.74452
 155  12.13287
 156  -174.635
 157  15.4643
 158  -286.6146
 159  -161.6104
 160  99.52831
 161  -211.7047
 162  4.532658
 163  -245.157
 164  -289.0409
 165  -314.3857
 166  -575.6284
 167  -414.0721
 168  168.6714
 169  55.41664
 170  237.248
 171  728.799
 172  650.6978
 173  300.2981
 174  85.52567
 175  -262.6357
 176  -863.1822
 177  -584.9352
 178  -303.2265
 179  -181.7614
 180  -383.7385
 181  -589.2016
 182  -401.0933
 183  -740.9687
 184  -1222.997
 185  -1094.903
 186  -951.1624
 187  -436.4073
 188  -239.7131
 189  191.4732
 190  128.8185
 191  -283.8182
 192  -417.5144
 193  -99.08559
 194  -350.7436
 195  -461.3007
 196  8.487347
 197  -301.6195
 198  -463.7643
 199  -789.6455
 200  -414.114
 201  -439.0128
 202  -630.1741
 203  -745.4091
 204  -540.925
 205  -477.7682
 206  -561.328
 207  -471.3281
 208  -236.5757
 209  -98.15188
 210  -81.8823
 211  -86.80969
 212  42.68559
 213  67.35932
 214  143.5236
 215  -110.3754
 216  66.80635
 217  225.5281
 218  -304.1722
 219  10.05108
 220  209.0378
 221  370.9692
 222  123.1487
 223  80.08263
 224  326.2942
 225  -34.3546
 226  184.2844
 227  402.0712
 228  -2.278939
 229  73.74256
 230  75.60023
 231  211.773
 232  10.17403
 233  289.2591
 234  431.7739
 235  52.17664
 236  48.52194
 237  193.2334
 238  466.5078
 239  354.2116
 240  126.4067
 241  357.6599
 242  373.9682
 243  433.1129
 244  442.9785
 245  94.40037
 246  290.6052
 247  508.0526
 248  648.9042
 249  384.3071
 250  91.97146
 251  254.6788
 252  435.2904
 253  630.298
 254  321.8304
 255  2.483891
 256  -56.65102
 257  134.0328
 258  11.31195
 259  -67.25755
 260  261.2692
 261  -301.3705
 262  -292.5673
 263  -197.5369
 264  -344.9815
 265  -514.5301
 266  -406.7327
 267  -167.8551
 268  -76.83916
 269  -523.7392
 270  -247.4274
 271  -329.0299
 272  172.0154
 273  310.9748
 274  325.769
 275  432.2749
 276  550.8104
 277  219.2052
 278  102.4175
 279  -96.98164
 280  -326.3072
 281  -197.9572
 282  -23.96511
 283  367.5441
 284  -15.53144
 285  -38.82022
 286  175.6478
 287  26.80287
 288  93.95638
 289  186.434
 290  -97.9519
 291  102.3314
 292  366.2993
 293  341.7793
 294  358.3646
 295  372.961
 296  184.7531
 297  321.0038
 298  190.6198
 299  -142.4671
 300  -179.748
 301  364.7453
 302  568.8614
 303  157.4035
 304  -7.426931
 305  100.9556
 306  -235.8819
 307  379.9736
 308  154.7189
 309  338.198
 310  679.0604
 311  505.3499
 312  292.9823
 313  492.997
 314  280.9011
 315  33.41043
 316  -82.00317
 317  320.4719
 318  439.5234
 319  -269.3564
 320  -334.1592
 321  -279.2075
 322  -398.9895
 323  80.68542
 324  2.871003
 325  -379.3463
 326  -370.1866
 327  -457.2487
 328  -294.8134
 329  -410.1364
 330  -283.3112
 331  -251.4124
 332  -479.4203
 333  -545.5933
 334  -679.4009
 335  -652.1503
 336  -823.0778
 337  -891.334
 338  -916.5269
 339  -964.9785
 340  -829.1343
 341  -539.7555
 342  -350.9915
 343  -680.4679
 344  -1008.989
 345  -710.002
 346  -509.2907
 347  -301.4055
 348  -223.5318
 349  342.8055
 350  364.028
 351  -114.4443
 352  7.484094
 353  -464.6699
 354  -123.5254
 355  190.1778
 356  75.70178
 357  127.7749
 358  372.7503
 359  531.1639
 360  -9.969396
 361  176.9023
 362  263.9412
 363  273.1235
 364  -159.4675
 365  -254.2023
 366  -296.6291
 367  -498.173
 368  -436.6522
 369  -247.8773
 370  -380.4821
 371  -465.8459
 372  -603.2378
 373  -554.5184
 374  -271.3419
 375  -334.9675
 376  -193.5141
 377  -183.7801
 378  -20.99849
 379  -196.2822
 380  -278.324
 381  -219.6583
 382  334.4378
 383  361.7187
 384  675.1166
 385  336.4105
 386  381.8998
 387  856.489
 388  602.8333
 389  458.5291
 390  -151.5217
 391  -487.4298
 392  -155.5512
 393  317.3842
 394  339.9275
 395  138.7949
 396  -56.65723
 397  -898.5922
 398  -785.6501
 399  -253.9326
 400  -445.0281
 401  -264.7374
 402  -119.2288
 403  523.529
 404  256.0308
 405  -376.3512
 406  -217.1544
 407  -429.9053
 408  -39.57707
 409  124.0428
 410  237.2028
 411  243.0694
 412  -110.4226
 413  -167.4237
 414  -211.6263
 415  171.4837
 416  173.3813
 417  151.5633
 418  177.4364
 419  139.586
 420  118.966
 421  185.3284
 422  0.5468487
 423  -200.6555
 424  74.14579
 425  453.2289
 426  377.9527
 427  -85.58634
 428  36.04894
 429  339.6358
 430  643.7214
 431  366.3029
 432  572.3181
 433  623.7939
 434  543.1443
 435  589.7286
 436  461.7607
 437  476.6609
 438  655.1108
 439  248.6623
 440  373.1613
 441  593.5856
 442  442.3523
 443  389.1519
 444  180.9767
 445  694.1756
 446  497.3237
 447  928.5416
 448  1028.64
 449  695.3397
 450  924.9688
 451  514.2361
 452  434.0622
 453  468.8129
 454  803.3961
 455  969.0699
 456  610.5771
 457  496.5273
 458  501.5373
 459  570.5261
 460  554.1388
 461  431.149
 462  618.1148
 463  619.0596
 464  290.0731
 465  201.9241
 466  278.93
 467  -210.6949
 468  -188.7669
 469  126.4185
 470  486.0005
 471  280.4272
 472  770.7688
 473  1155.633
 474  896.3333
 475  763.9004
 476  515.4078
 477  799.0671
 478  780.7557
 479  977.8988
 480  406.8379
 481  451.3903
 482  331.6822
 483  998.7075
 484  1139.002
 485  1074.12
 486  1053.005
 487  334.9519
 488  337.6572
 489  378.6396
 490  861.5681
 491  864.4474
 492  421.4848
 493  114.5682
 494  196.9511
 495  659.1505
 496  481.7588
 497  755.7703
 498  877.7817
 499  841.1359
 500  858.9819
 501  641.6819
 502  602.6329
 503  513.5552
 504  669.5381
 505  921.91
 506  672.0996
 507  348.9907
 508  132.4819
 509  141.6759
 510  45.02355
 511  260.4643
