# Input file       =  1203343110.089843_cleaned.dat
# Candidate        =  PSR_0332+5434
# Telescope        =  AR
# Epoch_topo       =  58171.582512613924
# Epoch_bary       =  N/A
# T_sample         =  0.002
# Data Folded      =  7340032
# Data Avg         =  0.461096115990325
# Data StdDev      =  5.51272471945315 
# Profile Bins     =  256
# Profile Avg      =  13220.9099274163 
# Profile StdDev   =  933.459113858005 
# Reduced chi-sqr  =  2.139
# Prob(Noise)      <  3.33e-23   (~9.9 sigma)
# P_topo (ms)      =  714.580730521334  +/- 0.000781
# P'_topo (s/s)    =  -0                +/- 4.12e-10
# P''_topo (s/s^2) =  0                 +/- 1.82e-13
# P_bary (ms)      =  N/A
# P'_bary (s/s)    =  N/A
# P''_bary (s/s^2) =  N/A
# P_orb (s)        =  N/A
# asin(i)/c (s)    =  N/A
# eccentricity     =  N/A
# w (rad)          =  N/A
# T_peri           =  N/A
######################################################
   0  12890.63
   1  13532.55
   2  13380.47
   3  12705.29
   4  12147.51
   5  11648.98
   6  11195.4
   7  12004.79
   8  12188.44
   9  12070.73
  10  11779.61
  11  11449.36
  12  12330.1
  13  11484.69
  14  11768.43
  15  12136.92
  16  11885.9
  17  12511.74
  18  12433.64
  19  12211.25
  20  12498.34
  21  12077.88
  22  12389.41
  23  12621.95
  24  11891.5
  25  12311.62
  26  12465.88
  27  12826.25
  28  12621.83
  29  13219.62
  30  13204.68
  31  13626.27
  32  13336.4
  33  12605.65
  34  12889.14
  35  13173.94
  36  13028.8
  37  12502.18
  38  13288.08
  39  13121.47
  40  13164.97
  41  12786.1
  42  13020.25
  43  13463.77
  44  12924.58
  45  13593.68
  46  12963.46
  47  12624.7
  48  13043.32
  49  13752.09
  50  14704.78
  51  14393.04
  52  13698.83
  53  14767.84
  54  14611.11
  55  14083.93
  56  14243.89
  57  13662.84
  58  13578.45
  59  14045.84
  60  13663.8
  61  13309.71
  62  13088.76
  63  12817.59
  64  12691.14
  65  12130.79
  66  11800.68
  67  12867.05
  68  12591.77
  69  12251.98
  70  12666.59
  71  13147.83
  72  13322.48
  73  12290.97
  74  13345.38
  75  12913.04
  76  13102.81
  77  12723.22
  78  13031.39
  79  13752.95
  80  13513.02
  81  13850.52
  82  13547.37
  83  13926.43
  84  14025.91
  85  14376.83
  86  14015.96
  87  13843.21
  88  14248.3
  89  14416.96
  90  14110.23
  91  13887.22
  92  13494.21
  93  14796.38
  94  14982.07
  95  14364.52
  96  15129.74
  97  14553.79
  98  15332.45
  99  14095.5
 100  14345.15
 101  13736.22
 102  14698.93
 103  13739.88
 104  13500.44
 105  13099.05
 106  14189.88
 107  13730.05
 108  13120
 109  13043.28
 110  12874.47
 111  12810.28
 112  12646.34
 113  12431.31
 114  11892.25
 115  13096.69
 116  12291.64
 117  12303.73
 118  12563.24
 119  13126.91
 120  12747.14
 121  12137.18
 122  12795.93
 123  13826.15
 124  13592.94
 125  13488.39
 126  13672.97
 127  14539.57
 128  14015.9
 129  13582.37
 130  13998.94
 131  13548.94
 132  13057.45
 133  13516.68
 134  13713.18
 135  14287.93
 136  14065.12
 137  15210.31
 138  15996.35
 139  16216.96
 140  15777.16
 141  15803.67
 142  15925.06
 143  16536.97
 144  15973.02
 145  16162.31
 146  14901.01
 147  14762.95
 148  15861.56
 149  16044.88
 150  15651.37
 151  15523.53
 152  17224.84
 153  16980.69
 154  16579.85
 155  14772.54
 156  14997.2
 157  14534.25
 158  13761.56
 159  14095.68
 160  14378.59
 161  14275.73
 162  14346.79
 163  13865.58
 164  13732.11
 165  13438.66
 166  13232.24
 167  12984.49
 168  13458.6
 169  13459.9
 170  13384.95
 171  13631.74
 172  13557.5
 173  13713.6
 174  12976.17
 175  13006.77
 176  12941.04
 177  12832.3
 178  13597.47
 179  13884.11
 180  14119.54
 181  14175.14
 182  14094.27
 183  14807.09
 184  13944.78
 185  14454.49
 186  13947.17
 187  13786.69
 188  13875.4
 189  13562.58
 190  13272.79
 191  12606.91
 192  12528.38
 193  12047.04
 194  11286.31
 195  12094.69
 196  11413.26
 197  11549.1
 198  11372.8
 199  11854
 200  11349.27
 201  10996.67
 202  11497.15
 203  11932.6
 204  12114.2
 205  12091.65
 206  12105.29
 207  12383.03
 208  12167.03
 209  11873.12
 210  11253.14
 211  11635.12
 212  11445.25
 213  11923.01
 214  11570.34
 215  11084.92
 216  11812.18
 217  12628.99
 218  12140.77
 219  11643.26
 220  12260.84
 221  12144.08
 222  11930.99
 223  12259.9
 224  12599.83
 225  12265.36
 226  11603.83
 227  11717.39
 228  11961
 229  11771.58
 230  11650.76
 231  12359.05
 232  10931.35
 233  12108.05
 234  12460.04
 235  12341.33
 236  12960.02
 237  12792.21
 238  13278.48
 239  13093.7
 240  12881.23
 241  13254.39
 242  12952.29
 243  12835.44
 244  13196.7
 245  12243.3
 246  12357.62
 247  13339.44
 248  13568.54
 249  13109.14
 250  12841.87
 251  12575.93
 252  12272.71
 253  11911.59
 254  12752.42
 255  13107.24
