# Input file       =  1203105821.111271_cleaned.dat
# Candidate        =  PSR_0332+5434
# Telescope        =  AR
# Epoch_topo       =  58168.836112398967
# Epoch_bary       =  N/A
# T_sample         =  0.002
# Data Folded      =  7340032
# Data Avg         =  0.0190801082818948
# Data StdDev      =  0.999977811935143
# Profile Bins     =  512
# Profile Avg      =  273.209545668835 
# Profile StdDev   =  119.730379732389 
# Reduced chi-sqr  =  1.124
# Prob(Noise)      <  0.0266   (~1.9 sigma)
# P_topo (ms)      =  714.581090196197  +/- 0.000202
# P'_topo (s/s)    =  -0                +/- 1.07e-10
# P''_topo (s/s^2) =  0                 +/- 4.7e-14
# P_bary (ms)      =  N/A
# P'_bary (s/s)    =  N/A
# P''_bary (s/s^2) =  N/A
# P_orb (s)        =  N/A
# asin(i)/c (s)    =  N/A
# eccentricity     =  N/A
# w (rad)          =  N/A
# T_peri           =  N/A
######################################################
   0  713.6747
   1  653.0583
   2  473.5392
   3  314.5264
   4  211.1996
   5  180.4802
   6  359.4184
   7  328.1623
   8  291.2521
   9  268.0048
  10  299.1497
  11  217.1349
  12  139.0607
  13  158.1836
  14  343.261
  15  262.1622
  16  264.7981
  17  319.8836
  18  289.3822
  19  448.4551
  20  357.3336
  21  276.7241
  22  279.925
  23  360.9591
  24  287.6996
  25  237.0264
  26  294.6422
  27  421.9219
  28  375.9351
  29  375.8898
  30  339.2885
  31  220.8505
  32  179.7371
  33  178.0153
  34  227.583
  35  196.0344
  36  164.7857
  37  196.4371
  38  189.4035
  39  100.2088
  40  194.2549
  41  295.5271
  42  235.2294
  43  308.4734
  44  416.1171
  45  296.9994
  46  116.7484
  47  75.13474
  48  102.1473
  49  179.1192
  50  125.4411
  51  249.0593
  52  322.7717
  53  281.2587
  54  317.1478
  55  230.099
  56  234.7881
  57  127.7101
  58  83.36071
  59  129.5016
  60  173.1677
  61  242.7468
  62  260.585
  63  140.7213
  64  222.4633
  65  222.1704
  66  199.0949
  67  166.6385
  68  149.2073
  69  140.9414
  70  135.8492
  71  207.4805
  72  214.2494
  73  307.8849
  74  304.6346
  75  197.6849
  76  210.099
  77  318.296
  78  237.2984
  79  293.2117
  80  273.4464
  81  218.6882
  82  204.4894
  83  84.46466
  84  185.4362
  85  383.4808
  86  425.5855
  87  270.4568
  88  240.8201
  89  276.5309
  90  143.6479
  91  139.6674
  92  278.1339
  93  148.1302
  94  200.8348
  95  295.7333
  96  300.1955
  97  213.8995
  98  237.8063
  99  318.8082
 100  370.8319
 101  238.8873
 102  239.1796
 103  201.7797
 104  194.5732
 105  283.6418
 106  274.4299
 107  255.3919
 108  173.4965
 109  174.1023
 110  221.1274
 111  280.4099
 112  150.7521
 113  215.5839
 114  206.1044
 115  341.2849
 116  351.2012
 117  300.1637
 118  212.7677
 119  272.4311
 120  410.2306
 121  308.3421
 122  240.8883
 123  120.4395
 124  230.0068
 125  223.3618
 126  276.5139
 127  280.9614
 128  352.3969
 129  418.197
 130  320.9599
 131  259.3995
 132  271.4565
 133  364.6526
 134  313.8737
 135  392.5581
 136  318.8011
 137  250.7864
 138  228.4794
 139  177.0934
 140  187.6763
 141  246.6681
 142  200.5559
 143  299.8075
 144  145.4778
 145  205.4099
 146  211.749
 147  189.0228
 148  167.2041
 149  251.172
 150  264.58
 151  254.4156
 152  304.643
 153  190.1631
 154  270.8228
 155  284.3901
 156  208.7322
 157  340.2217
 158  470.7386
 159  305.2127
 160  222.3564
 161  306.8524
 162  339.9399
 163  370.4994
 164  301.249
 165  198.8393
 166  100.3793
 167  158.1461
 168  261.9384
 169  263.6152
 170  261.8928
 171  350.3739
 172  403.0367
 173  350.197
 174  320.0821
 175  289.548
 176  313.6236
 177  249.3493
 178  209.4865
 179  187.244
 180  256.1845
 181  254.4046
 182  264.5474
 183  229.1359
 184  292.2233
 185  291.6064
 186  232.8399
 187  195.8916
 188  276.5505
 189  202.5345
 190  66.96246
 191  306.0397
 192  399.2534
 193  380.0515
 194  257.7303
 195  358.3131
 196  375.6949
 197  299.774
 198  336.2818
 199  325.7758
 200  316.3195
 201  261.3871
 202  342.8295
 203  351.2306
 204  220.4397
 205  204.9269
 206  268.2707
 207  269.7049
 208  201.4592
 209  199.647
 210  213.8004
 211  298.9551
 212  205.7524
 213  130.3746
 214  120.3712
 215  269.9189
 216  312.6182
 217  281.6833
 218  192.7381
 219  181.9592
 220  289.6594
 221  354.3716
 222  330.0825
 223  181.4111
 224  196.0561
 225  219.8436
 226  247.0783
 227  243.2316
 228  181.765
 229  141.1611
 230  185.1963
 231  313.632
 232  100.5733
 233  174.5642
 234  156.0018
 235  193.9182
 236  190.7804
 237  317.3224
 238  287.8717
 239  218.3463
 240  273.5463
 241  373.1883
 242  331.7942
 243  236.0244
 244  191.82
 245  244.3432
 246  245.4153
 247  240.1153
 248  210.2478
 249  318.722
 250  242.5232
 251  190.1671
 252  429.132
 253  389.7467
 254  255.8506
 255  285.8922
 256  249.7623
 257  215.8269
 258  312.2059
 259  323.5614
 260  162.6253
 261  269.1472
 262  356.0778
 263  293.9436
 264  183.1314
 265  286.9229
 266  211.9845
 267  174.5299
 268  168.3224
 269  109.0807
 270  183.9479
 271  210.2988
 272  242.469
 273  286.3448
 274  266.9427
 275  223.196
 276  217.409
 277  287.6023
 278  128.778
 279  239.8714
 280  262.3013
 281  247.4373
 282  276.4755
 283  396.4151
 284  415.5817
 285  223.8583
 286  171.0562
 287  262.0346
 288  348.7916
 289  294.6499
 290  227.2663
 291  229.8601
 292  325.5263
 293  343.3463
 294  480.2171
 295  460.6124
 296  344.0205
 297  295.37
 298  302.5611
 299  278.6053
 300  260.0064
 301  360.871
 302  274.7101
 303  141.4897
 304  306.3096
 305  361.4775
 306  261.3867
 307  455.0175
 308  406.4104
 309  241.5952
 310  227.4658
 311  312.5268
 312  460.7219
 313  404.2996
 314  391.9035
 315  288.838
 316  202.1598
 317  327.9671
 318  342.2398
 319  205.909
 320  293.197
 321  338.0637
 322  260.4652
 323  297.9152
 324  290.9791
 325  282.9947
 326  249.7038
 327  154.8019
 328  249.3408
 329  309.6939
 330  304.5884
 331  150.7741
 332  175.8439
 333  281.3971
 334  295.4531
 335  207.0169
 336  224.9044
 337  159.837
 338  242.9909
 339  369.7473
 340  259.2333
 341  220.5389
 342  225.4241
 343  377.6003
 344  281.5655
 345  404.8113
 346  444.9116
 347  312.0413
 348  286.2216
 349  310.8679
 350  349.1629
 351  343.3713
 352  191.6896
 353  236.5455
 354  370.5866
 355  264.476
 356  270.2446
 357  198.2044
 358  141.9616
 359  174.2956
 360  464.4892
 361  447.9467
 362  351.6776
 363  331.7408
 364  217.9693
 365  240.927
 366  305.8199
 367  289.2581
 368  249.7973
 369  259.616
 370  259.7257
 371  148.6331
 372  234.7701
 373  236.259
 374  297.1179
 375  318.6007
 376  265.5051
 377  213.023
 378  210.4754
 379  190.4949
 380  169.0437
 381  223.4941
 382  366.9984
 383  223.0894
 384  212.9252
 385  248.4028
 386  246.2364
 387  286.4074
 388  360.1239
 389  379.9088
 390  275.0887
 391  369.8988
 392  285.9271
 393  181.754
 394  315.9315
 395  353.4596
 396  281.509
 397  295.5129
 398  268.653
 399  206.2949
 400  171.7583
 401  165.1055
 402  230.6398
 403  420.0383
 404  266.5229
 405  226.7817
 406  127.5463
 407  355.5563
 408  320.6035
 409  69.00352
 410  172.3497
 411  163.3924
 412  249.6613
 413  253.864
 414  162.7071
 415  243.0669
 416  301.9432
 417  220.712
 418  362.3125
 419  404.5337
 420  310.5124
 421  263.5288
 422  305.9012
 423  326.2972
 424  329.588
 425  322.4548
 426  389.5126
 427  407.7621
 428  357.3867
 429  290.696
 430  378.2898
 431  352.7266
 432  345.6611
 433  374.1757
 434  350.8377
 435  351.5455
 436  346.2526
 437  441.4822
 438  265.7734
 439  230.2863
 440  261.0605
 441  244.7853
 442  61.67603
 443  107.5495
 444  292.9237
 445  362.7426
 446  166.7171
 447  123.1249
 448  355.648
 449  408.2047
 450  381.7003
 451  288.5998
 452  371.816
 453  288.8137
 454  272.545
 455  238.946
 456  226.4169
 457  333.1008
 458  305.8449
 459  302.6297
 460  133.09
 461  197.8406
 462  209.1112
 463  282.776
 464  440.4922
 465  364.318
 466  185.8665
 467  264.8106
 468  330.5959
 469  281.6613
 470  367.1004
 471  237.1214
 472  263.0928
 473  340.9757
 474  384.0575
 475  431.9998
 476  338.3131
 477  303.0752
 478  361.4871
 479  264.2878
 480  166.2523
 481  303.8982
 482  323.0321
 483  282.6962
 484  215.714
 485  278.8809
 486  258.1181
 487  194.03
 488  349.2899
 489  374.863
 490  399.7347
 491  412.9425
 492  286.4293
 493  235.5013
 494  437.8669
 495  494.6336
 496  239.5344
 497  330.1375
 498  377.018
 499  257.1958
 500  115.2716
 501  96.01849
 502  273.1291
 503  324.8179
 504  400.7166
 505  284.6662
 506  364.0735
 507  345.2758
 508  520.54
 509  651.8803
 510  681.1279
 511  787.8827
