# Input file       =  1203931188.137021_cleaned.dat
# Candidate        =  PSR_0332+5434
# Telescope        =  AR
# Epoch_topo       =  58178.388971493303
# Epoch_bary       =  N/A
# T_sample         =  0.002
# Data Folded      =  7274496
# Data Avg         =  1.46169192384853 
# Data StdDev      =  16.2615806129788 
# Profile Bins     =  512
# Profile Avg      =  20767.7138982386 
# Profile StdDev   =  1938.3367533255  
# Reduced chi-sqr  =  1.349
# Prob(Noise)      <  2.13e-07   (~5.1 sigma)
# P_topo (ms)      =  714.580456116908  +/- 1.99e-05
# P'_topo (s/s)    =  -0                +/- 1.06e-11
# P''_topo (s/s^2) =  0                 +/- 4.73e-15
# P_bary (ms)      =  N/A
# P'_bary (s/s)    =  N/A
# P''_bary (s/s^2) =  N/A
# P_orb (s)        =  N/A
# asin(i)/c (s)    =  N/A
# eccentricity     =  N/A
# w (rad)          =  N/A
# T_peri           =  N/A
######################################################
   0  21543.49
   1  20270.2
   2  20728.1
   3  19785.58
   4  16787.21
   5  16517.06
   6  19830.62
   7  21960.27
   8  20132.83
   9  19374.84
  10  20814.18
  11  21008
  12  19778.74
  13  19816.08
  14  21950.73
  15  24118.88
  16  22173.04
  17  20481.65
  18  22420.48
  19  21719.89
  20  18249.54
  21  15871.2
  22  17652.36
  23  19956.33
  24  20131.99
  25  20352.9
  26  20949.21
  27  22827.14
  28  21551.89
  29  19672.31
  30  20647.27
  31  22548.77
  32  23556.55
  33  20414.67
  34  20371.89
  35  21627.21
  36  20489.85
  37  17480.83
  38  16926.2
  39  21555.11
  40  21243.02
  41  19516.16
  42  19348.65
  43  21429.13
  44  22112.9
  45  20748.71
  46  20380.46
  47  20873.29
  48  22531.13
  49  21399.36
  50  20884.67
  51  21828.76
  52  21670.71
  53  19310.16
  54  16304.01
  55  17387.98
  56  18949.12
  57  20043.77
  58  20249.29
  59  21724.04
  60  22616.19
  61  20853.3
  62  19818.2
  63  21219.94
  64  22657.42
  65  22791.45
  66  21103.94
  67  20525.99
  68  21386.46
  69  20813.32
  70  17984.18
  71  18708.46
  72  20447.31
  73  20983.6
  74  20357.54
  75  19378.65
  76  21959.8
  77  22390.49
  78  20922.01
  79  19979.23
  80  22633.54
  81  24468.41
  82  22618.36
  83  21574.27
  84  22156.71
  85  22600.79
  86  19052.53
  87  17504.72
  88  18246.98
  89  19823.47
  90  21470.57
  91  20562.4
  92  21621.64
  93  22637.54
  94  21505.64
  95  20604.93
  96  20860.05
  97  23323.26
  98  23173.13
  99  21876.4
 100  20845.37
 101  22128.65
 102  21823.14
 103  18364.42
 104  17740.85
 105  19218.79
 106  20578.54
 107  19968.25
 108  20159.45
 109  21444.65
 110  21524.3
 111  20208.48
 112  19754.99
 113  22090.79
 114  23595.36
 115  22042.28
 116  21263.21
 117  22869.66
 118  22024.5
 119  18942.74
 120  15888.75
 121  16995.15
 122  20214.06
 123  20433.03
 124  20854.51
 125  21026.87
 126  22284.24
 127  21839.44
 128  20044.88
 129  21204.21
 130  21778.7
 131  22559.95
 132  21487.94
 133  21099.78
 134  22228.93
 135  21297.65
 136  18530.12
 137  17337.95
 138  19039.67
 139  20053.02
 140  20085.88
 141  20468.77
 142  20941.38
 143  21669
 144  21302.29
 145  20246.68
 146  22701.03
 147  23611.86
 148  22895.98
 149  21088.52
 150  21493.55
 151  21473.03
 152  18789.69
 153  16652.35
 154  18183.37
 155  20757.55
 156  21400.25
 157  20552.74
 158  20660.11
 159  21323.35
 160  20563.54
 161  20675.13
 162  20785.15
 163  23257.36
 164  23686.05
 165  21922.79
 166  20991.89
 167  22242.5
 168  21556.8
 169  18019.6
 170  17652.13
 171  19253.96
 172  20954.54
 173  20354.96
 174  19316.97
 175  21159.11
 176  22726.83
 177  21378.75
 178  20345
 179  22540
 180  24050.04
 181  23140.25
 182  21529.2
 183  21246.85
 184  21258.17
 185  18651.47
 186  16885.16
 187  18078.94
 188  20676.25
 189  21454.27
 190  20811.62
 191  20948.96
 192  21316.68
 193  21239.09
 194  19753.17
 195  20804.98
 196  22828.11
 197  23037.57
 198  21180.47
 199  21234.01
 200  22649.64
 201  20819.94
 202  17520.27
 203  16711.18
 204  18450.77
 205  20276.79
 206  20043.27
 207  20302.98
 208  21606.87
 209  22344.61
 210  20591.34
 211  19287.78
 212  21119.62
 213  22557.5
 214  22411.95
 215  20505.63
 216  21449.82
 217  22242.47
 218  19320.51
 219  16619.24
 220  17996.1
 221  20712.59
 222  21213.54
 223  19967.58
 224  20385.02
 225  21370.17
 226  21545.95
 227  20313.36
 228  20711.75
 229  22915.15
 230  22939.99
 231  20884.72
 232  20577.66
 233  21995.8
 234  21280.85
 235  18495.38
 236  17452.19
 237  19412.18
 238  20455.19
 239  20441.97
 240  19362.8
 241  21758.85
 242  22675.36
 243  21303.9
 244  20376.01
 245  21543.52
 246  24310.85
 247  22898.17
 248  20906.67
 249  21201.18
 250  21676.45
 251  20001.93
 252  17799.65
 253  18874.93
 254  21255.55
 255  20890.84
 256  19915.53
 257  19879.88
 258  22077.01
 259  21631.92
 260  19784.89
 261  21231.3
 262  23065.76
 263  24096.74
 264  21446.32
 265  21421.36
 266  21498.85
 267  20239.38
 268  17566.05
 269  16200.44
 270  18352.55
 271  21241.28
 272  21698.59
 273  20173.99
 274  21392.45
 275  22260.25
 276  20406.07
 277  19254.92
 278  21711.3
 279  23809.35
 280  23057.44
 281  20768.3
 282  21344.79
 283  22126.95
 284  20168.59
 285  17191.86
 286  18369.68
 287  20241.51
 288  20572.09
 289  19655.2
 290  20225.54
 291  21668.81
 292  21715.19
 293  20472.37
 294  20181.84
 295  22444.31
 296  22483.42
 297  21814.41
 298  21153.9
 299  22394.08
 300  21454.95
 301  18103.43
 302  17473.52
 303  18292.92
 304  21359.43
 305  21937.01
 306  20894.28
 307  22736.25
 308  22670.16
 309  21650.22
 310  20369
 311  21378
 312  23519.54
 313  21970.23
 314  19982.57
 315  20909.41
 316  22842.77
 317  20923
 318  18739.75
 319  18565.48
 320  20352.67
 321  20146.05
 322  19446.53
 323  20062.73
 324  21526.23
 325  22430.18
 326  21244.71
 327  21717.81
 328  23189.79
 329  23359.36
 330  20983.89
 331  20767.27
 332  21685.65
 333  20854.04
 334  18589.13
 335  17208.63
 336  19788.32
 337  21684.57
 338  21116.5
 339  20863.82
 340  21017.85
 341  21742.41
 342  20471.83
 343  19934.79
 344  21399.29
 345  23569.68
 346  24427.68
 347  21790.54
 348  22305.14
 349  22472.72
 350  20039.05
 351  17425.12
 352  17689.7
 353  20385.38
 354  21027.7
 355  20462.46
 356  21234.98
 357  22722.98
 358  23346.65
 359  20524.81
 360  20336.98
 361  22619.62
 362  24129.92
 363  22511.37
 364  21282.41
 365  22264.04
 366  21597.8
 367  18203.27
 368  16465.19
 369  18609.42
 370  20997.45
 371  21060.51
 372  19118.98
 373  20867.43
 374  21793.51
 375  21568.19
 376  20256.38
 377  21124.97
 378  23258.16
 379  22501.15
 380  21761.55
 381  21846.45
 382  22819.76
 383  20851.62
 384  16761.55
 385  17795.46
 386  19468.37
 387  20549.47
 388  19800.57
 389  20308.88
 390  22606.98
 391  21906.46
 392  20791.84
 393  20052.87
 394  21761.78
 395  23270.79
 396  21485.16
 397  20785.72
 398  21691.69
 399  21502.72
 400  19356.43
 401  17998.62
 402  19052.96
 403  20823.88
 404  20216.74
 405  19203.8
 406  20402.86
 407  21871.82
 408  21059.22
 409  20418.29
 410  21417.67
 411  22996.3
 412  23001.99
 413  20738.22
 414  21013.17
 415  21758.75
 416  20202.83
 417  18018.27
 418  17842.92
 419  20245.12
 420  21563.63
 421  20421.71
 422  20988.72
 423  21084.05
 424  21291.25
 425  20224.75
 426  20927.61
 427  23055.19
 428  23592.35
 429  22754.15
 430  20534.91
 431  21314.88
 432  20697.6
 433  18621.53
 434  17586.71
 435  18865.24
 436  21528.66
 437  20740.25
 438  19942.08
 439  20813.23
 440  22186.61
 441  21302.05
 442  19177.55
 443  20091.55
 444  22758.03
 445  23104.03
 446  21691.66
 447  21755.1
 448  22569.27
 449  20384.56
 450  16494.69
 451  16659.1
 452  19451.92
 453  21512.93
 454  20902.17
 455  20609.35
 456  22497.14
 457  21560.72
 458  20509.08
 459  20428.9
 460  21828.72
 461  23537.78
 462  21485.88
 463  20656.57
 464  21248.56
 465  21330.06
 466  18944.02
 467  16547.21
 468  18735.55
 469  20077.72
 470  20087.28
 471  19326.84
 472  20200.01
 473  21562.31
 474  21192.46
 475  20395.41
 476  20828.87
 477  22858.39
 478  22467.97
 479  20649.76
 480  20605.26
 481  21906.21
 482  20933.81
 483  17115.96
 484  16825.16
 485  19857.42
 486  21747.82
 487  20866.98
 488  20448.83
 489  21228.25
 490  21894.11
 491  20385.72
 492  20506.9
 493  21665.98
 494  23258.53
 495  22974.57
 496  20737.34
 497  21991.12
 498  22349
 499  19137.37
 500  17646.53
 501  18367.09
 502  20828
 503  20163.85
 504  19686.23
 505  20980.36
 506  22072.83
 507  21549.34
 508  19854.62
 509  21718.79
 510  22927.9
 511  22945.89
