# Input file       =  1203429282.104877_cleaned.dat
# Candidate        =  PSR_0332+5434
# Telescope        =  AR
# Epoch_topo       =  58172.579873899042
# Epoch_bary       =  N/A
# T_sample         =  0.002
# Data Folded      =  7340032
# Data Avg         =  0.538007333990078
# Data StdDev      =  9.95913641368611 
# Profile Bins     =  1024
# Profile Avg      =  3856.40699978957 
# Profile StdDev   =  843.180743154596 
# Reduced chi-sqr  =  1.514
# Prob(Noise)      <  3.01e-24   (~10.1 sigma)
# P_topo (ms)      =  714.580743981209  +/- 0.000615
# P'_topo (s/s)    =  -0                +/- 3.24e-10
# P''_topo (s/s^2) =  0                 +/- 1.43e-13
# P_bary (ms)      =  N/A
# P'_bary (s/s)    =  N/A
# P''_bary (s/s^2) =  N/A
# P_orb (s)        =  N/A
# asin(i)/c (s)    =  N/A
# eccentricity     =  N/A
# w (rad)          =  N/A
# T_peri           =  N/A
######################################################
   0  3389.544
   1  3445.302
   2  3328.732
   3  3221.612
   4  3378.661
   5  3444.934
   6  3418.188
   7  3432.727
   8  3398.076
   9  3282.701
  10  3156.423
  11  3041.333
  12  3031.194
  13  3063.38
  14  2841.438
  15  2925.158
  16  3003.331
  17  3081.833
  18  3257.772
  19  3157.397
  20  3276.854
  21  3203.231
  22  3058.543
  23  3241.797
  24  3244.788
  25  3293.317
  26  3222.43
  27  3329.658
  28  3687.986
  29  3726.203
  30  3657.809
  31  3608.475
  32  3486.546
  33  3617.841
  34  3825.983
  35  4046.971
  36  3942.859
  37  3931.716
  38  3738.51
  39  3976.273
  40  3858.44
  41  3884.517
  42  3942.548
  43  3782.009
  44  3626.683
  45  3252.768
  46  3122.149
  47  3191.62
  48  3158.743
  49  3259.903
  50  3420.537
  51  3320.193
  52  3437.863
  53  3516.689
  54  3406.05
  55  3379.991
  56  3333.858
  57  3281.946
  58  3192.576
  59  2884.124
  60  3016.885
  61  3218.126
  62  3089.666
  63  3020.243
  64  3109.882
  65  3217.106
  66  3292.521
  67  3224.316
  68  3482.569
  69  3622.67
  70  3723.797
  71  3903.944
  72  3955.402
  73  4036.755
  74  4032.216
  75  3740.339
  76  3853.369
  77  3954.702
  78  4047.617
  79  4149.366
  80  4133.227
  81  4067.815
  82  3978.003
  83  3938.057
  84  3925.99
  85  4022.169
  86  3879.804
  87  4027.927
  88  4224.756
  89  4263.68
  90  4244.593
  91  4221.493
  92  4287.483
  93  4290.032
  94  3995.605
  95  4134.898
  96  4073.56
  97  4052.801
  98  3919.759
  99  3769.612
 100  3837.223
 101  3951.549
 102  3712.95
 103  3497.878
 104  3505.266
 105  3474.443
 106  3656.724
 107  3890.451
 108  3975.179
 109  3991.687
 110  3873.545
 111  4007.64
 112  4037.743
 113  3936.451
 114  3783.031
 115  3838.527
 116  3821.558
 117  3762.883
 118  3530.146
 119  3540.629
 120  3728.3
 121  3701.464
 122  3830.929
 123  3881.224
 124  3644.979
 125  3814.794
 126  3904.685
 127  4045.998
 128  4074.976
 129  4013.347
 130  4077.998
 131  4157.97
 132  3872.006
 133  3925.14
 134  3959.873
 135  4190.414
 136  4268.546
 137  4250.103
 138  4226.531
 139  4129.688
 140  4060.259
 141  4068.155
 142  3919.568
 143  3691.67
 144  3723.305
 145  3475.047
 146  3316.892
 147  3185.688
 148  3056.062
 149  3187.923
 150  3339.52
 151  3417.825
 152  3602.411
 153  3240.795
 154  3167.698
 155  3212.323
 156  3290.393
 157  3377.877
 158  3252.992
 159  3293.266
 160  3291.669
 161  3204.963
 162  3090.092
 163  3071.359
 164  2759.072
 165  2979.404
 166  2977.653
 167  3034.388
 168  3032.527
 169  3025.336
 170  3035.451
 171  3055.133
 172  2994.288
 173  2961.543
 174  2919.795
 175  2791.532
 176  2891.372
 177  2896.479
 178  2801.708
 179  2798.295
 180  2811.6
 181  2893.82
 182  2957.577
 183  2739.328
 184  2819.364
 185  2794.325
 186  2754.877
 187  2824.549
 188  2697.266
 189  2628.584
 190  2625.014
 191  2762.144
 192  2826.822
 193  2757.86
 194  2773.692
 195  3053.981
 196  2977.737
 197  2949.478
 198  2950.976
 199  3065.792
 200  3204.754
 201  3063.586
 202  2819.692
 203  2793.635
 204  2865.209
 205  2997.199
 206  3230.58
 207  3433.251
 208  3300.246
 209  3310.43
 210  3273.327
 211  3244.524
 212  3042.076
 213  2997.888
 214  3140.811
 215  3084.427
 216  3131.208
 217  3142.059
 218  3024.902
 219  2988.241
 220  3006.139
 221  3000.434
 222  3114.483
 223  3160.712
 224  3205.146
 225  3376.157
 226  3442.535
 227  3652.108
 228  3630.307
 229  3710.188
 230  3695.767
 231  3601
 232  3429.247
 233  3412.757
 234  3348.187
 235  3388.314
 236  3429.762
 237  3466.587
 238  3589.831
 239  3401.589
 240  3370.45
 241  3368.871
 242  3403.244
 243  3579.458
 244  3557.36
 245  3569.489
 246  3730.135
 247  3896.582
 248  3921.901
 249  3995.855
 250  3934.177
 251  4048.793
 252  3947.799
 253  3623.608
 254  3531.394
 255  3462.957
 256  3383.218
 257  3510.844
 258  3713.915
 259  4066.113
 260  3982.998
 261  3827.097
 262  3970.203
 263  4019.471
 264  3865.494
 265  3659.39
 266  3518.881
 267  3516.319
 268  3468.931
 269  3466.741
 270  3576.569
 271  3685.179
 272  3532.907
 273  3515.581
 274  3340.551
 275  3243.047
 276  3094.07
 277  3102.262
 278  3276.37
 279  3285.093
 280  3145.557
 281  3228.45
 282  3282.715
 283  3491.078
 284  3560.201
 285  3665.519
 286  3771.834
 287  3827.978
 288  3620.116
 289  3599.334
 290  3286.609
 291  2871.671
 292  2880.542
 293  2828.955
 294  2947.541
 295  2895.742
 296  2950.199
 297  3044.063
 298  3029.012
 299  3101.892
 300  3278.768
 301  3187.057
 302  3173.216
 303  3153.172
 304  3374.014
 305  3485.97
 306  3386.588
 307  3498.069
 308  3396.326
 309  3304.087
 310  3249.638
 311  3471.087
 312  3388.133
 313  3464.794
 314  3529.251
 315  3526.328
 316  3552.814
 317  3698.247
 318  3852.713
 319  3940.413
 320  3716.331
 321  3820.7
 322  3726.585
 323  3765.228
 324  3831.961
 325  3620.176
 326  3610.896
 327  3724.578
 328  3853.095
 329  4014.667
 330  4004.585
 331  4036.421
 332  4135.75
 333  4036.31
 334  3870.496
 335  3726.754
 336  3614.073
 337  3585.358
 338  3711.073
 339  3841.338
 340  3981.688
 341  3876.613
 342  3819.446
 343  4088.412
 344  4081.277
 345  4178.852
 346  4035.637
 347  4012.372
 348  4028.119
 349  4200.865
 350  4149.271
 351  4268.661
 352  4290.902
 353  4458.16
 354  4310.147
 355  3985.378
 356  4156.501
 357  4319.289
 358  4377.76
 359  4429.821
 360  4087.033
 361  4031.701
 362  4032.414
 363  4271.715
 364  4399.382
 365  4400.934
 366  4325.613
 367  4280.968
 368  4278.015
 369  4266.632
 370  4256.501
 371  4085.221
 372  3848.482
 373  3781.48
 374  3717.215
 375  3627.64
 376  3462.769
 377  3397.9
 378  3659.054
 379  3763.126
 380  3574.646
 381  3531.101
 382  3226.025
 383  3238.171
 384  3097.597
 385  3092.356
 386  3167.1
 387  3200.274
 388  3469.358
 389  3562.336
 390  3606.935
 391  3668.734
 392  3629.83
 393  3707.602
 394  3896.268
 395  3826.029
 396  3808.024
 397  3528.809
 398  3479.073
 399  3613.057
 400  3703.031
 401  3622.785
 402  3604.909
 403  3407.54
 404  3484.565
 405  3720.936
 406  3835.212
 407  3947.706
 408  3784.807
 409  3523.306
 410  3473.267
 411  3239.842
 412  3179.511
 413  3080.568
 414  3063.545
 415  3309.318
 416  3274.389
 417  3427.552
 418  3392.226
 419  3453.242
 420  3439.702
 421  3561.313
 422  3589.292
 423  3667.841
 424  3626.885
 425  3574.976
 426  3644.026
 427  3388.732
 428  3211.613
 429  3303.014
 430  3328.606
 431  3364.406
 432  3363.419
 433  3466.952
 434  3526.535
 435  3651.181
 436  4010.902
 437  4303.882
 438  4146.973
 439  3826.852
 440  3752.276
 441  3734.094
 442  3777.221
 443  3703.652
 444  3513.244
 445  3480.598
 446  3371.083
 447  3570.663
 448  3792.612
 449  3881.227
 450  4063.429
 451  4246.837
 452  3915.051
 453  3857.868
 454  3479.064
 455  3391.558
 456  3217.795
 457  3065.784
 458  3028.215
 459  3107.232
 460  3143.793
 461  3384.984
 462  3528.148
 463  3780.744
 464  3878.245
 465  3793.501
 466  3685.731
 467  3564.016
 468  3567.965
 469  3812.05
 470  3805.297
 471  3870.632
 472  3979.037
 473  4053.683
 474  4293.518
 475  4475.944
 476  4357.859
 477  4147.391
 478  4052.353
 479  4006.682
 480  4018.318
 481  3928.642
 482  3977.335
 483  4079.63
 484  3961.894
 485  3939.342
 486  3954.975
 487  4086.049
 488  4408.765
 489  4352.355
 490  4230.861
 491  4151.925
 492  4280.455
 493  4399.12
 494  4367.867
 495  4088.834
 496  4102.326
 497  4093.765
 498  4309.774
 499  4488.031
 500  4467.875
 501  4591.278
 502  4455.691
 503  4292.45
 504  4207.02
 505  4365.58
 506  4616.417
 507  4821.08
 508  4832.983
 509  4964.721
 510  4626.471
 511  4381.94
 512  4422.971
 513  4385.09
 514  4340.833
 515  4359.492
 516  4285.035
 517  4409.912
 518  4379.05
 519  4335.287
 520  4689.214
 521  4841.12
 522  4836.942
 523  4474.76
 524  4361.282
 525  4235.458
 526  4207.961
 527  4235.53
 528  4345.833
 529  4251.795
 530  3960.592
 531  4078.717
 532  4151.31
 533  4250.159
 534  4440.908
 535  4593.778
 536  4715.41
 537  4732.98
 538  4574.578
 539  4515.957
 540  4446.791
 541  4681.11
 542  4723.367
 543  4748.347
 544  4728.856
 545  4817.721
 546  4927.642
 547  4912.761
 548  4672.02
 549  4608.142
 550  4877.41
 551  4861.51
 552  4993.598
 553  4948.542
 554  4770.592
 555  4689.56
 556  4773.014
 557  4904.498
 558  4984.521
 559  4894.348
 560  4795.23
 561  4781.468
 562  4618.877
 563  4665.304
 564  4654.734
 565  4705.619
 566  4773.535
 567  4808.089
 568  4749.638
 569  4784.596
 570  4486.548
 571  4331.931
 572  4491.568
 573  4696.392
 574  5020.901
 575  4986.3
 576  4898.858
 577  4962.964
 578  4800.294
 579  4871.585
 580  4834.463
 581  4640.842
 582  4525.509
 583  4502.385
 584  4790.277
 585  4905.319
 586  5085.131
 587  5173.839
 588  5196.869
 589  5226.71
 590  5359.714
 591  5385.141
 592  5424.445
 593  5563.809
 594  5383.985
 595  5274.359
 596  5122.2
 597  5206.296
 598  5153.706
 599  5079.362
 600  5188.299
 601  5261.459
 602  5145.389
 603  5477.905
 604  5761.808
 605  5739.156
 606  5766.553
 607  5760.388
 608  5635.01
 609  5345.393
 610  5395.2
 611  5741.511
 612  5954.987
 613  5863.137
 614  5833.754
 615  5897.946
 616  5755.248
 617  5686.209
 618  5430.437
 619  5339.168
 620  5174.838
 621  4892.957
 622  4843.564
 623  4858.193
 624  4780.909
 625  4774.218
 626  4615.495
 627  4624.635
 628  4841.403
 629  4858.458
 630  4630.557
 631  4462.966
 632  4331.946
 633  4279.098
 634  4307.826
 635  4178.656
 636  4107.838
 637  3893.181
 638  3978.209
 639  4074.422
 640  3936.156
 641  3910.854
 642  3902.144
 643  3920.084
 644  3940.599
 645  3830.911
 646  3951.423
 647  4134.361
 648  4148.272
 649  4205.363
 650  4243.21
 651  4319.832
 652  4446.461
 653  4363.374
 654  4375.83
 655  4256.079
 656  4203.206
 657  4337.558
 658  4537.431
 659  4585.558
 660  4675.925
 661  4417.529
 662  4572.256
 663  4236.278
 664  4248.526
 665  4265.422
 666  4364.462
 667  4088.209
 668  3931.711
 669  3744.805
 670  3678.495
 671  3825.652
 672  4006.131
 673  4429.872
 674  4340.422
 675  4206.361
 676  4249.185
 677  4399.066
 678  4280
 679  4251.461
 680  4207.242
 681  4198.479
 682  4125.513
 683  3976.702
 684  4031.72
 685  3897.978
 686  3989.019
 687  4190.422
 688  4191.855
 689  4150.977
 690  4175.054
 691  4244.771
 692  4180.148
 693  4133.915
 694  4046.343
 695  4045.775
 696  3713.463
 697  3480.719
 698  3573.664
 699  3765.378
 700  3722.069
 701  3618.882
 702  3482.079
 703  3380.892
 704  3262.819
 705  3520.716
 706  3667.125
 707  3799.595
 708  3898.295
 709  3876.59
 710  3979.735
 711  3916.905
 712  3551.991
 713  3488.034
 714  3551.001
 715  3541.138
 716  3469.915
 717  3717.874
 718  3769.423
 719  3981.511
 720  3957.877
 721  4183.896
 722  4338.263
 723  4286.695
 724  4263.657
 725  4284.567
 726  4188.123
 727  4255.474
 728  4148.983
 729  4142.658
 730  4183.283
 731  4285.365
 732  4347.615
 733  4387.376
 734  4379.898
 735  4626.638
 736  4752.199
 737  4897.926
 738  4937.851
 739  4860.854
 740  4949.927
 741  4900.061
 742  4758.706
 743  4583.92
 744  4756.421
 745  4675.615
 746  4661.592
 747  4251.525
 748  4256.978
 749  4454.149
 750  4563.396
 751  4815.996
 752  4709.932
 753  4802.4
 754  5013.917
 755  4963.904
 756  4682.286
 757  4639.969
 758  4359.78
 759  4289.109
 760  4054.03
 761  4060.28
 762  4241.198
 763  4282.289
 764  4514.686
 765  4529.434
 766  4579.469
 767  4547.084
 768  4677.006
 769  4580.57
 770  4617.69
 771  4391.988
 772  4402.864
 773  4417.76
 774  4469.766
 775  4603.47
 776  4541.212
 777  4451.427
 778  4406.539
 779  4151.281
 780  3903.618
 781  3991.352
 782  3999.21
 783  3949.45
 784  3677.862
 785  3512.07
 786  3633.289
 787  3602.947
 788  3527.306
 789  3591.197
 790  3541.828
 791  3689.761
 792  3713.593
 793  3604.717
 794  3604.01
 795  3520.897
 796  3240.572
 797  3289.213
 798  3191.195
 799  3362.135
 800  3482.826
 801  3423.317
 802  3406.562
 803  3461.712
 804  3399.134
 805  3630.007
 806  3689.804
 807  3913.025
 808  3934.183
 809  3650.715
 810  3533.873
 811  3556.265
 812  3570.519
 813  3665.037
 814  3669.136
 815  3605.552
 816  3793.112
 817  3819.862
 818  3834.895
 819  4033.474
 820  3743.861
 821  3753.044
 822  3694.602
 823  3788.303
 824  3771.041
 825  3444.562
 826  3389.736
 827  3378.014
 828  3209.488
 829  3247.803
 830  3213.063
 831  3180.637
 832  3428.278
 833  3326.697
 834  3441.813
 835  3549.382
 836  3507.251
 837  3654.067
 838  3586.817
 839  3689.623
 840  3884.576
 841  3814.204
 842  3772.273
 843  3796.021
 844  3828.729
 845  3812.145
 846  3720.756
 847  3617.372
 848  3723.744
 849  3698.161
 850  3584.111
 851  3797.593
 852  3785.884
 853  3805.905
 854  3656.829
 855  3570.266
 856  3737.201
 857  3756.678
 858  3892.112
 859  3803.76
 860  3651.702
 861  3593.825
 862  3602.771
 863  3590.489
 864  3639.185
 865  3675.323
 866  3693.296
 867  3680.727
 868  3643.603
 869  3656.965
 870  3646.937
 871  3475.244
 872  3619.506
 873  3872.815
 874  3806.943
 875  3766.764
 876  3668.448
 877  3856.042
 878  3996.568
 879  4115.944
 880  4221.17
 881  4261.05
 882  4192.671
 883  4053.679
 884  4011.88
 885  3897.319
 886  4008.945
 887  3997.281
 888  4017.152
 889  4015.232
 890  4018.348
 891  4199.759
 892  4190.899
 893  4155.572
 894  4196.309
 895  4150.205
 896  4053.508
 897  3924.072
 898  3494.068
 899  3460.955
 900  3404.917
 901  3816.127
 902  3910.339
 903  3733.572
 904  3681.897
 905  3777.255
 906  3827.845
 907  3807.01
 908  3620.172
 909  3706.799
 910  3792.233
 911  3503.332
 912  3510.436
 913  3693.999
 914  3722.469
 915  3888.096
 916  3890.188
 917  3805.89
 918  3829.801
 919  3648.146
 920  3703.511
 921  3695.792
 922  3528.122
 923  3463.854
 924  3460.908
 925  3533.659
 926  3630.086
 927  3704.935
 928  3693.022
 929  3748.411
 930  3648.149
 931  3673.948
 932  3628.11
 933  3545.952
 934  3671.524
 935  3744.778
 936  3808.042
 937  3850.397
 938  3722.396
 939  3648.744
 940  3538.714
 941  3379.783
 942  3494.945
 943  3426.863
 944  3446.262
 945  3620.734
 946  3784.487
 947  3798.097
 948  3835.039
 949  3767.833
 950  3869.638
 951  3688.222
 952  3628.616
 953  3613.931
 954  3731.699
 955  3608.395
 956  3563.935
 957  3404.045
 958  3343.473
 959  3150.222
 960  3124.142
 961  3295.936
 962  3519.98
 963  3665.86
 964  3625.763
 965  3487.656
 966  3518.539
 967  3577.978
 968  3474.66
 969  3472.778
 970  3491.237
 971  3364.178
 972  3491.172
 973  3393.398
 974  3430.143
 975  3476.33
 976  3502.588
 977  3695.374
 978  3813.485
 979  3835.006
 980  3910.7
 981  3815.851
 982  4016.098
 983  3807.961
 984  3694.389
 985  3918.851
 986  3942.086
 987  3764.708
 988  3626.716
 989  3611.855
 990  3752.807
 991  3854.534
 992  3782.238
 993  3842.671
 994  3904.701
 995  3727.08
 996  3697.658
 997  3602.925
 998  3495.895
 999  3694.02
1000  3501.916
1001  3553.916
1002  3491.865
1003  3625.084
1004  3845.168
1005  3761.863
1006  3896.159
1007  3935.278
1008  3978.942
1009  3946.612
1010  3869.027
1011  3859.959
1012  3658.573
1013  3535.442
1014  3445.558
1015  3535.839
1016  3371.088
1017  3371.806
1018  3455.696
1019  3269.293
1020  3169.238
1021  3116.048
1022  3376.168
1023  3433.583
