# Input file       =  1203956956.133537-PSRB0329-2ms-sampling-dd.dat
# Candidate        =  PSR_0332+5434
# Telescope        =  AR
# Epoch_topo       =  58178.687212193719
# Epoch_bary       =  N/A
# T_sample         =  0.002
# Data Folded      =  7340032
# Data Avg         =  -2.21020410138052e-09
# Data StdDev      =  10.9953949101184 
# Profile Bins     =  512
# Profile Avg      =  0.0500115001245552
# Profile StdDev   =  1316.51201875012 
# Reduced chi-sqr  =  0.380
# Prob(Noise)      <  1   (~0.0 sigma)
# P_topo (ms)      =  714.58067394411   +/- 0.00071
# P'_topo (s/s)    =  -0                +/- 3.74e-10
# P''_topo (s/s^2) =  0                 +/- 1.65e-13
# P_bary (ms)      =  N/A
# P'_bary (s/s)    =  N/A
# P''_bary (s/s^2) =  N/A
# P_orb (s)        =  N/A
# asin(i)/c (s)    =  N/A
# eccentricity     =  N/A
# w (rad)          =  N/A
# T_peri           =  N/A
######################################################
   0  871.8421
   1  855.8154
   2  383.5566
   3  552.5734
   4  815.9865
   5  781.5435
   6  623.9413
   7  247.9965
   8  202.8499
   9  320.1147
  10  370.936
  11  528.6029
  12  432.0591
  13  256.7209
  14  12.73357
  15  152.2657
  16  295.495
  17  109.5462
  18  47.52546
  19  212.9314
  20  76.90978
  21  -115.309
  22  -126.8034
  23  -76.58775
  24  -443.2617
  25  -527.7665
  26  -507.855
  27  -567.3558
  28  -693.9871
  29  -530.2202
  30  -403.6674
  31  -164.2383
  32  -24.69409
  33  -223.51
  34  15.88858
  35  -276.5203
  36  -435.078
  37  -567.8383
  38  -817.3856
  39  -432.0386
  40  -305.5477
  41  -306.4661
  42  -825.3074
  43  -919.7833
  44  -1289.834
  45  -1028.742
  46  -650.6631
  47  -503.6405
  48  -326.9194
  49  353.1363
  50  525.6284
  51  236.9301
  52  149.6534
  53  -347.0984
  54  -350.3537
  55  -404.4785
  56  -134.6235
  57  -271.0014
  58  -615.2013
  59  -300.0711
  60  -51.68667
  61  -292.6561
  62  -188.257
  63  -224.4026
  64  -421.2857
  65  -690.4848
  66  -658.1203
  67  -446.4823
  68  12.42708
  69  -121.7299
  70  -557.6415
  71  -635.894
  72  -587.2476
  73  -701.2673
  74  -524
  75  -490.2127
  76  -359.656
  77  -123.1312
  78  169.5428
  79  -162.3325
  80  125.9989
  81  401.8389
  82  3.33332
  83  162.458
  84  418.9081
  85  333.6379
  86  33.24519
  87  163.9323
  88  24.44801
  89  -293.675
  90  -289.2587
  91  -659.9282
  92  -868.3843
  93  -767.4609
  94  -653.4595
  95  -721.5302
  96  -778.0869
  97  -782.9822
  98  -563.3599
  99  -873.1094
 100  -1229.518
 101  -1470.386
 102  -1487.57
 103  -1084.072
 104  -1269.213
 105  -645.7415
 106  -1088.313
 107  -1404.859
 108  -1289.135
 109  -1238.635
 110  -793.4293
 111  -698.6415
 112  -364.7339
 113  -612.7672
 114  -406.6979
 115  -665.1675
 116  -686.9261
 117  -180.9481
 118  -98.42033
 119  -351.3479
 120  -634.5981
 121  -552.1731
 122  -507.7075
 123  -559.7626
 124  -401.5733
 125  -540.1045
 126  -741.1227
 127  -170.9978
 128  -114.3767
 129  -157.2227
 130  -451.9806
 131  -476.9222
 132  -428.8133
 133  -298.9385
 134  -126.9762
 135  -391.4963
 136  -136.0265
 137  149.1172
 138  64.97987
 139  -205.3028
 140  -153.9458
 141  -344.9432
 142  -41.1003
 143  374.3872
 144  167.0704
 145  154.6612
 146  -52.49168
 147  -236.4381
 148  -486.9559
 149  -320.5932
 150  -378.5547
 151  -514.7022
 152  -537.2278
 153  -615.7081
 154  -620.3696
 155  120.385
 156  154.0788
 157  396.1214
 158  441.9753
 159  1100.561
 160  1151.731
 161  745.6603
 162  1062.24
 163  1222.58
 164  1299.934
 165  977.4051
 166  853.6879
 167  1236.058
 168  999.8799
 169  704.8834
 170  467.2542
 171  98.60561
 172  -85.20067
 173  -83.85209
 174  42.39949
 175  95.31757
 176  238.906
 177  -72.57594
 178  139.1842
 179  306.9621
 180  30.27426
 181  133.4544
 182  101.7755
 183  7.820714
 184  -115.2239
 185  -24.6654
 186  -436.1319
 187  -639.7032
 188  -587.626
 189  -572.6685
 190  -687.6728
 191  -769.4741
 192  -997.2215
 193  -840.4778
 194  -683.1215
 195  -578.2502
 196  -595.9965
 197  -499.6681
 198  -417.4757
 199  -419.1734
 200  -311.0989
 201  -586.7802
 202  -980.2512
 203  -278.364
 204  -8.859067
 205  -907.9433
 206  -1352.615
 207  -1175.319
 208  -920.8608
 209  -1127.155
 210  -1389.796
 211  -1195.709
 212  -1155.863
 213  -1427.907
 214  -1079.89
 215  -691.3499
 216  -574.1797
 217  -702.2917
 218  -1423.246
 219  -1174.27
 220  -726.2927
 221  -336.4596
 222  14.02522
 223  62.98438
 224  -125.3877
 225  -537.4208
 226  -579.0814
 227  -457.6748
 228  68.9853
 229  572.4588
 230  686.369
 231  183.5538
 232  -94.00388
 233  -100.5233
 234  158.2134
 235  235.9751
 236  303.9261
 237  51.51521
 238  -293.197
 239  -246.3081
 240  48.13144
 241  289.6042
 242  -0.2097583
 243  48.67605
 244  -60.01986
 245  -45.86937
 246  33.19315
 247  -25.32067
 248  -107.441
 249  -148.2836
 250  71.90068
 251  25.93305
 252  22.55254
 253  205.7118
 254  694.557
 255  915.3101
 256  741.051
 257  891.8453
 258  875.2738
 259  987.3003
 260  1242.453
 261  828.4067
 262  798.1439
 263  412.1343
 264  178.7946
 265  52.25844
 266  437.0068
 267  264.4915
 268  112.2785
 269  362.6172
 270  439.3524
 271  303.7892
 272  166.8339
 273  -19.12193
 274  -45.27144
 275  125.3275
 276  616.7835
 277  753.3604
 278  885.4742
 279  304.2209
 280  421.4166
 281  132.8217
 282  105.2799
 283  210.7885
 284  186.9
 285  268.4987
 286  182.3486
 287  370.9163
 288  228.3049
 289  45.15482
 290  289.5871
 291  513.8229
 292  501.2709
 293  340.8615
 294  125.8151
 295  340.9187
 296  395.8738
 297  408.548
 298  448.1288
 299  391.0925
 300  341.5244
 301  220.1781
 302  -107.1012
 303  -450.8905
 304  -435.1428
 305  -144.0304
 306  -64.93608
 307  53.28936
 308  -233.2368
 309  -336.2282
 310  -122.6586
 311  -36.13242
 312  194.1501
 313  -143.9747
 314  -339.4232
 315  -310.3527
 316  -520.84
 317  -234.3693
 318  -610.4948
 319  -601.7344
 320  -702.1486
 321  -258.9932
 322  341.9965
 323  251.74
 324  159.7423
 325  -289.5739
 326  -741.6627
 327  -478.3504
 328  -378.9926
 329  -387.7845
 330  323.6504
 331  828.0699
 332  628.1329
 333  663.8148
 334  630.1349
 335  119.9856
 336  348.0885
 337  542.5612
 338  638.3397
 339  764.283
 340  847.5406
 341  497.0518
 342  347.3198
 343  465.7154
 344  -18.6185
 345  185.4519
 346  361.6131
 347  379.8665
 348  132.7699
 349  237.3664
 350  -43.8686
 351  -55.55849
 352  -177.8278
 353  219.574
 354  364.6901
 355  301.8583
 356  570.123
 357  768.5171
 358  335.0318
 359  27.35379
 360  -404.4377
 361  138.3806
 362  472.5912
 363  511.7456
 364  669.9768
 365  698.1342
 366  298.0996
 367  388.6249
 368  604.95
 369  602.9225
 370  537.1936
 371  799.8904
 372  1215.034
 373  1437.023
 374  1360.634
 375  939.5153
 376  103.0896
 377  125.7338
 378  274.205
 379  106.8761
 380  -362.5644
 381  -375.4474
 382  -53.47758
 383  -313.3549
 384  -463.1263
 385  -678.2933
 386  -644.766
 387  -767.2758
 388  -1251.365
 389  -832.0053
 390  -1137.092
 391  -920.206
 392  -903.4036
 393  -917.7985
 394  -675.4547
 395  -849.3057
 396  -865.6148
 397  -326.3919
 398  353.4036
 399  115.1571
 400  -105.0908
 401  -38.29868
 402  -381.2584
 403  -26.78739
 404  299.9428
 405  247.7589
 406  156.715
 407  325.4749
 408  189.3589
 409  99.92702
 410  -74.39639
 411  363.7048
 412  390.0844
 413  1160.311
 414  1479.691
 415  1297.325
 416  1054.771
 417  357.3079
 418  328.8815
 419  438.8993
 420  485.1108
 421  786.1215
 422  165.7767
 423  -0.131396
 424  54.79652
 425  82.23259
 426  340.1065
 427  193.2855
 428  473.4495
 429  749.4626
 430  661.218
 431  276.0179
 432  760.0734
 433  1231.549
 434  879.4645
 435  794.861
 436  1104.766
 437  775.0233
 438  639.4686
 439  1026.525
 440  740.0985
 441  409.9862
 442  120.8828
 443  255.7513
 444  215.9041
 445  221.3319
 446  -147.16
 447  -191.6571
 448  -9.437986
 449  -295.1842
 450  -581.1275
 451  -410.0971
 452  -566.6418
 453  -111.4696
 454  -316.2035
 455  -258.9815
 456  -342.2463
 457  -525.2411
 458  -418.2568
 459  -657.3445
 460  -552.5687
 461  -141.546
 462  -645.0134
 463  -955.5853
 464  -432.7818
 465  -392.946
 466  -770.8363
 467  -655.9968
 468  -381.1329
 469  -603.8497
 470  -405.4789
 471  -15.69697
 472  324.4012
 473  501.6426
 474  704.2359
 475  462.3464
 476  654.1647
 477  754.9045
 478  836.9771
 479  890.0442
 480  1023.944
 481  820.1666
 482  581.6638
 483  1114.667
 484  1288.061
 485  1232.607
 486  669.7448
 487  334.8981
 488  551.6259
 489  1026.991
 490  1223.723
 491  1328.697
 492  855.9307
 493  960.0858
 494  959.9091
 495  671.939
 496  786.2105
 497  965.3093
 498  572.2623
 499  124.1954
 500  116.5389
 501  231.2329
 502  335.5106
 503  314.0873
 504  418.3629
 505  286.7637
 506  94.20438
 507  645.4239
 508  661.4918
 509  653.4756
 510  276.4329
 511  750.9694
