# Input file       =  1203075975.116474_cleaned.dat
# Candidate        =  PSR_0332+5434
# Telescope        =  AR
# Epoch_topo       =  58168.490672644373
# Epoch_bary       =  N/A
# T_sample         =  0.002
# Data Folded      =  7340032
# Data Avg         =  0.15482515380414 
# Data StdDev      =  1.00031619353537 
# Profile Bins     =  512
# Profile Avg      =  2219.42192812681 
# Profile StdDev   =  119.770895188839 
# Reduced chi-sqr  =  1.134
# Prob(Noise)      <  0.0193   (~2.1 sigma)
# P_topo (ms)      =  714.580507808257  +/- 0.000363
# P'_topo (s/s)    =  -0                +/- 1.91e-10
# P''_topo (s/s^2) =  0                 +/- 8.45e-14
# P_bary (ms)      =  N/A
# P'_bary (s/s)    =  N/A
# P''_bary (s/s^2) =  N/A
# P_orb (s)        =  N/A
# asin(i)/c (s)    =  N/A
# eccentricity     =  N/A
# w (rad)          =  N/A
# T_peri           =  N/A
######################################################
   0  2751.148
   1  2631.985
   2  2445.463
   3  2280.326
   4  2177.674
   5  2286.619
   6  2230.445
   7  2266.457
   8  2244.397
   9  2162.123
  10  2154.434
  11  2267.23
  12  2185.136
  13  2169.883
  14  2349.81
  15  2280.98
  16  2215.844
  17  2237.515
  18  2290.089
  19  2288.47
  20  2318.005
  21  2390.309
  22  2257.655
  23  2228.233
  24  2306.483
  25  2221.384
  26  2265.604
  27  2220.184
  28  2258.719
  29  2288.725
  30  2354.13
  31  2276.879
  32  2218.983
  33  2263.692
  34  2225.865
  35  2246.808
  36  2289.425
  37  2287.049
  38  2309.052
  39  2322.218
  40  2390.95
  41  2295.633
  42  2231.484
  43  2218.23
  44  2287.461
  45  2293.926
  46  2271.091
  47  2360.656
  48  2342.84
  49  2359.717
  50  2410.685
  51  2418.82
  52  2410.72
  53  2311.243
  54  2344.842
  55  2298.264
  56  2328.468
  57  2267.891
  58  2280.006
  59  2352.246
  60  2322.115
  61  2367.443
  62  2419.595
  63  2374.705
  64  2397.145
  65  2423.754
  66  2296.744
  67  2297.953
  68  2415.521
  69  2404.138
  70  2327.504
  71  2189.523
  72  2260.787
  73  2347.543
  74  2314.303
  75  2232.859
  76  2146.783
  77  2288.861
  78  2346.57
  79  2340.85
  80  2321.657
  81  2288.649
  82  2250.489
  83  2268.396
  84  2188.479
  85  2218.423
  86  2349.648
  87  2268.275
  88  2263.82
  89  2252.992
  90  2302.763
  91  2327.614
  92  2252.886
  93  2305.254
  94  2333.949
  95  2201.041
  96  2304.681
  97  2218.338
  98  2193.567
  99  2246.653
 100  2214.948
 101  2218.608
 102  2192.747
 103  2187.572
 104  2201.322
 105  2248.507
 106  2288.333
 107  2267.712
 108  2245.991
 109  2270.134
 110  2247.125
 111  2160.393
 112  2201.931
 113  2250.437
 114  2272.648
 115  2242.407
 116  2274.15
 117  2237.098
 118  2245.196
 119  2230.655
 120  2316.716
 121  2204.194
 122  2261.688
 123  2230.026
 124  2178.251
 125  2226.637
 126  2159.267
 127  2244.515
 128  2211.892
 129  2207.744
 130  2186.98
 131  2245.106
 132  2204.816
 133  2201.646
 134  2251.596
 135  2311.666
 136  2270.426
 137  2230.095
 138  2139.565
 139  2159.908
 140  2238.872
 141  2177.448
 142  2192.43
 143  2076.836
 144  2085.126
 145  2103.702
 146  2118.503
 147  2243.508
 148  2186.247
 149  2089.725
 150  2097.809
 151  2186.648
 152  2250.046
 153  2187.418
 154  2147.376
 155  2155.18
 156  2214.001
 157  2208.187
 158  2124.444
 159  2197.529
 160  2216.158
 161  2155.924
 162  2302.981
 163  2313.886
 164  2132.042
 165  2118.943
 166  2166.735
 167  2254.046
 168  2231.963
 169  2297.241
 170  2365.017
 171  2277.302
 172  2245.298
 173  2179.075
 174  2226.939
 175  2215.719
 176  2252.18
 177  2332.932
 178  2303.703
 179  2285.758
 180  2255.977
 181  2192.621
 182  2134.24
 183  2160.104
 184  2214.359
 185  2193.616
 186  2146.46
 187  2120.616
 188  2086.871
 189  2090.696
 190  2155.927
 191  2117.509
 192  2068.544
 193  2145.847
 194  2218.527
 195  2275.378
 196  2289.947
 197  2286.011
 198  2197.56
 199  2119.876
 200  2096.576
 201  2086.681
 202  2150.807
 203  2155.593
 204  2226.198
 205  2216.142
 206  2227.53
 207  2231.033
 208  2252.515
 209  2283.067
 210  2254.58
 211  2147.222
 212  2157.167
 213  2216.985
 214  2170.613
 215  2128.829
 216  2165.148
 217  2207.727
 218  2161.447
 219  2081.584
 220  2130.459
 221  2139.884
 222  2155.075
 223  2219.579
 224  2252.469
 225  2197.131
 226  2187.335
 227  2187.514
 228  2164.348
 229  2201.756
 230  2146.253
 231  2179.057
 232  2172.208
 233  2149.424
 234  2150.967
 235  2139.482
 236  2292.395
 237  2303.723
 238  2264.817
 239  2239.811
 240  2124.448
 241  2101.533
 242  2051.38
 243  2093.213
 244  2144.124
 245  2123.932
 246  2076.09
 247  2118.883
 248  2183.819
 249  2144.154
 250  2096.733
 251  2060.307
 252  2095.698
 253  2144.808
 254  2166.321
 255  2144.946
 256  2187.203
 257  2196.423
 258  2281.058
 259  2302.002
 260  2279.068
 261  2351.54
 262  2287.535
 263  2344.806
 264  2308.032
 265  2301.919
 266  2221.524
 267  2217.054
 268  2161.855
 269  2123.684
 270  2182.398
 271  2196.581
 272  2229.731
 273  2210.37
 274  2253.275
 275  2186.546
 276  2262.689
 277  2298.844
 278  2230.694
 279  2159.94
 280  2249.929
 281  2249.006
 282  2247.332
 283  2251.595
 284  2232.524
 285  2177.382
 286  2089.029
 287  2149.922
 288  2248.589
 289  2142.621
 290  2168.425
 291  2192.837
 292  2192.905
 293  2175.594
 294  2212.537
 295  2241.83
 296  2209.17
 297  2215.489
 298  2155.949
 299  2157.224
 300  2268.488
 301  2209.821
 302  2066.963
 303  2107.203
 304  2131.998
 305  2281.398
 306  2312.093
 307  2182.563
 308  2213.273
 309  2213.562
 310  2170.975
 311  2111.071
 312  2218.114
 313  2218.68
 314  2170.063
 315  2143.635
 316  2137.128
 317  2179.361
 318  2280.333
 319  2204.478
 320  2195.378
 321  2261.216
 322  2197.552
 323  2236.501
 324  2299.675
 325  2245.211
 326  2265.129
 327  2312.481
 328  2303.168
 329  2272.298
 330  2275.026
 331  2226.541
 332  2224.02
 333  2248.287
 334  2146.897
 335  2227.142
 336  2298.212
 337  2316.219
 338  2180.837
 339  2133.555
 340  2169.842
 341  2207.444
 342  2287.956
 343  2259.556
 344  2282.21
 345  2282.458
 346  2298.162
 347  2143.646
 348  2122.808
 349  2184.504
 350  2153.452
 351  2096.049
 352  2192.48
 353  2087.68
 354  2142.459
 355  2222.61
 356  2294.189
 357  2343.104
 358  2254.298
 359  2150.596
 360  2134.381
 361  2242.58
 362  2242.472
 363  2224.042
 364  2180.959
 365  2154.469
 366  2189.719
 367  2094.366
 368  2210.084
 369  2242.077
 370  2116.605
 371  2096.433
 372  2125.951
 373  2147.762
 374  2052.42
 375  2091.938
 376  2116.085
 377  2097.742
 378  2109.795
 379  2053.063
 380  2010.622
 381  2011.915
 382  2032.299
 383  2110.438
 384  2054.265
 385  1978.161
 386  2016.033
 387  2083.403
 388  2127.674
 389  2035.694
 390  2001.606
 391  2110.484
 392  2065.191
 393  2120.796
 394  2139.413
 395  2184.958
 396  2187.834
 397  2195.394
 398  2127.132
 399  2059.363
 400  2024.18
 401  2086.983
 402  2115.649
 403  2124.708
 404  2076.028
 405  2052.067
 406  2168.217
 407  2138.75
 408  2068.463
 409  2055.259
 410  2135.85
 411  2191.414
 412  2142.398
 413  2042.823
 414  2187.771
 415  2282.854
 416  2237.537
 417  2110.189
 418  2024.324
 419  2053.819
 420  2090.181
 421  2194.123
 422  2197.598
 423  2173.231
 424  2145.935
 425  2234.226
 426  2304.189
 427  2293.506
 428  2251.535
 429  2172.116
 430  2097.099
 431  2167.513
 432  2197.447
 433  2235.479
 434  2241.149
 435  2235.225
 436  2260.731
 437  2246.101
 438  2196.74
 439  2103.729
 440  2133.563
 441  2212.307
 442  2382.376
 443  2243.06
 444  2201.08
 445  2180.749
 446  2220.677
 447  2277.293
 448  2354.766
 449  2333.022
 450  2301.679
 451  2271.518
 452  2282.921
 453  2203.197
 454  2297.767
 455  2339.283
 456  2268.824
 457  2155.081
 458  2167.794
 459  2247.233
 460  2278.804
 461  2192.865
 462  2227.904
 463  2271.532
 464  2260.358
 465  2316.6
 466  2310.533
 467  2278.588
 468  2276.529
 469  2271.613
 470  2229.603
 471  2229.13
 472  2367.745
 473  2352.557
 474  2260.413
 475  2222.857
 476  2236.364
 477  2191.933
 478  2122.757
 479  2248.281
 480  2172.584
 481  2199.577
 482  2187.65
 483  2114.69
 484  2120.474
 485  2197.321
 486  2227.49
 487  2313.388
 488  2232.639
 489  2261.579
 490  2193.513
 491  2207.877
 492  2209.784
 493  2265.689
 494  2262.126
 495  2247.816
 496  2283.379
 497  2267.926
 498  2161.211
 499  2162.985
 500  2129.066
 501  2245.421
 502  2221.441
 503  2199.351
 504  2270.93
 505  2348.587
 506  2335.709
 507  2370.766
 508  2434.719
 509  2495.795
 510  2625.031
 511  2686.301
