# Input file       =  1203586598.108145_cleaned.dat
# Candidate        =  PSR_0332+5434
# Telescope        =  AR
# Epoch_topo       =  58174.400660973901
# Epoch_bary       =  N/A
# T_sample         =  0.002
# Data Folded      =  7405568
# Data Avg         =  0.0138241026749678
# Data StdDev      =  1.0001357700125  
# Profile Bins     =  512
# Profile Avg      =  199.947825505023 
# Profile StdDev   =  120.282699593681 
# Reduced chi-sqr  =  1.204
# Prob(Noise)      <  0.00103   (~3.1 sigma)
# P_topo (ms)      =  714.58070208175   +/- 0.000139
# P'_topo (s/s)    =  -0                +/- 7.27e-11
# P''_topo (s/s^2) =  0                 +/- 3.18e-14
# P_bary (ms)      =  N/A
# P'_bary (s/s)    =  N/A
# P''_bary (s/s^2) =  N/A
# P_orb (s)        =  N/A
# asin(i)/c (s)    =  N/A
# eccentricity     =  N/A
# w (rad)          =  N/A
# T_peri           =  N/A
######################################################
   0  658.2796
   1  592.1024
   2  416.292
   3  331.6723
   4  130.6623
   5  257.282
   6  329.0351
   7  157.9482
   8  226.3073
   9  205.822
  10  129.7731
  11  109.5565
  12  290.6911
  13  352.433
  14  221.7645
  15  214.7822
  16  266.5513
  17  328.2797
  18  281.1424
  19  192.8633
  20  215.6176
  21  174.8614
  22  171.7812
  23  188.0165
  24  142.3736
  25  203.1537
  26  221.0839
  27  268.0499
  28  274.6369
  29  158.3854
  30  230.9093
  31  221.6795
  32  153.6349
  33  75.23006
  34  168.655
  35  260.2137
  36  236.8519
  37  197.672
  38  240.0334
  39  230.2303
  40  332.9231
  41  296.399
  42  160.4631
  43  204.8923
  44  265.5936
  45  308.1895
  46  221.9628
  47  258.619
  48  326.2016
  49  235.3857
  50  196.138
  51  249.5429
  52  167.841
  53  117.581
  54  164.6913
  55  66.72589
  56  180.5156
  57  147.2058
  58  170.254
  59  272.6913
  60  200.4851
  61  163.026
  62  299.334
  63  351.5507
  64  342.2742
  65  312.596
  66  191.1289
  67  234.9744
  68  173.0432
  69  202.526
  70  183.3291
  71  0.5732849
  72  55.05988
  73  206.4279
  74  167.5696
  75  235.4583
  76  194.3243
  77  245.5348
  78  185.9666
  79  203.433
  80  261.5223
  81  335.073
  82  238.6391
  83  165.536
  84  252.4197
  85  244.3254
  86  229.5602
  87  120.0196
  88  109.5963
  89  163.0087
  90  155.3463
  91  162.5376
  92  185.0573
  93  282.9819
  94  239.7489
  95  283.0899
  96  273.1314
  97  210.1008
  98  264.2294
  99  298.8374
 100  181.2354
 101  153.2189
 102  220.7098
 103  206.9517
 104  169.7988
 105  292.2817
 106  295.3124
 107  159.8121
 108  77.7021
 109  165.6794
 110  193.5481
 111  231.0378
 112  300.0418
 113  252.8749
 114  138.186
 115  194.6378
 116  150.648
 117  171.5822
 118  283.282
 119  202.3599
 120  117.2513
 121  113.3139
 122  167.6073
 123  164.0314
 124  144.7877
 125  15.14824
 126  122.3007
 127  189.352
 128  242.7582
 129  203.6855
 130  261.2709
 131  273.0319
 132  111.838
 133  92.23528
 134  101.5443
 135  87.79192
 136  76.32713
 137  248.7966
 138  274.3146
 139  168.7366
 140  180.8714
 141  201.5536
 142  185.8098
 143  295.2116
 144  238.3425
 145  136.4617
 146  130.3559
 147  176.1413
 148  115.4472
 149  44.67955
 150  160.4616
 151  164.495
 152  158.5844
 153  137.6852
 154  85.54957
 155  140.7635
 156  194.7266
 157  -18.58932
 158  2.619394
 159  94.19859
 160  38.21611
 161  66.33572
 162  128.5392
 163  152.6192
 164  99.86852
 165  90.38802
 166  91.72697
 167  68.38795
 168  72.28386
 169  81.75389
 170  55.71422
 171  13.88595
 172  36.72213
 173  -52.862
 174  17.4895
 175  174.411
 176  91.54134
 177  -29.98298
 178  -1.68388
 179  110.5623
 180  103.4585
 181  81.95625
 182  -36.12997
 183  11.01922
 184  64.33157
 185  112.1825
 186  90.86669
 187  32.29039
 188  109.2673
 189  98.43376
 190  -55.27886
 191  2.036447
 192  44.36264
 193  39.25704
 194  -10.96599
 195  85.96205
 196  184.6987
 197  203.9997
 198  120.8435
 199  82.40273
 200  89.25566
 201  146.4224
 202  95.58542
 203  32.60443
 204  35.64375
 205  57.0014
 206  192.7668
 207  283.918
 208  266.3489
 209  128.3001
 210  109.1484
 211  174.5291
 212  217.0609
 213  263.4655
 214  224.3829
 215  112.8774
 216  -16.30404
 217  51.64068
 218  50.21202
 219  143.5166
 220  184.9561
 221  84.05608
 222  42.43606
 223  61.08738
 224  124.1098
 225  165.5679
 226  49.64511
 227  88.50398
 228  192.3626
 229  166.8567
 230  297.3528
 231  185.945
 232  172.537
 233  105.1733
 234  171.3841
 235  163.9337
 236  -19.8434
 237  198.5309
 238  279.7804
 239  229.3997
 240  216.5177
 241  254.2962
 242  245.9739
 243  196.6497
 244  121.4102
 245  282.1788
 246  307.4141
 247  196.226
 248  271.1549
 249  230.3466
 250  193.6597
 251  93.85898
 252  83.8983
 253  358.8062
 254  374.042
 255  246.6928
 256  196.6256
 257  307.953
 258  234.1324
 259  249.0107
 260  299.1835
 261  315.9142
 262  259.1163
 263  141.5154
 264  121.7285
 265  140.0311
 266  190.1124
 267  232.1595
 268  246.6253
 269  203.3555
 270  203.6986
 271  133.4539
 272  196.8156
 273  93.78189
 274  236.8705
 275  405.5037
 276  346.2252
 277  332.3313
 278  235.87
 279  221.4736
 280  216.9978
 281  166.4824
 282  155.3689
 283  156.0247
 284  93.71446
 285  172.6441
 286  207.6261
 287  173.1236
 288  160.1369
 289  178.9351
 290  114.7329
 291  181.2165
 292  284.4006
 293  264.4562
 294  249.7429
 295  252.6801
 296  255.7736
 297  176.0229
 298  34.38909
 299  150.9518
 300  282.8464
 301  359.3626
 302  226.2935
 303  186.3542
 304  176.4643
 305  180.501
 306  205.1082
 307  254.281
 308  231.4738
 309  216.0131
 310  264.4926
 311  165.5164
 312  232.7755
 313  298.548
 314  253.4803
 315  228.7991
 316  275.6227
 317  181.008
 318  105.3784
 319  151.668
 320  199.6934
 321  208.6895
 322  216.3411
 323  251.0817
 324  248.1984
 325  239.9759
 326  176.7585
 327  198.0286
 328  308.1558
 329  331.3955
 330  278.828
 331  222.818
 332  209.9146
 333  318.2437
 334  306.374
 335  182.2428
 336  241.353
 337  363.7034
 338  282.7396
 339  143.2389
 340  193.8682
 341  215.945
 342  180.4886
 343  314.4158
 344  481.3043
 345  381.2426
 346  345.6196
 347  353.0276
 348  228.2585
 349  197.8218
 350  210.3399
 351  318.238
 352  288.8981
 353  337.6514
 354  266.7767
 355  255.0659
 356  189.6365
 357  207.3911
 358  286.6619
 359  273.1925
 360  370.1902
 361  325.4604
 362  339.5676
 363  363.7212
 364  254.3552
 365  257.1209
 366  294.2803
 367  321.7546
 368  244.5886
 369  229.8649
 370  270.1822
 371  217.5631
 372  186.0009
 373  256.4781
 374  206.7386
 375  338.4243
 376  325.2917
 377  238.623
 378  160.576
 379  280.242
 380  310.2507
 381  331.4424
 382  272.3663
 383  157.258
 384  135.2299
 385  92.13074
 386  166.2756
 387  184.8237
 388  169.2589
 389  203.5177
 390  341.532
 391  361.9368
 392  338.1309
 393  262.9034
 394  261.2178
 395  398.995
 396  242.9363
 397  293.5671
 398  346.0285
 399  260.4198
 400  180.9402
 401  193.6808
 402  227.5016
 403  296.1482
 404  218.4315
 405  172.9996
 406  229.4404
 407  226.676
 408  220.5307
 409  174.7507
 410  175.2455
 411  275.2549
 412  255.6099
 413  165.043
 414  187.8672
 415  150.8482
 416  130.2273
 417  217.1525
 418  251.2043
 419  115.2661
 420  85.18715
 421  165.3031
 422  135.7324
 423  145.66
 424  258.2166
 425  306.4564
 426  383.2278
 427  318.3003
 428  227.0341
 429  200.5639
 430  120.9446
 431  150.1386
 432  208.9158
 433  156.5427
 434  158.0654
 435  165.7321
 436  290.6927
 437  233.4887
 438  231.7998
 439  227.0409
 440  227.7712
 441  136.8445
 442  231.2693
 443  136.9003
 444  223.5157
 445  184.0806
 446  178.1816
 447  246.4013
 448  101.0577
 449  106.7742
 450  189.1622
 451  246.212
 452  244.2606
 453  176.7208
 454  157.1334
 455  181.1362
 456  140.8466
 457  180.422
 458  138.1544
 459  148.9751
 460  244.7364
 461  253.2973
 462  254.2925
 463  227.7564
 464  305.1337
 465  191.7439
 466  166.8488
 467  227.2636
 468  181.9558
 469  179.1636
 470  184.2677
 471  118.9205
 472  192.6629
 473  261.6056
 474  235.3209
 475  159.8475
 476  35.14159
 477  94.53698
 478  139.0999
 479  157.1248
 480  130.7578
 481  87.35846
 482  127.1472
 483  118.5624
 484  46.45699
 485  205.9109
 486  261.0681
 487  176.3028
 488  93.59681
 489  185.7254
 490  243.7792
 491  110.3077
 492  66.58904
 493  212.1615
 494  243.9312
 495  238.5457
 496  139.9864
 497  211.0231
 498  101.1605
 499  43.47773
 500  74.54905
 501  186.0506
 502  260.2922
 503  291.4435
 504  301.3403
 505  358.7946
 506  391.9846
 507  336.7079
 508  346.5976
 509  444.6055
 510  623.1362
 511  681.6889
