# Input file       =  1203075975.116474_cleaned.dat
# Candidate        =  PSR_0332+5434
# Telescope        =  AR
# Epoch_topo       =  58168.490672644373
# Epoch_bary       =  N/A
# T_sample         =  0.002
# Data Folded      =  7340032
# Data Avg         =  0.15482515380414 
# Data StdDev      =  1.00031619353537 
# Profile Bins     =  512
# Profile Avg      =  2219.42192546729 
# Profile StdDev   =  119.770895188839 
# Reduced chi-sqr  =  1.131
# Prob(Noise)      <  0.021   (~2.0 sigma)
# P_topo (ms)      =  714.580508839591  +/- 0.000364
# P'_topo (s/s)    =  -0                +/- 1.92e-10
# P''_topo (s/s^2) =  0                 +/- 8.47e-14
# P_bary (ms)      =  N/A
# P'_bary (s/s)    =  N/A
# P''_bary (s/s^2) =  N/A
# P_orb (s)        =  N/A
# asin(i)/c (s)    =  N/A
# eccentricity     =  N/A
# w (rad)          =  N/A
# T_peri           =  N/A
######################################################
   0  2287.619
   1  2208.278
   2  2152.779
   3  2129.753
   4  2191.747
   5  2218.241
   6  2160.522
   7  2129.138
   8  2103.789
   9  2082.809
  10  2133.336
  11  2151.702
  12  2069.73
  13  2107.532
  14  2196.713
  15  2247.11
  16  2310.034
  17  2272.621
  18  2252.39
  19  2133.751
  20  2104.736
  21  2081.462
  22  2132.605
  23  2141.775
  24  2215.985
  25  2211.158
  26  2233.638
  27  2215.843
  28  2241.738
  29  2283.661
  30  2267.781
  31  2201.692
  32  2119.165
  33  2219.663
  34  2180.273
  35  2143.523
  36  2140.328
  37  2198.582
  38  2187.676
  39  2105.016
  40  2096.849
  41  2154.597
  42  2124.812
  43  2210.163
  44  2235.752
  45  2237.299
  46  2164.944
  47  2210.855
  48  2155.827
  49  2192.728
  50  2175.035
  51  2157.023
  52  2199.014
  53  2137.239
  54  2156.093
  55  2131.38
  56  2222.481
  57  2335.567
  58  2255.099
  59  2273.99
  60  2151.854
  61  2110.187
  62  2077.537
  63  2065.31
  64  2135.931
  65  2133.31
  66  2080.247
  67  2106.153
  68  2157.256
  69  2176.378
  70  2102.159
  71  2066.671
  72  2078.678
  73  2127.882
  74  2169.71
  75  2146.743
  76  2177.723
  77  2198.482
  78  2234.355
  79  2309.535
  80  2263.764
  81  2342.462
  82  2309.615
  83  2328.075
  84  2326.744
  85  2299.308
  86  2254.042
  87  2209.633
  88  2200.015
  89  2128.478
  90  2151.213
  91  2188.762
  92  2214.89
  93  2222.663
  94  2253.256
  95  2195.37
  96  2225.31
  97  2293.127
  98  2277.51
  99  2164.74
 100  2205.268
 101  2265.934
 102  2241.831
 103  2262.889
 104  2238.359
 105  2200.577
 106  2114.833
 107  2103.007
 108  2237.308
 109  2185.122
 110  2138.516
 111  2195.35
 112  2195.84
 113  2188.074
 114  2189.657
 115  2235.729
 116  2221.566
 117  2200.948
 118  2199.03
 119  2130.227
 120  2240.183
 121  2249.684
 122  2101.837
 123  2080.538
 124  2127.93
 125  2210.96
 126  2348.632
 127  2213.829
 128  2188.055
 129  2218.439
 130  2179.448
 131  2146.584
 132  2154.788
 133  2245.434
 134  2174.075
 135  2158.978
 136  2152.402
 137  2134.948
 138  2273.2
 139  2224.923
 140  2194.312
 141  2231.165
 142  2243.667
 143  2188.502
 144  2296.967
 145  2261.93
 146  2255.586
 147  2296.54
 148  2311.849
 149  2283.162
 150  2271.026
 151  2248.679
 152  2210.311
 153  2247.619
 154  2195.652
 155  2164.877
 156  2291.443
 157  2322.942
 158  2238.167
 159  2125.794
 160  2161.762
 161  2188.297
 162  2267.605
 163  2270.159
 164  2272.187
 165  2268.025
 166  2310.956
 167  2206.321
 168  2108.705
 169  2171.961
 170  2184.253
 171  2095.274
 172  2165.369
 173  2129.602
 174  2100.438
 175  2189.171
 176  2281.641
 177  2315.272
 178  2316.445
 179  2170.391
 180  2142.477
 181  2195.876
 182  2250.578
 183  2224.635
 184  2207.372
 185  2154.329
 186  2185.124
 187  2123.395
 188  2146.752
 189  2258.333
 190  2159.865
 191  2090.698
 192  2118.969
 193  2151.924
 194  2093.656
 195  2060.666
 196  2122.707
 197  2089.662
 198  2099.778
 199  2084.734
 200  2018.052
 201  2020.284
 202  2002.275
 203  2100.631
 204  2083.406
 205  2001.164
 206  1985.817
 207  2064.728
 208  2132.296
 209  2081.436
 210  1990.355
 211  2063.681
 212  2099.326
 213  2068.985
 214  2148.719
 215  2155.682
 216  2201.759
 217  2196.263
 218  2151.312
 219  2081.918
 220  2037.633
 221  2058.762
 222  2109.346
 223  2118.461
 224  2105.729
 225  2046.705
 226  2120.442
 227  2171.511
 228  2087.831
 229  2049.37
 230  2107.927
 231  2165.453
 232  2180.815
 233  2061.707
 234  2118.335
 235  2275.54
 236  2266.68
 237  2154.308
 238  2038.411
 239  2046.91
 240  2065.359
 241  2168.94
 242  2191.301
 243  2204.807
 244  2130.823
 245  2208.071
 246  2269.531
 247  2329.012
 248  2247.865
 249  2222.756
 250  2096.084
 251  2141.481
 252  2176.562
 253  2221.898
 254  2248.694
 255  2236.279
 256  2264.203
 257  2242.766
 258  2234.734
 259  2120.739
 260  2124.452
 261  2150.373
 262  2342.967
 263  2306.518
 264  2207.171
 265  2192.224
 266  2198.827
 267  2248.608
 268  2330.833
 269  2347.125
 270  2326.308
 271  2269.46
 272  2284.435
 273  2227.465
 274  2244.812
 275  2359.381
 276  2291.82
 277  2188.212
 278  2149.983
 279  2211.432
 280  2301.71
 281  2195.447
 282  2222.257
 283  2247.826
 284  2280.452
 285  2286.46
 286  2327.968
 287  2272.113
 288  2290.511
 289  2259.444
 290  2267.955
 291  2199.77
 292  2318.888
 293  2378.511
 294  2289.627
 295  2233.08
 296  2227.64
 297  2226.152
 298  2129.695
 299  2202.81
 300  2211.333
 301  2178.106
 302  2200.183
 303  2145.078
 304  2098.836
 305  2186.352
 306  2195.706
 307  2308.941
 308  2247.105
 309  2253.72
 310  2229.956
 311  2195.995
 312  2201.909
 313  2243.121
 314  2269.397
 315  2257.247
 316  2256.768
 317  2299.753
 318  2185.342
 319  2162.824
 320  2128.531
 321  2200.708
 322  2251.977
 323  2185.982
 324  2253.305
 325  2322.685
 326  2346.562
 327  2328.885
 328  2425.1
 329  2463.077
 330  2583.615
 331  2669.394
 332  2733.359
 333  2706.537
 334  2500.054
 335  2351.901
 336  2177.551
 337  2256.44
 338  2246.822
 339  2256.902
 340  2257.874
 341  2210.33
 342  2126.373
 343  2236.633
 344  2223.102
 345  2143.594
 346  2298.203
 347  2330.777
 348  2221.245
 349  2235.991
 350  2258.365
 351  2306.182
 352  2290.53
 353  2384.811
 354  2315.773
 355  2199.94
 356  2301.333
 357  2250.049
 358  2248.399
 359  2241.187
 360  2233.436
 361  2274.392
 362  2342.501
 363  2315.635
 364  2218.946
 365  2252.984
 366  2243.399
 367  2246.226
 368  2266.686
 369  2288.006
 370  2284.664
 371  2310.576
 372  2379.934
 373  2352.385
 374  2233.689
 375  2224.463
 376  2253.719
 377  2313.261
 378  2261.668
 379  2327.116
 380  2367.136
 381  2332.447
 382  2408.073
 383  2402.196
 384  2432.017
 385  2335.688
 386  2338.927
 387  2305.734
 388  2323.135
 389  2303.823
 390  2257.718
 391  2337.557
 392  2331.315
 393  2338.622
 394  2416.311
 395  2395.971
 396  2369.867
 397  2436.646
 398  2339.404
 399  2276.708
 400  2373.214
 401  2426.989
 402  2363.045
 403  2217.427
 404  2212.862
 405  2322.761
 406  2342.428
 407  2274.629
 408  2162.115
 409  2237.35
 410  2328.787
 411  2359.5
 412  2319.736
 413  2310.815
 414  2246.707
 415  2267.71
 416  2224.915
 417  2174.395
 418  2326.735
 419  2305.354
 420  2260.979
 421  2249.628
 422  2273.133
 423  2334.25
 424  2281.104
 425  2261.897
 426  2357.82
 427  2231.332
 428  2260.697
 429  2280.159
 430  2171.873
 431  2239.771
 432  2232.131
 433  2207.357
 434  2223.054
 435  2160.34
 436  2217.835
 437  2214.723
 438  2284.848
 439  2273.063
 440  2245.656
 441  2261.391
 442  2274.593
 443  2179.686
 444  2182.753
 445  2224.581
 446  2285.132
 447  2240.63
 448  2277.45
 449  2236.773
 450  2253.196
 451  2216.011
 452  2300.949
 453  2255.708
 454  2207.459
 455  2284.101
 456  2158.511
 457  2237.599
 458  2172.677
 459  2208.782
 460  2229.473
 461  2198.087
 462  2195.615
 463  2223.492
 464  2235.131
 465  2188.3
 466  2234.521
 467  2293.8
 468  2289.722
 469  2254.367
 470  2163.7
 471  2150.943
 472  2202.38
 473  2213.737
 474  2175.915
 475  2130.374
 476  2058.48
 477  2108.697
 478  2116.951
 479  2188.767
 480  2236.198
 481  2112.86
 482  2079.16
 483  2144.787
 484  2249.252
 485  2211.45
 486  2159.323
 487  2144.977
 488  2189.988
 489  2223.164
 490  2150.969
 491  2153.886
 492  2237.742
 493  2157.025
 494  2235.425
 495  2349.218
 496  2195.163
 497  2104.098
 498  2137.492
 499  2240.529
 500  2234.726
 501  2260.713
 502  2359.292
 503  2315.4
 504  2261.572
 505  2185.936
 506  2207.944
 507  2216.059
 508  2240.186
 509  2309.455
 510  2331.853
 511  2277.105
