# Input file       =  1203586598.108145_cleaned.dat
# Candidate        =  PSR_0332+5434
# Telescope        =  AR
# Epoch_topo       =  58174.400660973901
# Epoch_bary       =  N/A
# T_sample         =  0.002
# Data Folded      =  7405568
# Data Avg         =  0.0355023110740761
# Data StdDev      =  5.62223199960659 
# Profile Bins     =  512
# Profile Avg      =  513.472829396051 
# Profile StdDev   =  676.165439664464 
# Reduced chi-sqr  =  1.033
# Prob(Noise)      <  0.294   (~0.5 sigma)
# P_topo (ms)      =  714.580703100735  +/- 3.51e-05
# P'_topo (s/s)    =  -0                +/- 1.84e-11
# P''_topo (s/s^2) =  0                 +/- 8.04e-15
# P_bary (ms)      =  N/A
# P'_bary (s/s)    =  N/A
# P''_bary (s/s^2) =  N/A
# P_orb (s)        =  N/A
# asin(i)/c (s)    =  N/A
# eccentricity     =  N/A
# w (rad)          =  N/A
# T_peri           =  N/A
######################################################
   0  754.5897
   1  565.1603
   2  410.4515
   3  -179.6988
   4  -646.9836
   5  168.3266
   6  248.9155
   7  -224.2445
   8  111.3199
   9  287.7151
  10  667.4628
  11  384.6773
  12  818.5278
  13  884.8204
  14  850.9182
  15  538.8112
  16  253.3253
  17  688.0137
  18  677.7974
  19  173.11
  20  -443.5992
  21  -23.17974
  22  291.4607
  23  -71.84163
  24  -59.90158
  25  243.8833
  26  760.1838
  27  757.4848
  28  940.5637
  29  1032.522
  30  1104.566
  31  948.6865
  32  574.1943
  33  284.5895
  34  281.4439
  35  297.0424
  36  -254.0274
  37  2.858995
  38  716.6547
  39  528.9292
  40  -61.93003
  41  -194.7599
  42  330.253
  43  96.07764
  44  480.7742
  45  847.9086
  46  915.2761
  47  1130.11
  48  651.8183
  49  356.9258
  50  345.6249
  51  733.8432
  52  250.3537
  53  -390.3033
  54  -26.92898
  55  408.907
  56  -74.00517
  57  -325.9445
  58  -229.7802
  59  504.1432
  60  212.1714
  61  134.3203
  62  659.9792
  63  1226.756
  64  755.9635
  65  19.18055
  66  -314.076
  67  -37.29804
  68  -160.486
  69  -317.3689
  70  346.5982
  71  579.7121
  72  62.01557
  73  -155.5553
  74  177.2867
  75  523.0604
  76  903.1906
  77  329.455
  78  422.9711
  79  532.6801
  80  589.3327
  81  275.0474
  82  79.04617
  83  492.6071
  84  301.864
  85  183.6627
  86  -155.9709
  87  -135.2119
  88  433.0359
  89  354.4858
  90  -504.7421
  91  251.669
  92  537.5778
  93  180.7965
  94  306.1978
  95  517.2725
  96  821.856
  97  399.4338
  98  13.01238
  99  -45.91796
 100  90.43064
 101  155.9713
 102  -315.4643
 103  -340.9406
 104  16.22346
 105  -16.66364
 106  -584.9545
 107  -199.8614
 108  449.3383
 109  317.2771
 110  -135.7044
 111  48.43867
 112  754.0179
 113  489.8517
 114  -136.2382
 115  -440.716
 116  208.6161
 117  256.6008
 118  -14.29293
 119  -342.8822
 120  -38.19975
 121  310.2282
 122  -285.316
 123  -720.967
 124  -235.242
 125  55.49728
 126  -32.59433
 127  188.0829
 128  629.1035
 129  1083.353
 130  729.2149
 131  7.420704
 132  -169.107
 133  376.4541
 134  307.7961
 135  -179.3116
 136  -307.9351
 137  15.64008
 138  216.136
 139  237.7832
 140  445.044
 141  512.3683
 142  244.4676
 143  343.0089
 144  632.5995
 145  997.5169
 146  1172.057
 147  632.3981
 148  -112.594
 149  -260.949
 150  151.7887
 151  -122.8191
 152  -190.1411
 153  305.7131
 154  472.3505
 155  -110.4362
 156  -244.9125
 157  302.7837
 158  646.2891
 159  135.1923
 160  143.7318
 161  776.7902
 162  1147.304
 163  1355.825
 164  559.7861
 165  466.3439
 166  486.57
 167  512.7288
 168  2.215543
 169  -495.586
 170  682.1498
 171  890.7526
 172  364.1321
 173  593.975
 174  958.5515
 175  1011.464
 176  867.8684
 177  802.9055
 178  1433.287
 179  1377.086
 180  1109.108
 181  951.6229
 182  680.2215
 183  875.8959
 184  -49.20505
 185  -1.360934
 186  1206.874
 187  1188.044
 188  537.3466
 189  39.91798
 190  420.7025
 191  596.7905
 192  846.2269
 193  1199.912
 194  1487.829
 195  1377.094
 196  740.5505
 197  107.5187
 198  130.0792
 199  545.6989
 200  890.989
 201  500.5829
 202  535.9441
 203  805.4135
 204  652.5379
 205  357.6467
 206  11.27169
 207  1140.528
 208  1615.838
 209  1366.686
 210  1368.222
 211  1276.096
 212  1403.134
 213  1027.102
 214  602.2072
 215  658.3706
 216  788.8526
 217  495.9043
 218  457.6556
 219  729.4885
 220  594.4033
 221  628.718
 222  412.7153
 223  445.0192
 224  943.3713
 225  1257.261
 226  938.3472
 227  1095.299
 228  1363.286
 229  1139.139
 230  317.6067
 231  109.7807
 232  625.696
 233  1145.232
 234  761.7783
 235  417.9866
 236  557.3087
 237  689.2986
 238  368.7127
 239  358.9915
 240  819.3204
 241  752.4799
 242  891.6183
 243  1137.91
 244  1330.028
 245  1666.679
 246  1295.128
 247  752.4615
 248  856.702
 249  856.5655
 250  361.4345
 251  -265.4566
 252  488.1353
 253  984.9512
 254  748.2189
 255  645.3685
 256  870.4354
 257  1145.773
 258  1034.707
 259  786.3074
 260  966.16
 261  1450.712
 262  1394.922
 263  710.9281
 264  489.3614
 265  763.3804
 266  872.4505
 267  234.3181
 268  28.87462
 269  942.458
 270  1052.071
 271  328.4859
 272  48.99693
 273  549.7802
 274  540.2642
 275  643.3415
 276  1417.632
 277  2048.43
 278  1511.139
 279  1401.6
 280  723.7813
 281  238.648
 282  607.2278
 283  555.027
 284  421.4034
 285  798.579
 286  1069.771
 287  511.0848
 288  390.5734
 289  416.118
 290  1101.774
 291  1150.297
 292  978.895
 293  1162.827
 294  1409.054
 295  1418.315
 296  1232.641
 297  819.2949
 298  951.6031
 299  961.4427
 300  681.6096
 301  196.7931
 302  600.0751
 303  600.0342
 304  311.7783
 305  400.9728
 306  634.257
 307  761.7929
 308  972.0402
 309  1143.462
 310  975.5235
 311  850.2555
 312  1134.884
 313  475.5371
 314  653.8121
 315  696.1431
 316  259.2969
 317  -179.3228
 318  -102.8993
 319  349.2224
 320  362.7369
 321  -42.3715
 322  320.1631
 323  1030.646
 324  826.3627
 325  478.0315
 326  976.3118
 327  1453.842
 328  1381.012
 329  606.3921
 330  541.4901
 331  774.8371
 332  219.0683
 333  -150.2771
 334  -10.00197
 335  576.2806
 336  752.3273
 337  301.4652
 338  219.4754
 339  441.922
 340  410.6667
 341  424.6723
 342  575.2736
 343  735.5489
 344  1064.643
 345  838.799
 346  315.9118
 347  251.1313
 348  30.35113
 349  307.5139
 350  220.2263
 351  227.2979
 352  199.7077
 353  328.4927
 354  104.0237
 355  -84.85976
 356  430.2397
 357  569.8309
 358  1035.896
 359  1458.289
 360  1466.649
 361  933.0787
 362  331.0222
 363  -12.7929
 364  329.4701
 365  665.4654
 366  36.85313
 367  -239.6053
 368  225.185
 369  712.6387
 370  55.5267
 371  78.25207
 372  464.8282
 373  327.0719
 374  419.5528
 375  705.5317
 376  803.7038
 377  1010.609
 378  297.414
 379  130.4665
 380  281.2126
 381  144.7035
 382  -19.00999
 383  -179.8901
 384  157.8446
 385  464.8462
 386  517.696
 387  -144.0573
 388  56.65888
 389  346.6757
 390  267.0853
 391  115.4879
 392  588.621
 393  1202.236
 394  1012.617
 395  619.5487
 396  353.4438
 397  558.7881
 398  60.25066
 399  -247.8186
 400  -217.4291
 401  65.8424
 402  362.2333
 403  -225.9974
 404  -298.0075
 405  566.2061
 406  837.291
 407  631.8832
 408  25.63852
 409  209.1873
 410  642.0827
 411  492.3568
 412  147.8147
 413  -36.49597
 414  2.949608
 415  36.70052
 416  -474.8055
 417  -368.39
 418  767.8856
 419  464.2633
 420  -220.4395
 421  -165.3822
 422  430.9696
 423  613.2342
 424  55.97449
 425  626.3432
 426  1257.151
 427  1099.743
 428  562.7
 429  85.45028
 430  273.454
 431  1.081952
 432  -195.2546
 433  -358.1978
 434  421.954
 435  729.9059
 436  564.2654
 437  552.1053
 438  1270.526
 439  1646.198
 440  1096.502
 441  1181.218
 442  1825.361
 443  2535.667
 444  2494.385
 445  1943.064
 446  1740.636
 447  1336.549
 448  663.3661
 449  6.204545
 450  589.764
 451  804.2314
 452  228.8378
 453  338.4047
 454  353.6808
 455  619.3636
 456  757.0428
 457  1143.643
 458  1439.908
 459  1454.481
 460  1412.014
 461  1062.527
 462  1141.68
 463  829.0964
 464  736.3041
 465  332.4561
 466  190.5481
 467  589.8821
 468  924.931
 469  438.9907
 470  400.3629
 471  472.9131
 472  782.4664
 473  775.6837
 474  332.973
 475  1085.21
 476  1374.956
 477  834.9664
 478  408.1711
 479  318.4136
 480  911.5742
 481  88.87758
 482  -67.91615
 483  342.8427
 484  684.6406
 485  943.3762
 486  336.1983
 487  177.8401
 488  538.6701
 489  754.6895
 490  572.1725
 491  672.6544
 492  1184.357
 493  1207.063
 494  702.5168
 495  263.2878
 496  221.3112
 497  -30.46252
 498  -112.0318
 499  -286.4612
 500  -152.3197
 501  545.3698
 502  56.04944
 503  -2.779616
 504  463.083
 505  612.1971
 506  316.2533
 507  753.7036
 508  1072.076
 509  1451.855
 510  1079.287
 511  357.8543
