# Input file       =  1203170730.198393-PSRB0329-2ms-sampling-dd.dat
# Candidate        =  PSR_0332+5434
# Telescope        =  AR
# Epoch_topo       =  58169.587374981398
# Epoch_bary       =  N/A
# T_sample         =  0.002
# Data Folded      =  7340032
# Data Avg         =  -6.28674010198325e-10
# Data StdDev      =  13.2377123464666 
# Profile Bins     =  512
# Profile Avg      =  0.013119277667741
# Profile StdDev   =  1584.99149392465 
# Reduced chi-sqr  =  0.931
# Prob(Noise)      <  0.866   (~0.0 sigma)
# P_topo (ms)      =  714.580647650038  +/- 0.000161
# P'_topo (s/s)    =  -0                +/- 8.48e-11
# P''_topo (s/s^2) =  0                 +/- 3.75e-14
# P_bary (ms)      =  N/A
# P'_bary (s/s)    =  N/A
# P''_bary (s/s^2) =  N/A
# P_orb (s)        =  N/A
# asin(i)/c (s)    =  N/A
# eccentricity     =  N/A
# w (rad)          =  N/A
# T_peri           =  N/A
######################################################
   0  -286.3918
   1  -375.2605
   2  -791.1263
   3  -1369.269
   4  -1844.762
   5  -1616.501
   6  -1442.605
   7  -1043.652
   8  -1432.276
   9  -1692.787
  10  -1572.156
  11  -1685.68
  12  -1164.087
  13  -438.075
  14  -657.8903
  15  -839.6625
  16  -1388.391
  17  -1200.947
  18  -1231.048
  19  -879.6335
  20  -246.6313
  21  1015.202
  22  1079.084
  23  707.0878
  24  104.6726
  25  -961.2278
  26  -979.4042
  27  -560.0847
  28  -521.2494
  29  785.549
  30  973.2968
  31  1140.79
  32  1022.865
  33  721.2225
  34  71.0072
  35  133.4265
  36  2328.327
  37  2892.829
  38  2063.561
  39  1643.65
  40  569.6049
  41  -692.8659
  42  -868.8103
  43  -575.3758
  44  -526.3961
  45  -560.2493
  46  -875.3905
  47  -1083.041
  48  -1403.283
  49  -1281.328
  50  -691.8605
  51  -719.5549
  52  -567.7869
  53  -928.6934
  54  -1625.264
  55  -1584.269
  56  -950.903
  57  -1158.285
  58  -1521.765
  59  -1561.951
  60  -1660.24
  61  -1972.881
  62  -1800.816
  63  -1350.714
  64  -905.8468
  65  -746.7089
  66  -528.9457
  67  -363.6381
  68  -561.3087
  69  -914.2058
  70  -896.041
  71  -999.1225
  72  -62.41479
  73  -384.1931
  74  -697.7658
  75  -1041.616
  76  -808.6898
  77  -924.2811
  78  208.4158
  79  376.3486
  80  1559.103
  81  864.8807
  82  86.28524
  83  -80.00647
  84  -550.7495
  85  13.41749
  86  -426.0544
  87  -1020.086
  88  -1393.595
  89  -1781.507
  90  -1601.011
  91  -1884.647
  92  -1559.272
  93  -921.1401
  94  -1480.338
  95  -1961.168
  96  -1865.176
  97  -1505.457
  98  -1313.875
  99  -1085.787
 100  -736.1006
 101  -1072.545
 102  -1407.379
 103  -1950.595
 104  -1905.761
 105  -1622.228
 106  -744.6342
 107  730.4871
 108  1265.013
 109  908.4152
 110  400.7788
 111  703.9261
 112  420.8865
 113  1611.195
 114  652.1245
 115  1028.492
 116  -230.3055
 117  -410.1708
 118  -609.7009
 119  -1117.931
 120  -1808.992
 121  -1877.837
 122  -2109.578
 123  -1594.506
 124  -2017.545
 125  -2359.324
 126  -1815.951
 127  -1708.48
 128  -1532.833
 129  -1697.41
 130  -1869.301
 131  -1866.402
 132  -1376.247
 133  -1416.733
 134  -1206.636
 135  -1034.958
 136  -1031.976
 137  -1283.003
 138  -1218.578
 139  -864.9197
 140  -1013.373
 141  -911.3427
 142  -344.9569
 143  -315.9041
 144  -763.6235
 145  -752.6003
 146  -715.0254
 147  -672.4919
 148  -313.8149
 149  -611.3334
 150  -307.8377
 151  34.01281
 152  102.5688
 153  -325.1112
 154  -694.7546
 155  -1017.446
 156  -827.0754
 157  -651.3279
 158  -462.2571
 159  -412.5151
 160  -476.9158
 161  -829.045
 162  -529.012
 163  -931.1855
 164  -775.9061
 165  -359.1693
 166  126.7034
 167  145.1587
 168  173.4231
 169  199.231
 170  -230.2426
 171  -528.5621
 172  -833.5126
 173  -1165.17
 174  -625.0867
 175  -277.318
 176  -619.5485
 177  -598.501
 178  -56.93225
 179  -76.23141
 180  89.33937
 181  226.2191
 182  -366.0681
 183  -324.7838
 184  -86.99995
 185  339.2553
 186  1723.417
 187  1802.429
 188  2044.804
 189  796.0844
 190  22.54529
 191  -198.0207
 192  -386.8516
 193  673.063
 194  627.7653
 195  384.5172
 196  65.43902
 197  -407.5857
 198  -525.3736
 199  -299.7922
 200  -435.2741
 201  -504.3549
 202  -438.8031
 203  -565.5222
 204  -523.4327
 205  -723.4436
 206  -1121.603
 207  -1140.543
 208  -930.0339
 209  -923.9747
 210  -810.2858
 211  -379.7922
 212  -691.929
 213  -761.6471
 214  -423.1929
 215  -318.2562
 216  -707.5906
 217  -695.1158
 218  -965.6313
 219  -556.5974
 220  -606.8378
 221  -547.6702
 222  369.028
 223  397.6235
 224  1777.257
 225  1591.043
 226  1287.044
 227  1036.605
 228  -88.44244
 229  -746.6384
 230  -211.2621
 231  921.5367
 232  1748.495
 233  1986.05
 234  1263.072
 235  284.3478
 236  -650.5284
 237  -292.8409
 238  8.879354
 239  421.2453
 240  768.0241
 241  816.3765
 242  906.6069
 243  310.5197
 244  971.9837
 245  1301.446
 246  2059.812
 247  2149.498
 248  2221.057
 249  1789.861
 250  583.949
 251  858.4763
 252  1854.43
 253  2365.857
 254  2449.46
 255  1883.391
 256  1671.489
 257  855.8138
 258  1060.255
 259  1436.755
 260  1428.134
 261  1592.458
 262  1819.05
 263  1518.688
 264  402.449
 265  206.6283
 266  689.5823
 267  670.8818
 268  997.0533
 269  1135.566
 270  700.7625
 271  306.5017
 272  119.0053
 273  170.9844
 274  491.1259
 275  825.3772
 276  1472.021
 277  1263.38
 278  345.0589
 279  429.5962
 280  542.8121
 281  1108.52
 282  1071.204
 283  926.8139
 284  1053.925
 285  1505.092
 286  793.8019
 287  897.1097
 288  915.6207
 289  1011.766
 290  1112.631
 291  1450.635
 292  1523.142
 293  764.7807
 294  1200.318
 295  2028.338
 296  1550.886
 297  1343.649
 298  2206.416
 299  2261.686
 300  2127.851
 301  2264.509
 302  1472.325
 303  997.5249
 304  698.6443
 305  540.115
 306  1083.645
 307  2042.035
 308  3655.696
 309  3802.403
 310  3282.131
 311  2077.782
 312  756.3388
 313  897.1172
 314  2670.116
 315  2976.163
 316  2987.621
 317  3105.461
 318  1546.803
 319  1350.246
 320  553.2915
 321  373.2931
 322  -512.9332
 323  121.8387
 324  1447.731
 325  1760.776
 326  1543.039
 327  705.2853
 328  351.8222
 329  -140.8289
 330  -144.5984
 331  10.61619
 332  553.1227
 333  741.8342
 334  677.5004
 335  -20.65386
 336  -466.9641
 337  259.2587
 338  973.0024
 339  1294.102
 340  815.4509
 341  1044.365
 342  465.9261
 343  -84.10077
 344  -54.72817
 345  602.9823
 346  1276.679
 347  1144.708
 348  1051.33
 349  500.2209
 350  289.2636
 351  -18.02573
 352  939.3529
 353  1279.657
 354  1224.046
 355  1003.489
 356  -114.3853
 357  221.4289
 358  328.7291
 359  1119.411
 360  882.77
 361  279.2107
 362  -247.6273
 363  -693.3711
 364  -546.8864
 365  -831.7975
 366  -618.3728
 367  -117.0076
 368  -48.41703
 369  -91.91153
 370  -817.033
 371  -1361.129
 372  -960.8669
 373  -16.11296
 374  -573.3848
 375  -220.9456
 376  -316.8804
 377  -384.5847
 378  -726.2049
 379  -1434.967
 380  -763.7505
 381  -658.0136
 382  -288.9758
 383  -338.0662
 384  -185.2002
 385  -537.235
 386  -1017.665
 387  -859.8271
 388  -92.22578
 389  359.0996
 390  229.2018
 391  210.9144
 392  -474.8405
 393  -824.5715
 394  -689.5933
 395  136.2318
 396  354.7648
 397  197.8556
 398  307.9796
 399  -58.29876
 400  -306.4683
 401  456.5336
 402  1370.006
 403  3219.796
 404  3317.999
 405  2624.224
 406  1221.907
 407  322.1401
 408  369.8055
 409  95.99579
 410  277.2864
 411  51.19506
 412  -210.275
 413  -236.4953
 414  -549.581
 415  -1098.72
 416  -1387.578
 417  -1677.079
 418  -1687.606
 419  -1351.327
 420  -848.498
 421  -331.9142
 422  -268.3242
 423  -12.9299
 424  -45.77337
 425  -44.4524
 426  -255.024
 427  -473.7641
 428  -254.5448
 429  -423.1641
 430  -164.7007
 431  457.786
 432  775.991
 433  840.5263
 434  1087.985
 435  977.4977
 436  282.5992
 437  -93.35653
 438  721.8427
 439  860.5038
 440  421.5677
 441  1085.779
 442  673.4417
 443  386.923
 444  393.7241
 445  424.3432
 446  923.3718
 447  1769.668
 448  1643.298
 449  1221.142
 450  737.8282
 451  -283.848
 452  -376.3909
 453  255.6246
 454  -77.50529
 455  -233.822
 456  -271.916
 457  -125.7796
 458  -644.026
 459  -926.5578
 460  -277.733
 461  366.9156
 462  647.8763
 463  168.4163
 464  5.00183
 465  -533.4051
 466  -941.2359
 467  -946.034
 468  -223.014
 469  -136.2737
 470  -471.1943
 471  -499.3232
 472  -645.9471
 473  -784.0832
 474  -800.5951
 475  -619.5092
 476  -1102.82
 477  -581.699
 478  -489.5258
 479  -615.5203
 480  -1063.92
 481  -905.8857
 482  -716.244
 483  -1206.419
 484  -1484.042
 485  -1316.466
 486  -1164.136
 487  -1037.808
 488  -741.3686
 489  -500.8828
 490  -395.535
 491  -471.2871
 492  -198.2944
 493  -663.4537
 494  -1106.767
 495  -575.1743
 496  -395.6932
 497  -486.7446
 498  -829.595
 499  -858.2572
 500  -1088.718
 501  -1412.523
 502  -1056.645
 503  -8.627451
 504  841.728
 505  2290.094
 506  2686.823
 507  3351.544
 508  668.3411
 509  -218.454
 510  -768.3837
 511  -491.9086
