# Input file       =  1203525206.118787-PSRB0329-2ms-sampling-dd.dat
# Candidate        =  PSR_0332+5434
# Telescope        =  AR
# Epoch_topo       =  58173.690105541515
# Epoch_bary       =  N/A
# T_sample         =  0.002
# Data Folded      =  7340032
# Data Avg         =  -5.81088978966044e-10
# Data StdDev      =  11.4246355629523 
# Profile Bins     =  512
# Profile Avg      =  -0.0751283318236098
# Profile StdDev   =  1367.90630545026 
# Reduced chi-sqr  =  0.303
# Prob(Noise)      <  1   (~0.0 sigma)
# P_topo (ms)      =  714.580942577004  +/- 0.00145
# P'_topo (s/s)    =  -0                +/- 7.64e-10
# P''_topo (s/s^2) =  0                 +/- 3.37e-13
# P_bary (ms)      =  N/A
# P'_bary (s/s)    =  N/A
# P''_bary (s/s^2) =  N/A
# P_orb (s)        =  N/A
# asin(i)/c (s)    =  N/A
# eccentricity     =  N/A
# w (rad)          =  N/A
# T_peri           =  N/A
######################################################
   0  527.4954
   1  453.9166
   2  165.8178
   3  267.9337
   4  203.3502
   5  103.5747
   6  421.5778
   7  802.9199
   8  684.8026
   9  89.32742
  10  261.7213
  11  327.3575
  12  364.4559
  13  203.6868
  14  268.6798
  15  291.2232
  16  433.9331
  17  202.0613
  18  -349.7211
  19  -375.518
  20  -94.33414
  21  -89.51885
  22  72.70678
  23  215.3179
  24  790.048
  25  819.1429
  26  1065.162
  27  960.5172
  28  925.1599
  29  826.4909
  30  1124.641
  31  841.2134
  32  700.4487
  33  900.5821
  34  710.275
  35  1210.67
  36  939.9019
  37  774.1749
  38  857.5233
  39  833.6476
  40  606.9677
  41  281.7809
  42  292.582
  43  311.4085
  44  666.283
  45  674.9641
  46  1060.378
  47  1134.972
  48  804.2405
  49  1053.466
  50  891.6403
  51  742.2475
  52  796.4113
  53  867.1232
  54  1309.13
  55  1170.704
  56  974.5778
  57  820.3641
  58  754.088
  59  1271.727
  60  1608.113
  61  1817.192
  62  2216.017
  63  1504.544
  64  767.4518
  65  107.9977
  66  -142.6146
  67  -116.3586
  68  48.48569
  69  194.5492
  70  317.4247
  71  -29.1011
  72  3.02349
  73  -104.8262
  74  514.041
  75  119.8165
  76  -226.0879
  77  42.31495
  78  -144.9503
  79  -325.6404
  80  -624.5231
  81  -645.8076
  82  -505.4776
  83  -128.9293
  84  385.2206
  85  34.54198
  86  -94.27973
  87  626.6252
  88  570.8664
  89  365.6891
  90  235.5782
  91  63.71864
  92  -437.0349
  93  365.4722
  94  14.83996
  95  353.0767
  96  607.0002
  97  67.36679
  98  -104.5135
  99  -142.6648
 100  -509.0388
 101  -620.8152
 102  -145.1989
 103  94.85868
 104  21.86634
 105  -6.923588
 106  -358.4325
 107  -419.1192
 108  -765.3796
 109  -700.9259
 110  -35.37751
 111  274.0156
 112  -11.15447
 113  -376.2459
 114  -244.7104
 115  -130.5445
 116  -337.41
 117  -430.4926
 118  292.2574
 119  85.05566
 120  -302.9061
 121  -707.3162
 122  -563.7859
 123  -388.0899
 124  -324.2162
 125  -395.769
 126  -317.9986
 127  -450.2287
 128  132.2227
 129  367.1977
 130  197.3449
 131  127.3988
 132  38.0065
 133  91.25993
 134  -96.31632
 135  90.61761
 136  76.98894
 137  158.7234
 138  215.2468
 139  -259.6811
 140  -129.0421
 141  -185.0289
 142  -38.04232
 143  140.0807
 144  505.9239
 145  184.7736
 146  -358.8655
 147  -334.6363
 148  -297.3528
 149  -188.5329
 150  -241.8603
 151  230.8135
 152  194.8708
 153  177.0083
 154  218.999
 155  -164.6872
 156  104.9961
 157  -260.1368
 158  -293.9217
 159  -284.7898
 160  230.0326
 161  -137.4649
 162  -110.4103
 163  -297.7025
 164  -350.506
 165  -205.4812
 166  -477.3372
 167  -153.4389
 168  459.0461
 169  470.574
 170  382.3205
 171  -189.3274
 172  -431.948
 173  -454.1811
 174  154.0674
 175  582.0612
 176  148.206
 177  55.47972
 178  -128.6761
 179  -400.229
 180  -345.5846
 181  58.96072
 182  -343.9964
 183  -85.36313
 184  161.2867
 185  229.3997
 186  325.0012
 187  -419.2153
 188  29.42425
 189  176.4274
 190  -23.96535
 191  -53.67532
 192  -312.4898
 193  -438.6663
 194  -295.4688
 195  -551.7978
 196  -753.4053
 197  -699.2532
 198  -486.6254
 199  -308.005
 200  -91.27872
 201  123.994
 202  -73.55059
 203  -104.2736
 204  87.00972
 205  97.30077
 206  180.6411
 207  510.2609
 208  793.8885
 209  405.2387
 210  109.0354
 211  -71.9344
 212  -97.08648
 213  -345.6234
 214  -302.9451
 215  -130.1265
 216  -684.2587
 217  -222.2003
 218  46.82354
 219  -162.6326
 220  -31.64227
 221  -138.6844
 222  -164.8155
 223  -161.3795
 224  247.1402
 225  190.4798
 226  -106.2527
 227  16.67428
 228  -99.0453
 229  49.07745
 230  295.1857
 231  310.6218
 232  403.8299
 233  167.5352
 234  167.1345
 235  -36.47935
 236  -316.1318
 237  -506.1307
 238  -712.99
 239  -284.667
 240  6.642674
 241  232.9766
 242  54.15452
 243  -495.386
 244  -738.4033
 245  -1053.067
 246  -761.6258
 247  -559.8292
 248  -480.9913
 249  -219.9503
 250  101.2375
 251  -397.3806
 252  -361.9381
 253  -163.1946
 254  -738.8394
 255  -647.5406
 256  -487.799
 257  -321.7727
 258  -206.8561
 259  158.9095
 260  -325.507
 261  -855.2583
 262  -569.6959
 263  -539.6521
 264  -342.2912
 265  -312.1588
 266  -191.6922
 267  -498.6326
 268  -964.2872
 269  -646.2899
 270  -538.1411
 271  -556.0853
 272  -554.6357
 273  -540.0775
 274  -576.0432
 275  -577.2729
 276  -737.8453
 277  -923.4975
 278  -820.7652
 279  -794.6302
 280  -841.2236
 281  -485.4148
 282  -580.3618
 283  -621.595
 284  -598.6547
 285  -489.6572
 286  -558.7915
 287  -192.4776
 288  203.8479
 289  75.80962
 290  -140.6148
 291  -399.3286
 292  -507.271
 293  -619.2084
 294  -744.9869
 295  -1213.156
 296  -955.257
 297  -842.1223
 298  -396.2997
 299  -442.5683
 300  -557.16
 301  -207.9893
 302  -108.1693
 303  -367.7152
 304  -233.9121
 305  -26.85809
 306  260.835
 307  291.6443
 308  229.4523
 309  208.5312
 310  393.6967
 311  343.7651
 312  -210.3892
 313  45.81756
 314  42.18766
 315  260.7644
 316  203.8489
 317  125.6569
 318  65.6434
 319  -145.0032
 320  -214.8275
 321  -290.5183
 322  -109.8237
 323  208.2911
 324  433.7433
 325  517.9689
 326  487.6605
 327  35.70088
 328  -525.8831
 329  -610.4033
 330  -560.1833
 331  -80.88063
 332  -340.7448
 333  -323.8687
 334  -543.2781
 335  -692.4242
 336  -732.9537
 337  -637.0321
 338  -628.3979
 339  -396.132
 340  -220.6937
 341  -548.782
 342  -308.1217
 343  -113.2065
 344  -555.6369
 345  -1133.693
 346  -819.3384
 347  -427.0933
 348  -467.587
 349  -579.6387
 350  -565.7734
 351  -875.7059
 352  -1023.012
 353  -949.0152
 354  -665.7884
 355  -419.4871
 356  -165.928
 357  161.9705
 358  -127.6602
 359  12.72466
 360  200.83
 361  -38.21885
 362  -241.1281
 363  193.0177
 364  214.1958
 365  250.9039
 366  340.1775
 367  255.0474
 368  150.1708
 369  -25.88238
 370  244.0481
 371  413.7716
 372  563.5499
 373  511.9531
 374  294.2073
 375  312.9859
 376  567.2506
 377  880.5677
 378  1012.703
 379  717.7258
 380  363.6547
 381  150.4177
 382  507.5215
 383  506.327
 384  387.2156
 385  79.21104
 386  146.8272
 387  5.421143
 388  -349.7802
 389  -344.0479
 390  -222.0716
 391  -436.418
 392  -319.5836
 393  541.9158
 394  1048.903
 395  1417.81
 396  1283.176
 397  1043.691
 398  240.1007
 399  71.98436
 400  857.9421
 401  1481.515
 402  1460.052
 403  1269.947
 404  1014.035
 405  164.7647
 406  366.2124
 407  723.2621
 408  729.2794
 409  552.9843
 410  -186.8105
 411  -315.6615
 412  58.96856
 413  232.9396
 414  277.8397
 415  385.2567
 416  118.7047
 417  73.42283
 418  -283.2225
 419  -241.5382
 420  23.96996
 421  21.55982
 422  321.2107
 423  293.2812
 424  95.40342
 425  84.88627
 426  -108.0468
 427  85.45252
 428  -347.8689
 429  -532.8486
 430  -266.2061
 431  -258.0206
 432  -491.458
 433  -307.7313
 434  -255.9814
 435  -169.2878
 436  -223.8144
 437  -102.666
 438  -154.534
 439  -346.7807
 440  -748.2157
 441  -638.6389
 442  -363.1939
 443  -426.7108
 444  -704.5374
 445  -736.4419
 446  -1054.502
 447  -832.7092
 448  -867.8749
 449  -805.0275
 450  -834.7254
 451  -844.8693
 452  -758.6166
 453  -639.4874
 454  -640.9248
 455  -556.447
 456  -408.0782
 457  -355.075
 458  -495.6871
 459  -474.4669
 460  -773.0983
 461  -771.6062
 462  -770.7474
 463  -725.2624
 464  -471.7528
 465  -636.5707
 466  -824.299
 467  -646.706
 468  -609.7955
 469  -788.9535
 470  -537.673
 471  -366.5735
 472  -1057.16
 473  -956.7312
 474  -584.8608
 475  -232.1248
 476  -215.1547
 477  -99.09452
 478  -127.8544
 479  -549.5364
 480  -740.2625
 481  -674.3184
 482  -396.1728
 483  127.4907
 484  -132.7231
 485  221.8391
 486  164.8903
 487  361.1204
 488  199.9779
 489  451.8185
 490  910.6149
 491  870.9304
 492  1213.901
 493  1144.787
 494  737.2943
 495  785.6775
 496  1197.672
 497  1203.991
 498  1010.371
 499  796.036
 500  793.5107
 501  879.0245
 502  749.362
 503  681.5054
 504  532.1235
 505  597.9436
 506  626.0321
 507  963.2659
 508  818.1411
 509  587.4734
 510  249.4384
 511  288.3031
