# Input file       =  1203429282.104877-PSRB0329-2ms-sampling-dd.dat
# Candidate        =  PSR_0332+5434
# Telescope        =  AR
# Epoch_topo       =  58172.579873899042
# Epoch_bary       =  N/A
# T_sample         =  0.002
# Data Folded      =  7340032
# Data Avg         =  -1.45496715791418e-09
# Data StdDev      =  56.555237172287  
# Profile Bins     =  512
# Profile Avg      =  0.158503568712654
# Profile StdDev   =  6771.53026964608 
# Reduced chi-sqr  =  1.251
# Prob(Noise)      <  9.27e-05   (~3.7 sigma)
# P_topo (ms)      =  714.580743981209  +/- 0.00031
# P'_topo (s/s)    =  -0                +/- 1.63e-10
# P''_topo (s/s^2) =  0                 +/- 7.22e-14
# P_bary (ms)      =  N/A
# P'_bary (s/s)    =  N/A
# P''_bary (s/s^2) =  N/A
# P_orb (s)        =  N/A
# asin(i)/c (s)    =  N/A
# eccentricity     =  N/A
# w (rad)          =  N/A
# T_peri           =  N/A
######################################################
   0  -2792.083
   1  -2608.896
   2  -3205.722
   3  -3632.365
   4  -3338.953
   5  -2085.598
   6  -1896.244
   7  -2188.469
   8  -3074.873
   9  -5010.104
  10  -5185.034
  11  -4231.666
  12  -1875.186
  13  -1920.921
  14  -2509.191
  15  -2106.005
  16  -2556.632
  17  -1485.452
  18  438.429
  19  2746.303
  20  2217.529
  21  2647.53
  22  2656.563
  23  -55.75043
  24  -1398.035
  25  -1699.527
  26  -1604.675
  27  -2417.651
  28  -3291.185
  29  -2124.167
  30  -1202.996
  31  -775.4213
  32  -1315.113
  33  -901.8183
  34  -1565.967
  35  -1665.558
  36  -1225.334
  37  -1057.102
  38  -2853.871
  39  -2633.267
  40  -2887.797
  41  -2905.534
  42  -2940.746
  43  -2539.497
  44  -2214.132
  45  -2370.165
  46  -2693.759
  47  -2607.272
  48  -861.6343
  49  1378.827
  50  1615.596
  51  1279.491
  52  -247.6266
  53  -1055.302
  54  -1690.641
  55  -739.434
  56  -941.7224
  57  -1732.194
  58  -2095.221
  59  -1929.729
  60  -2006.972
  61  -2506.062
  62  -1672.551
  63  -1448.686
  64  -968.6409
  65  -1256.431
  66  -2433.603
  67  -2303.666
  68  -2372.112
  69  -1943.098
  70  -2315.828
  71  -1605.285
  72  -1813.811
  73  -2307.739
  74  -2507.054
  75  -2638.188
  76  -1931.654
  77  -1834.24
  78  -1381.289
  79  -1287.408
  80  -2006.361
  81  -2537.082
  82  -2646.907
  83  -2193.222
  84  -1027.941
  85  -399.7089
  86  86.71341
  87  642.9467
  88  1149.592
  89  1252.124
  90  1120.344
  91  1966.651
  92  2944.846
  93  2476.995
  94  2862.268
  95  1828.533
  96  1001.514
  97  775.1211
  98  547.6337
  99  -47.66288
 100  -494.6685
 101  -697.2559
 102  -961.5179
 103  -1250.807
 104  -457.3246
 105  1892.631
 106  2605.048
 107  2672.402
 108  1729.981
 109  600.1085
 110  386.6404
 111  883.4648
 112  2039.145
 113  2432.37
 114  2693.86
 115  3349.385
 116  3229.016
 117  3615.635
 118  3077.51
 119  3662.407
 120  4383.811
 121  4533.666
 122  4263.708
 123  3821.184
 124  3455.473
 125  2983.958
 126  2680.62
 127  2480.985
 128  1897.292
 129  1116.26
 130  847.1632
 131  478.5827
 132  1167.252
 133  1054.889
 134  1108.932
 135  1157.24
 136  7.882055
 137  -202.3698
 138  211.3921
 139  632.4249
 140  370.1677
 141  395.4871
 142  -252.1278
 143  -1091.553
 144  -1430.312
 145  -1464.067
 146  -1836.854
 147  -1069.622
 148  -368.912
 149  -366.0075
 150  -624.5051
 151  -568.2689
 152  -920.4991
 153  -1042.56
 154  -600.3151
 155  -246.4383
 156  -512.2634
 157  -294.9953
 158  0.1778766
 159  129.5436
 160  2056.228
 161  2314.372
 162  2414.897
 163  1973.714
 164  1853.939
 165  1783.242
 166  1865.647
 167  1656.659
 168  1113.601
 169  168.2817
 170  308.7993
 171  -381.3394
 172  84.52565
 173  1510.97
 174  2284.526
 175  2354.271
 176  2431.186
 177  1743.914
 178  1522.045
 179  1494.81
 180  2069.528
 181  858.5063
 182  286.919
 183  116.2138
 184  -408.9163
 185  -104.0847
 186  694.2238
 187  1228.974
 188  1215.104
 189  1437.422
 190  1326.912
 191  1200.612
 192  1907.951
 193  2459.165
 194  2324.152
 195  2263.479
 196  1675.721
 197  623.8209
 198  133.0074
 199  791.816
 200  276.3894
 201  637.1774
 202  1170.336
 203  2391.018
 204  1894.896
 205  1606.007
 206  1041.065
 207  713.485
 208  535.3455
 209  1038.969
 210  761.5634
 211  202.1595
 212  -192.834
 213  -93.67006
 214  -766.4889
 215  -1087.22
 216  -195.5634
 217  3186.315
 218  6251.512
 219  8818.755
 220  9848.915
 221  7832.017
 222  5386.302
 223  3168.965
 224  2459.499
 225  1958.635
 226  1759.13
 227  1187.483
 228  495.915
 229  -379.3831
 230  -622.6465
 231  -865.914
 232  -1181.77
 233  -1343.705
 234  -1111.326
 235  -1103.31
 236  885.4413
 237  2056.337
 238  3280.836
 239  1445.399
 240  71.97057
 241  -323.3399
 242  -706.2806
 243  321.9033
 244  376.8259
 245  33.38565
 246  640.0643
 247  196.5755
 248  -341.4301
 249  -953.7043
 250  -985.5976
 251  -317.2231
 252  -104.0514
 253  -70.26161
 254  -1059.669
 255  -1112.936
 256  -1701.084
 257  -1679.833
 258  -1474.001
 259  -1162.168
 260  -1655.851
 261  -1630.78
 262  -1657.274
 263  -1565.906
 264  -1265.537
 265  -1723.096
 266  -1052.682
 267  -185.4856
 268  549.1859
 269  765.1336
 270  -509.9605
 271  -1657.047
 272  -2832.101
 273  -1673.703
 274  -672.5923
 275  212.8956
 276  229.2879
 277  -849.3322
 278  -2247.386
 279  -2877.575
 280  -2473.396
 281  -2523.284
 282  -2116.941
 283  -2214.714
 284  -2546.919
 285  -2451.07
 286  -3486.782
 287  -1454.724
 288  5935.864
 289  26689.08
 290  32280.34
 291  32465.75
 292  22994.44
 293  12530.94
 294  2242.505
 295  4766.3
 296  6898.395
 297  6504.473
 298  1276.286
 299  1318.04
 300  -91.83398
 301  -1733.369
 302  -1457.464
 303  -952.9448
 304  -1714.616
 305  -1663.678
 306  -1618.946
 307  -1832.288
 308  -1808.871
 309  -1066.869
 310  -1221.836
 311  -1226.479
 312  -1408.061
 313  -960.049
 314  -244.7268
 315  -1659.082
 316  -895.1252
 317  -24.62371
 318  -264.3988
 319  -98.44621
 320  2104.5
 321  6618.551
 322  9881.167
 323  14759.32
 324  12639.83
 325  8337.926
 326  4420.985
 327  610.1897
 328  -872.861
 329  -792.2366
 330  1366.164
 331  -864.9182
 332  -1638.37
 333  -2180.588
 334  -3289.653
 335  -4717.593
 336  -4662.547
 337  -4345.826
 338  -3621.125
 339  -3235.302
 340  -2963.388
 341  -3304.736
 342  -3171.396
 343  -3116.357
 344  -2240.36
 345  -1861.668
 346  -1377.406
 347  -662.1862
 348  -264.6746
 349  -1384.103
 350  -1776.687
 351  -2282.992
 352  -2193.823
 353  -2798.96
 354  -3428.765
 355  -3630.22
 356  -3611.968
 357  -3746.353
 358  -4032.623
 359  -3066.042
 360  -2435.348
 361  -1640.665
 362  -2363.728
 363  -2782.197
 364  -3232.118
 365  -3419.677
 366  -2543.857
 367  -1521.88
 368  -1006.511
 369  -769.2646
 370  -1056.014
 371  -2069.644
 372  -2984.237
 373  -2420.38
 374  -1020.794
 375  -170.3812
 376  -399.0695
 377  -1163.955
 378  -2066.899
 379  -2505.458
 380  -1775.796
 381  -349.6224
 382  290.3465
 383  1100.998
 384  948.736
 385  75.90385
 386  -1283.499
 387  -1614.202
 388  -128.5685
 389  502.1442
 390  835.553
 391  926.1245
 392  -263.646
 393  -486.4008
 394  -755.5067
 395  -496.1229
 396  -1408.254
 397  -1531.693
 398  -1234.388
 399  -1628.034
 400  -1836.864
 401  -2533.61
 402  -1564.092
 403  -1647.213
 404  -2024.68
 405  -2081.03
 406  -3153.914
 407  -3829.804
 408  -3997.085
 409  -3247.855
 410  -3261.39
 411  -3592.232
 412  -4313.823
 413  -4537.514
 414  -4634.492
 415  -5073.525
 416  -3910.696
 417  -3304.558
 418  -2088.316
 419  -2663.573
 420  -3288.037
 421  -4558.845
 422  -6051.103
 423  -5896.445
 424  -5606.734
 425  -5878.372
 426  -5591.127
 427  -5609.845
 428  -5310.129
 429  -6029.576
 430  -5642.722
 431  -4961.991
 432  -3483.557
 433  -2855.76
 434  -2505.508
 435  -3572.437
 436  -4398.925
 437  -4439.745
 438  -4115.02
 439  -3492.264
 440  -3611.23
 441  -3721.256
 442  -4215.04
 443  -3905.006
 444  -3623.224
 445  -2155.377
 446  -948.0724
 447  496.6094
 448  257.6342
 449  -774.6801
 450  -1963.559
 451  -3590.948
 452  -2898.299
 453  -2563.956
 454  -1997.179
 455  -2371.387
 456  -3078.178
 457  -4244.969
 458  -5168.297
 459  -3790.243
 460  -2443.423
 461  -1516.065
 462  -1835.25
 463  -2771.594
 464  -3611.093
 465  -3799.232
 466  -3908.852
 467  -3332.301
 468  -4287.286
 469  -4239.343
 470  -3633.659
 471  -3817.208
 472  -3811.302
 473  -2243.533
 474  -402.6973
 475  265.6059
 476  -267.1357
 477  -2081.834
 478  -3315.485
 479  -2291.023
 480  -1186.721
 481  14631.75
 482  30013.59
 483  52519.2
 484  45171.39
 485  36491.74
 486  27846.76
 487  -856.6124
 488  6563.493
 489  11934.05
 490  13029.48
 491  6508.427
 492  2715.036
 493  1802.826
 494  -2408.291
 495  -2556.382
 496  -2918.92
 497  -3766.609
 498  -3605.919
 499  -3316.774
 500  -3192.421
 501  -3527.979
 502  -2289.095
 503  -1616.627
 504  -1093.25
 505  -1103.542
 506  -1310.294
 507  -2950.597
 508  -2664.995
 509  -1809.184
 510  -1800.952
 511  -2767.163
