# Input file       =  1203586598.108145_cleaned.dat
# Candidate        =  PSR_0332+5434
# Telescope        =  AR
# Epoch_topo       =  58174.400660973901
# Epoch_bary       =  N/A
# T_sample         =  0.002
# Data Folded      =  7405568
# Data Avg         =  0.0355023110740761
# Data StdDev      =  5.62223199960659 
# Profile Bins     =  512
# Profile Avg      =  513.472829424099 
# Profile StdDev   =  676.165439664464 
# Reduced chi-sqr  =  1.033
# Prob(Noise)      <  0.292   (~0.5 sigma)
# P_topo (ms)      =  714.580703116017  +/- 3.5e-05
# P'_topo (s/s)    =  -0                +/- 1.83e-11
# P''_topo (s/s^2) =  0                 +/- 8.02e-15
# P_bary (ms)      =  N/A
# P'_bary (s/s)    =  N/A
# P''_bary (s/s^2) =  N/A
# P_orb (s)        =  N/A
# asin(i)/c (s)    =  N/A
# eccentricity     =  N/A
# w (rad)          =  N/A
# T_peri           =  N/A
######################################################
   0  251.659
   1  477.2724
   2  490.6445
   3  193.6678
   4  399.9224
   5  639.268
   6  1040.312
   7  1157.692
   8  548.9586
   9  -151.1358
  10  -240.4323
  11  201.6158
  12  -182.8311
  13  -143.1451
  14  355.9007
  15  430.8735
  16  -174.5339
  17  -219.2363
  18  358.1353
  19  642.8309
  20  89.48869
  21  201.5072
  22  793.6091
  23  1226.418
  24  1288.353
  25  536.2626
  26  444.1466
  27  520.7963
  28  484.3911
  29  -75.05663
  30  -441.4061
  31  744.6953
  32  845.8677
  33  341.6618
  34  664.6492
  35  967.6174
  36  1019.723
  37  821.4493
  38  845.0379
  39  1494.128
  40  1326.767
  41  1112.405
  42  903.3882
  43  696.9327
  44  819.583
  45  -117.6959
  46  100.1403
  47  1281.968
  48  1133.482
  49  469.3029
  50  61.69523
  51  429.637
  52  623.2716
  53  875.2156
  54  1216.003
  55  1522.176
  56  1327.87
  57  666.2109
  58  69.37724
  59  161.9034
  60  596.4518
  61  900.8712
  62  470.1987
  63  563.1832
  64  798.652
  65  666.7422
  66  268.8411
  67  75.15566
  68  1230.304
  69  1596.065
  70  1347.698
  71  1380.33
  72  1283.815
  73  1396.303
  74  981.5671
  75  565.8047
  76  710.9482
  77  757.6851
  78  498.3045
  79  443.5893
  80  748.0248
  81  579.4269
  82  608.7125
  83  410.2595
  84  474.7316
  85  1003.478
  86  1225.458
  87  946.3412
  88  1130.647
  89  1356.199
  90  1112.592
  91  208.4225
  92  156.8734
  93  679.8136
  94  1172.199
  95  682.0673
  96  412.9199
  97  578.8494
  98  673.2865
  99  380.4582
 100  379.2884
 101  856.1343
 102  710.1971
 103  954.1914
 104  1111.662
 105  1363.062
 106  1669.043
 107  1232.214
 108  728.0057
 109  883.0087
 110  848.3286
 111  268.9839
 112  -228.0432
 113  555.7962
 114  1001.521
 115  714.5598
 116  664.144
 117  887.6194
 118  1149.485
 119  1046.508
 120  747.1668
 121  1011.895
 122  1475.141
 123  1344.883
 124  664.0381
 125  496.9158
 126  805.4167
 127  825.3336
 128  176.3047
 129  68.7346
 130  1028.815
 131  994.9886
 132  277.6249
 133  54.69922
 134  578.0573
 135  528.3984
 136  716.9033
 137  1495.895
 138  2031.205
 139  1473.854
 140  1379.722
 141  649.4945
 142  255.9182
 143  609.7371
 144  538.8848
 145  432.1989
 146  836.394
 147  1059.898
 148  477.4323
 149  371.4426
 150  456.3078
 151  1161.171
 152  1113.665
 153  995.2391
 154  1180.887
 155  1415.97
 156  1395.954
 157  1211.304
 158  803.1448
 159  969.8576
 160  946.0373
 161  640.5544
 162  198.0935
 163  636.138
 164  581.1624
 165  280.8097
 166  445.1344
 167  626.1009
 168  780.3502
 169  992.74
 170  1161.187
 171  923.8979
 172  880.157
 173  1128.249
 174  428.6786
 175  706.1447
 176  649.9601
 177  240.8995
 178  -246.8458
 179  -13.45684
 180  342.7116
 181  324.5612
 182  -52.47907
 183  389.2385
 184  1064.275
 185  767.3693
 186  524.9881
 187  980.5295
 188  1532.433
 189  1287.528
 190  590.0494
 191  549.3317
 192  766.3082
 193  163.0331
 194  -170.9932
 195  43.12738
 196  607.1169
 197  735.3045
 198  270.1465
 199  234.6086
 200  464.7762
 201  404.3245
 202  446.1927
 203  542.1157
 204  803.896
 205  1066.795
 206  781.2609
 207  278.3551
 208  248.8243
 209  36.94558
 210  317.119
 211  221.3994
 212  218.3278
 213  211.1604
 214  335.4526
 215  62.06642
 216  -51.54382
 217  471.7976
 218  582.9239
 219  1069.954
 220  1485.862
 221  1444.509
 222  879.7468
 223  266.2957
 224  6.732057
 225  373.6491
 226  650.2958
 227  -25.03208
 228  -234.7899
 229  295.3896
 230  694.7237
 231  0.0454843
 232  128.7221
 233  471.5181
 234  299.8274
 235  466.6826
 236  707.6746
 237  844.8903
 238  964.8442
 239  251.9069
 240  138.1264
 241  298.7952
 242  116.0663
 243  -42.22678
 244  -180.3343
 245  189.2191
 246  513.4568
 247  447.5762
 248  -149.0714
 249  97.83434
 250  358.8571
 251  241.1387
 252  108.78
 253  680.0982
 254  1201.593
 255  990.6436
 256  561.8203
 257  359.6356
 258  546.2374
 259  25.36154
 260  -268.9132
 261  -195.2183
 262  115.8162
 263  337.3529
 264  -275.8825
 265  -235.3281
 266  644.9194
 267  786.6651
 268  599.08
 269  7.50159
 270  260.6751
 271  653.0621
 272  435.1501
 273  141.0977
 274  -43.83134
 275  48.95339
 276  -20.89789
 277  -520.3437
 278  -265.7914
 279  809.6655
 280  373.6809
 281  -239.6571
 282  -129.8171
 283  481.6996
 284  574.0355
 285  48.18454
 286  722.4362
 287  1269.261
 288  1076.024
 289  479.2919
 290  91.59728
 291  277.0435
 292  -43.62621
 293  -210.2349
 294  -326.7406
 295  484.3105
 296  717.0796
 297  558.0526
 298  592.6001
 299  1331.485
 300  1640.957
 301  1067.623
 302  1212.343
 303  1903.9
 304  2568.67
 305  2428.72
 306  1949.135
 307  1677.026
 308  1317.896
 309  539.2445
 310  46.85457
 311  648.337
 312  781.7696
 313  210.5987
 314  315.8461
 315  387.1754
 316  622.5167
 317  794.2716
 318  1167.515
 319  1454.646
 320  1458.156
 321  1366.225
 322  1077.147
 323  1145.81
 324  808.5688
 325  712.3123
 326  311.3346
 327  191.3988
 328  639.961
 329  906.4052
 330  389.0181
 331  415.5657
 332  490.325
 333  815.0816
 334  714.77
 335  389.3798
 336  1128.593
 337  1341.031
 338  799.9037
 339  380.6993
 340  362.2999
 341  897.6347
 342  3.641424
 343  -31.86522
 344  374.254
 345  722.2378
 346  921.309
 347  258.5011
 348  234.7863
 349  587.6526
 350  739.8497
 351  581.4734
 352  677.9757
 353  1219.589
 354  1177.956
 355  660.838
 356  236.0293
 357  217.0191
 358  -57.22255
 359  -140.3488
 360  -272.7228
 361  -107.1485
 362  570.9229
 363  -21.71109
 364  45.57891
 365  517.0427
 366  565.2964
 367  368.7497
 368  736.9406
 369  1115.153
 370  1464.506
 371  1012.949
 372  357.9564
 373  767.6027
 374  559.0321
 375  372.1805
 376  -235.9175
 377  -627.8026
 378  226.2733
 379  204.9464
 380  -228.8596
 381  123.928
 382  330.8033
 383  665.4542
 384  386.0139
 385  863.7039
 386  892.9384
 387  829.2611
 388  497.4947
 389  260.0335
 390  708.8337
 391  648.8411
 392  113.1761
 393  -451.316
 394  28.96206
 395  284.472
 396  -111.0685
 397  -24.99236
 398  293.1549
 399  784.8201
 400  764.0978
 401  944.8058
 402  1056.375
 403  1071.931
 404  929.2463
 405  532.6575
 406  280.2676
 407  280.6409
 408  280.4562
 409  -288.0071
 410  67.67667
 411  762.3734
 412  468.7889
 413  -99.47248
 414  -143.7134
 415  333.3208
 416  76.82185
 417  510.7061
 418  891.1574
 419  893.6932
 420  1151.466
 421  595.7173
 422  340.5457
 423  395.7405
 424  721.2177
 425  185.7076
 426  -427.4935
 427  56.00321
 428  387.221
 429  -106.7811
 430  -340.1619
 431  -173.5117
 432  527.0636
 433  150.2403
 434  193.2375
 435  712.7535
 436  1248.117
 437  670.212
 438  -39.74834
 439  -312.5928
 440  4.602101
 441  -195.1609
 442  -303.1791
 443  419.7448
 444  530.2202
 445  25.31617
 446  -141.0846
 447  215.812
 448  561.1805
 449  894.0443
 450  306.6101
 451  412.956
 452  580.4385
 453  553.8854
 454  233.0757
 455  110.3621
 456  516.9084
 457  275.9654
 458  146.3642
 459  -164.9703
 460  -107.4049
 461  494.9427
 462  265.3361
 463  -500.5547
 464  333.2137
 465  484.1618
 466  203.0217
 467  295.785
 468  551.8941
 469  817.1959
 470  352.221
 471  -28.30357
 472  -7.511266
 473  111.3283
 474  131.2589
 475  -343.1591
 476  -323.6648
 477  41.14652
 478  -61.22324
 479  -605.3754
 480  -129.3739
 481  478.9522
 482  266.043
 483  -170.2923
 484  131.4007
 485  760.4132
 486  439.2063
 487  -185.7729
 488  -392.1718
 489  256.9157
 490  232.1875
 491  -76.86497
 492  -328.4742
 493  -4.362662
 494  309.9341
 495  -372.4993
 496  -692.7576
 497  -193.1643
 498  71.96066
 499  -57.14062
 500  241.399
 501  673.0964
 502  1090.185
 503  656.1445
 504  -22.2311
 505  -159.6955
 506  410.1863
 507  275.6887
 508  -232.9036
 509  -265.0784
 510  42.17275
 511  217.8351
