# Input file       =  1203525206.118787_cleaned.dat
# Candidate        =  PSR_0332+5434
# Telescope        =  AR
# Epoch_topo       =  58173.690105541515
# Epoch_bary       =  N/A
# T_sample         =  0.002
# Data Folded      =  7340032
# Data Avg         =  0.520909686641451
# Data StdDev      =  8.88271756368994 
# Profile Bins     =  1024
# Profile Avg      =  3733.8566970356  
# Profile StdDev   =  752.046772478372 
# Reduced chi-sqr  =  0.492
# Prob(Noise)      <  1   (~0.0 sigma)
# P_topo (ms)      =  714.580942577004  +/- 0.000497
# P'_topo (s/s)    =  -0                +/- 2.62e-10
# P''_topo (s/s^2) =  0                 +/- 1.16e-13
# P_bary (ms)      =  N/A
# P'_bary (s/s)    =  N/A
# P''_bary (s/s^2) =  N/A
# P_orb (s)        =  N/A
# asin(i)/c (s)    =  N/A
# eccentricity     =  N/A
# w (rad)          =  N/A
# T_peri           =  N/A
######################################################
   0  3266.726
   1  3210.953
   2  3210.347
   3  3400.259
   4  3415.525
   5  3358.54
   6  3363.293
   7  3345.864
   8  3356.096
   9  3409.879
  10  3436.138
  11  3323.139
  12  3366.116
  13  3378.949
  14  3362.394
  15  3412.438
  16  3403.546
  17  3358.895
  18  3351.422
  19  3467.779
  20  3444.256
  21  3353.623
  22  3368.915
  23  3404.099
  24  3338.969
  25  3270.459
  26  3347.718
  27  3531.59
  28  3392.628
  29  3248.952
  30  3103.843
  31  3253.24
  32  3164.507
  33  3171.72
  34  3204.393
  35  3257.623
  36  3271.47
  37  3198.439
  38  3246.058
  39  3346.243
  40  3506.409
  41  3586.382
  42  3532.455
  43  3634.19
  44  3591.012
  45  3539.351
  46  3434
  47  3379.493
  48  3335.154
  49  3416.158
  50  3406.585
  51  3483.153
  52  3399.841
  53  3259.39
  54  3225.106
  55  3249.677
  56  3383.814
  57  3505.674
  58  3513.001
  59  3451.751
  60  3565.477
  61  3646.064
  62  3635.437
  63  3530.722
  64  3499.713
  65  3608.194
  66  3719.032
  67  3720.394
  68  3675.914
  69  3690.688
  70  3635.205
  71  3697.353
  72  3610.463
  73  3844.632
  74  3837.929
  75  3842.073
  76  3920.63
  77  3949.826
  78  3855.551
  79  3857.877
  80  3816.127
  81  3911.169
  82  3884.287
  83  4008.426
  84  3969.503
  85  3988.343
  86  4022.573
  87  4014.214
  88  3872.857
  89  3916.992
  90  3996.437
  91  4118.906
  92  4069.933
  93  3884.879
  94  3758.564
  95  3752.739
  96  3675.709
  97  3612.057
  98  3546.41
  99  3637.602
 100  3826.49
 101  3724.42
 102  3577.955
 103  3607.485
 104  3659.357
 105  3680.838
 106  3555.55
 107  3632.749
 108  3605.159
 109  3700.884
 110  3641.493
 111  3821.472
 112  4086.067
 113  3963.463
 114  3931.508
 115  3973.723
 116  4099.139
 117  3932.484
 118  3773.865
 119  3652.948
 120  3596.234
 121  3338.002
 122  3368.729
 123  3332.505
 124  3419.9
 125  3347.665
 126  3463.327
 127  3461.932
 128  3406.723
 129  3424.227
 130  3467.122
 131  3468.606
 132  3304.096
 133  3316.252
 134  3367.428
 135  3211.486
 136  3151.085
 137  3188.045
 138  3250.718
 139  3293.584
 140  3260.62
 141  3412.328
 142  3358.097
 143  3407.068
 144  3456.2
 145  3516.284
 146  3422.362
 147  3353.614
 148  3518.571
 149  3516.856
 150  3618.048
 151  3621.42
 152  3688.977
 153  3510.327
 154  3300.844
 155  3320.951
 156  3356.102
 157  3454.959
 158  3501.578
 159  3576.049
 160  3602.258
 161  3520.094
 162  3492.571
 163  3495.877
 164  3591.789
 165  3532.11
 166  3407.096
 167  3309.204
 168  3222.824
 169  3234.264
 170  3342.512
 171  3315.984
 172  3280.287
 173  3366.696
 174  3502.998
 175  3399.35
 176  3455.059
 177  3577.783
 178  3690.854
 179  3648.417
 180  3630.444
 181  3451.518
 182  3544.332
 183  3603.752
 184  3714.914
 185  3716.033
 186  3714.869
 187  3552.163
 188  3544.475
 189  3576.791
 190  3610.243
 191  3846.776
 192  3819.769
 193  3786.454
 194  3729.768
 195  3805.352
 196  3872.629
 197  3914.392
 198  3911.376
 199  4049.1
 200  3984.794
 201  3910.631
 202  3787.929
 203  3765.315
 204  3852.419
 205  3872.538
 206  3853.373
 207  3863.346
 208  3872.007
 209  4008.871
 210  4108.323
 211  4035.778
 212  3991.686
 213  3944.941
 214  3960.645
 215  4020.142
 216  4101.605
 217  4215.987
 218  4244.208
 219  4257.233
 220  4322.119
 221  4363.602
 222  4273.962
 223  4077.8
 224  4021.272
 225  3796.063
 226  3777.931
 227  3759.465
 228  4022.24
 229  4139.481
 230  4177.968
 231  4204.711
 232  4150.936
 233  4018.79
 234  3967.433
 235  3979.574
 236  3932.235
 237  3877.558
 238  3908.146
 239  3915.553
 240  3780.597
 241  3792.325
 242  3774.507
 243  3876.615
 244  3910.505
 245  3955.657
 246  3896.827
 247  3831.876
 248  3948.063
 249  4056.48
 250  4169.36
 251  4174.565
 252  4180.012
 253  4189.791
 254  4042.929
 255  4043.559
 256  4024.112
 257  3989.481
 258  3894.403
 259  3877.533
 260  3850.94
 261  3693.91
 262  3782.622
 263  3894.059
 264  4127.191
 265  4130.221
 266  4087.671
 267  4088.145
 268  4084.37
 269  3989.149
 270  4049.977
 271  4052.287
 272  4068.027
 273  3986.719
 274  3863.086
 275  3856.754
 276  3956.292
 277  4076.015
 278  4086.178
 279  4099.351
 280  4006.707
 281  4095.223
 282  4094.967
 283  3983.05
 284  3821.259
 285  3736.819
 286  3686.872
 287  3744.529
 288  3785.49
 289  4026.933
 290  4085.282
 291  4037.593
 292  4022.693
 293  4126.824
 294  4237.522
 295  4207.363
 296  4046.757
 297  4107.712
 298  4130.918
 299  4055.633
 300  3936.78
 301  3826.144
 302  3847.583
 303  3831.02
 304  3982.468
 305  3919.421
 306  3789.8
 307  3736.55
 308  3898.263
 309  3969.67
 310  3752.615
 311  3806.285
 312  3751.084
 313  3833.621
 314  3865.722
 315  3790.623
 316  3723.483
 317  3651.792
 318  3652.456
 319  3660.927
 320  3496.301
 321  3480.746
 322  3361.602
 323  3479.318
 324  3558
 325  3575.652
 326  3576.251
 327  3594.812
 328  3542.353
 329  3427.762
 330  3520.374
 331  3613.804
 332  3651.788
 333  3553.742
 334  3523.611
 335  3635.426
 336  3662.426
 337  3696.547
 338  3736.874
 339  3829.8
 340  3796.655
 341  3706.717
 342  3603.042
 343  3532.613
 344  3440.22
 345  3429.966
 346  3495.484
 347  3487.959
 348  3577.459
 349  3598.47
 350  3634.032
 351  3559.529
 352  3373.178
 353  3378.993
 354  3459.459
 355  3435.513
 356  3258.793
 357  3309.969
 358  3521.376
 359  3564.384
 360  3446.799
 361  3471.009
 362  3550.407
 363  3470.729
 364  3524.515
 365  3622.197
 366  3634.583
 367  3573.67
 368  3632.633
 369  3693.472
 370  3611.71
 371  3584.318
 372  3581.527
 373  3682.259
 374  3748.886
 375  3813.3
 376  3910.862
 377  3923.904
 378  3935.919
 379  3843.27
 380  3785.646
 381  3823.28
 382  3889.513
 383  3721.442
 384  3726.191
 385  3655.482
 386  3701.89
 387  3744.869
 388  3646.732
 389  3540.416
 390  3508.959
 391  3543.16
 392  3705.593
 393  3702.781
 394  3690.13
 395  3747.575
 396  3663.776
 397  3644.29
 398  3634.265
 399  3668.792
 400  3741.771
 401  3595.593
 402  3505.305
 403  3522.01
 404  3671.47
 405  3748.055
 406  3707.129
 407  3604.894
 408  3404.351
 409  3440.832
 410  3503.012
 411  3627.69
 412  3670.214
 413  3666.03
 414  3772.002
 415  3699.177
 416  3690.404
 417  3662.385
 418  3699.45
 419  3658.161
 420  3753.409
 421  3708.131
 422  3621.711
 423  3514.613
 424  3392.555
 425  3397.18
 426  3307.893
 427  3399.528
 428  3423.804
 429  3587.743
 430  3794.112
 431  3745.332
 432  3695.332
 433  3664.055
 434  3818.768
 435  3784.409
 436  3779.062
 437  3979.166
 438  4142.613
 439  4099.078
 440  4061.268
 441  4047.316
 442  4205.4
 443  4250.898
 444  4402.365
 445  4471.458
 446  4320.654
 447  4222.904
 448  4412.634
 449  4671.288
 450  4660.799
 451  4565.539
 452  4307.952
 453  4145.993
 454  3962.853
 455  3975.82
 456  4128.328
 457  4276.083
 458  4346.601
 459  4224.409
 460  4210.07
 461  4187.185
 462  4157.205
 463  4072.47
 464  4009.033
 465  4120.601
 466  4144.841
 467  4203.586
 468  4127.758
 469  4037.374
 470  4055.283
 471  3970.761
 472  3925.988
 473  3847.733
 474  3940.251
 475  3894.752
 476  3853.734
 477  3941.896
 478  4105.468
 479  4193.48
 480  4105.702
 481  4124.604
 482  4059.753
 483  3898.038
 484  3935.354
 485  3782.765
 486  3807.899
 487  3851.098
 488  4085.266
 489  4238.299
 490  4169.122
 491  4098.198
 492  3956.707
 493  3864.572
 494  3950.948
 495  3988.987
 496  3865.499
 497  3852.815
 498  3831.277
 499  3938.001
 500  4032.058
 501  4046.854
 502  4075.441
 503  4263.47
 504  4236.646
 505  4124.976
 506  3928.942
 507  4000.039
 508  4073.458
 509  4150.284
 510  4202.76
 511  4261.694
 512  4378.955
 513  4306.876
 514  4299.549
 515  4278.373
 516  4232.907
 517  4260.354
 518  4145.627
 519  4201.034
 520  4213.652
 521  4332.899
 522  4278.217
 523  4228.887
 524  4122.161
 525  4157.435
 526  4099.38
 527  4254.286
 528  4337.38
 529  4284.68
 530  4220.963
 531  4157.808
 532  4113.884
 533  4008.035
 534  3982.932
 535  4008.793
 536  4129.171
 537  4370.626
 538  4297.966
 539  4279.233
 540  4212.037
 541  4226.437
 542  4189.42
 543  3946.428
 544  3827.321
 545  3786.348
 546  3690.063
 547  3749.95
 548  4015.323
 549  4034.171
 550  3845.262
 551  3834.657
 552  3775.801
 553  3755.094
 554  3830.001
 555  3840.45
 556  3803.277
 557  3679.822
 558  3885.345
 559  3938.756
 560  3867.858
 561  3735.864
 562  3722.447
 563  3672.297
 564  3618.884
 565  3662.809
 566  3716.163
 567  3813.999
 568  3742.509
 569  3702.513
 570  3644.518
 571  3667.357
 572  3782.179
 573  3797.082
 574  3779.145
 575  3846.783
 576  3938.775
 577  3961.623
 578  3917.654
 579  4041.128
 580  4081.966
 581  4222.464
 582  4329.56
 583  4253.587
 584  4133.167
 585  4059.05
 586  4149.358
 587  4124.551
 588  4106.721
 589  4169.921
 590  4150.694
 591  4181.513
 592  4170.684
 593  4205.494
 594  4137.243
 595  4034.855
 596  4198.676
 597  4309.61
 598  4331.605
 599  4325.173
 600  4366.593
 601  4331.307
 602  4237.439
 603  4194.771
 604  4089.569
 605  3988.009
 606  4231.883
 607  4374.242
 608  4589.551
 609  4567.507
 610  4590.075
 611  4591.555
 612  4899.771
 613  4881.383
 614  4561.525
 615  4242.941
 616  4055.203
 617  3873.732
 618  3789.946
 619  3740.389
 620  3712.26
 621  3717.851
 622  3735.315
 623  3881.736
 624  3918.58
 625  3826.672
 626  3756.088
 627  3820.662
 628  3742.159
 629  3673.633
 630  3536.056
 631  3431.521
 632  3393.702
 633  3393.622
 634  3423.193
 635  3432.296
 636  3793.252
 637  3844.26
 638  3681.201
 639  3539.376
 640  3411.729
 641  3414.31
 642  3458.949
 643  3496.313
 644  3440.668
 645  3292.492
 646  3276.74
 647  3297.474
 648  3372.505
 649  3344.841
 650  3393.448
 651  3449.366
 652  3434.464
 653  3472.52
 654  3541.51
 655  3603.375
 656  3774.931
 657  3865.224
 658  3923.615
 659  3731.713
 660  3565.563
 661  3647.342
 662  3851.245
 663  3889.124
 664  3922.347
 665  3781.73
 666  3644.156
 667  3663.603
 668  3682.561
 669  3871.486
 670  3935.458
 671  3951.36
 672  3919.565
 673  3931.215
 674  3891.691
 675  3879.332
 676  3793.484
 677  3714.1
 678  3746.004
 679  3861.036
 680  3869.296
 681  3850.046
 682  3728.027
 683  3654.591
 684  3651.297
 685  3531.697
 686  3559.205
 687  3509.245
 688  3477.38
 689  3402.17
 690  3306.531
 691  3281.892
 692  3213.051
 693  3300.01
 694  3344.742
 695  3324.502
 696  3211.775
 697  3216.724
 698  3143.198
 699  3123.116
 700  3090.283
 701  3152.707
 702  3280.683
 703  3195.188
 704  3115.812
 705  3021.185
 706  3054.387
 707  3199.573
 708  3345.349
 709  3486.087
 710  3596.585
 711  3647.558
 712  3653.651
 713  3351.681
 714  3192.643
 715  3210.197
 716  3374.076
 717  3532.953
 718  3663.269
 719  3620.312
 720  3542.812
 721  3517.917
 722  3543.627
 723  3630.123
 724  3869.229
 725  3922.752
 726  3830.607
 727  3599.946
 728  3606.064
 729  3508.94
 730  3462.942
 731  3362.968
 732  3486.435
 733  3500.869
 734  3644.465
 735  3663.547
 736  3738.633
 737  3656.412
 738  3613.476
 739  3621.332
 740  3590.356
 741  3516.656
 742  3399.99
 743  3480.436
 744  3579.585
 745  3791.148
 746  3845.373
 747  3958.978
 748  3841.614
 749  3899.595
 750  3851.459
 751  3978.58
 752  3872.529
 753  3949.52
 754  3932.644
 755  3853.806
 756  3672.512
 757  3557.319
 758  3537.416
 759  3514.972
 760  3608.785
 761  3705.525
 762  3609.458
 763  3615.833
 764  3724.086
 765  3568.75
 766  3474.908
 767  3434.504
 768  3478.214
 769  3537.776
 770  3519.682
 771  3428.198
 772  3467.636
 773  3458.54
 774  3527.179
 775  3589.849
 776  3729.8
 777  3719.135
 778  3630.362
 779  3475.141
 780  3416.826
 781  3330.873
 782  3460.64
 783  3517.889
 784  3534.53
 785  3469.764
 786  3504.226
 787  3550.577
 788  3396.884
 789  3528.703
 790  3484.01
 791  3637.401
 792  3520.356
 793  3530.037
 794  3516.604
 795  3564.866
 796  3639.27
 797  3610.263
 798  3604.338
 799  3623.6
 800  3777.787
 801  3702.994
 802  3585.876
 803  3579.13
 804  3654.337
 805  3631.211
 806  3640.506
 807  3706.048
 808  3768.708
 809  3970.165
 810  3816.365
 811  3636.947
 812  3756.246
 813  3887.991
 814  3881.768
 815  3664.8
 816  3563.481
 817  3760.265
 818  3867.122
 819  3807.095
 820  3730.858
 821  3617.79
 822  3639.579
 823  3788.216
 824  3941.247
 825  4021.205
 826  3960.247
 827  3929.437
 828  4058.685
 829  4015.448
 830  3829.767
 831  3677.747
 832  3729.863
 833  3672.614
 834  3661.559
 835  3483.644
 836  3604.964
 837  3650.206
 838  3841.538
 839  3738.755
 840  3656.684
 841  3597.616
 842  3549.656
 843  3615.067
 844  3565.734
 845  3548.099
 846  3364.033
 847  3365.581
 848  3334.322
 849  3498.433
 850  3591.566
 851  3610.795
 852  3461.557
 853  3445.977
 854  3463.247
 855  3497.51
 856  3680.532
 857  3718.899
 858  3755.103
 859  3789.887
 860  3803.765
 861  3754.208
 862  3493.012
 863  3448.396
 864  3612.844
 865  3741.042
 866  3890.234
 867  3772.457
 868  3791.91
 869  3758.977
 870  3800.778
 871  3809.888
 872  3790.124
 873  3687.902
 874  3616.927
 875  3777.94
 876  3698.576
 877  3593.534
 878  3482.821
 879  3465.725
 880  3476.641
 881  3374.311
 882  3332.665
 883  3333.336
 884  3394.824
 885  3554.656
 886  3651.562
 887  3665.178
 888  3655.606
 889  3758.688
 890  3885.903
 891  3902.616
 892  3785.932
 893  3723.253
 894  3783.798
 895  3827.378
 896  3810.153
 897  3901.943
 898  3771.734
 899  3693.347
 900  3681.144
 901  3803.667
 902  3892.662
 903  3860.862
 904  3883.038
 905  3962.436
 906  3846.604
 907  3758.75
 908  3737.957
 909  3754.491
 910  3650.058
 911  3525.348
 912  3616.797
 913  3661.618
 914  3606.325
 915  3601.418
 916  3581.115
 917  3720.716
 918  3732.536
 919  3762.728
 920  3521.308
 921  3413.079
 922  3484.065
 923  3739.428
 924  3748.624
 925  3645.663
 926  3449.301
 927  3458.877
 928  3500.075
 929  3476.411
 930  3411.092
 931  3412.374
 932  3533.324
 933  3506.901
 934  3566.258
 935  3543.579
 936  3789.661
 937  3965.407
 938  3945.878
 939  3840.892
 940  3787.13
 941  3850.667
 942  3952.224
 943  3930.653
 944  3946.272
 945  3963.813
 946  3878.819
 947  3834.786
 948  3944.827
 949  4072.324
 950  4162.985
 951  4050.096
 952  4088.741
 953  4116.095
 954  4158.743
 955  4144.117
 956  4131.95
 957  4182.942
 958  4073.339
 959  4021.663
 960  3962.99
 961  3957.05
 962  3963.86
 963  3875.845
 964  3774.263
 965  3786.909
 966  3844.883
 967  3864.006
 968  3986.057
 969  3887.811
 970  3862.962
 971  3790.031
 972  3756.478
 973  3793.431
 974  3673.166
 975  3564.329
 976  3494.168
 977  3542.738
 978  3482.829
 979  3354.19
 980  3532.73
 981  3637.215
 982  3678.076
 983  3609.296
 984  3570.947
 985  3507.897
 986  3473.028
 987  3614.235
 988  3714.326
 989  3535.754
 990  3403.767
 991  3306.79
 992  3396.625
 993  3472.772
 994  3578.439
 995  3564.15
 996  3407.754
 997  3274.434
 998  3261.092
 999  3435.743
1000  3498.568
1001  3514.867
1002  3446.407
1003  3449.303
1004  3396.091
1005  3546.72
1006  3588.764
1007  3631.333
1008  3511.071
1009  3381.759
1010  3218.62
1011  3109.596
1012  3230.43
1013  3356.459
1014  3353.219
1015  3352.349
1016  3448.031
1017  3562.041
1018  3627.702
1019  3586.485
1020  3655.024
1021  3611.142
1022  3483.65
1023  3365.954
