# Input file       =  1203155681.096231-PSRB0329-2ms-sampling-dd.dat
# Candidate        =  PSR_0332+5434
# Telescope        =  AR
# Epoch_topo       =  58169.413195558227
# Epoch_bary       =  N/A
# T_sample         =  0.002
# Data Folded      =  7405568
# Data Avg         =  -3.10129627598879e-10
# Data StdDev      =  7.75678503629191 
# Profile Bins     =  512
# Profile Avg      =  -0.0948615764437507
# Profile StdDev   =  932.880387151234 
# Reduced chi-sqr  =  0.541
# Prob(Noise)      <  1   (~0.0 sigma)
# P_topo (ms)      =  714.580620019776  +/- 0.00011
# P'_topo (s/s)    =  -0                +/- 5.73e-11
# P''_topo (s/s^2) =  0                 +/- 2.51e-14
# P_bary (ms)      =  N/A
# P'_bary (s/s)    =  N/A
# P''_bary (s/s^2) =  N/A
# P_orb (s)        =  N/A
# asin(i)/c (s)    =  N/A
# eccentricity     =  N/A
# w (rad)          =  N/A
# T_peri           =  N/A
######################################################
   0  241.7967
   1  -149.4654
   2  -11.51755
   3  176.4288
   4  -394.5105
   5  -400.4714
   6  -276.1363
   7  -458.6654
   8  -478.9792
   9  -702.0355
  10  -385.5547
  11  -615.023
  12  -856.86
  13  -417.731
  14  -187.7441
  15  -208.0584
  16  -165.7462
  17  26.78254
  18  193.1164
  19  144.8621
  20  -30.69027
  21  -420.1541
  22  -686.6227
  23  -851.9843
  24  -535.9697
  25  -273.2406
  26  -498.9488
  27  -491.5827
  28  -388.1248
  29  -716.2236
  30  -601.0395
  31  -748.2015
  32  -678.41
  33  -783.1489
  34  -476.323
  35  -331.6594
  36  -284.036
  37  -308.3342
  38  366.6864
  39  -130.9295
  40  -432.0171
  41  -329.2091
  42  -762.2526
  43  -763.3807
  44  -607.3105
  45  -339.9601
  46  -324.1052
  47  -286.2595
  48  -264.7236
  49  -139.6344
  50  171.392
  51  144.6006
  52  56.10516
  53  -121.7741
  54  170.5977
  55  -214.9665
  56  -534.417
  57  -680.1254
  58  -1038.667
  59  -1052.804
  60  -758.5488
  61  -465.3207
  62  -178.0853
  63  -353.6503
  64  -593.5987
  65  -713.3621
  66  -671.1277
  67  -241.5826
  68  187.3698
  69  53.36473
  70  229.3265
  71  -1.762127
  72  21.26241
  73  -74.03156
  74  -452.0477
  75  -538.7648
  76  -464.8043
  77  -444.4702
  78  -103.7493
  79  61.49477
  80  6.975725
  81  173.7103
  82  423.039
  83  580.3908
  84  652.1135
  85  909.2315
  86  975.9284
  87  429.3359
  88  256.1071
  89  91.47379
  90  21.2262
  91  -252.7532
  92  -192.6372
  93  -203.0516
  94  -136.5312
  95  -142.7682
  96  146.2717
  97  346.466
  98  655.8207
  99  513.8674
 100  295.9377
 101  340.715
 102  286.593
 103  240.811
 104  355.7188
 105  379.8781
 106  -184.0148
 107  -100.6171
 108  -303.3297
 109  -126.4328
 110  -47.17607
 111  -334.5375
 112  -71.82764
 113  268.2593
 114  885.0439
 115  541.5302
 116  371.1222
 117  490.8128
 118  491.3006
 119  479.2337
 120  205.7948
 121  101.6055
 122  -460.2582
 123  -464.0763
 124  -651.1253
 125  -576.0471
 126  -689.4539
 127  -755.6395
 128  -581.9337
 129  -670.5021
 130  -360.526
 131  -453.7078
 132  -33.06437
 133  69.3754
 134  -199.9548
 135  257.5095
 136  -189.6714
 137  10.77714
 138  -117.4925
 139  -326.001
 140  -904.5642
 141  -788.1924
 142  -343.1291
 143  -551.8992
 144  -629.7419
 145  -409.557
 146  -276.64
 147  -68.64883
 148  -138.2127
 149  -21.79571
 150  -219.4513
 151  280.6368
 152  -20.02724
 153  133.209
 154  473.6918
 155  -518.0308
 156  -958.9603
 157  -725.4057
 158  -458.9074
 159  -420.6023
 160  -311.7284
 161  -533.921
 162  -1002.576
 163  -1283.011
 164  -830.1079
 165  -240.6844
 166  309.1484
 167  795.4077
 168  322.5314
 169  -81.02131
 170  -429.8381
 171  -678.0018
 172  -456.3848
 173  -302.0283
 174  -201.3479
 175  -738.6182
 176  -1102.345
 177  -620.2977
 178  -723.5749
 179  -253.0033
 180  -166.5372
 181  113.2797
 182  55.47482
 183  389.5778
 184  677.7521
 185  452.2644
 186  917.9847
 187  999.9501
 188  184.5108
 189  -134.1863
 190  -24.81349
 191  316.6377
 192  1054.17
 193  1141.37
 194  851.494
 195  815.0846
 196  579.8272
 197  192.0876
 198  -17.18318
 199  465.8254
 200  548.3057
 201  345.7728
 202  377.0053
 203  86.27695
 204  -98.22657
 205  -327.8272
 206  -112.1944
 207  39.27136
 208  98.03748
 209  -39.8996
 210  51.80911
 211  -240.5272
 212  -184.4048
 213  73.31849
 214  129.3191
 215  505.8518
 216  513.7799
 217  516.146
 218  276.0826
 219  511.395
 220  358.008
 221  173.7763
 222  -335.5928
 223  12.24411
 224  -307.101
 225  -386.1601
 226  -218.7159
 227  84.75373
 228  130.4841
 229  179.3422
 230  2.532591
 231  -175.8705
 232  198.9462
 233  190.041
 234  324.2166
 235  553.5309
 236  183.1397
 237  6.778678
 238  -223.8198
 239  -481.4917
 240  -592.1765
 241  -752.4548
 242  -355.6997
 243  -823.8251
 244  -1091.122
 245  -1249.615
 246  -1165.183
 247  -369.3391
 248  287.5191
 249  606.2742
 250  457.1393
 251  194.2413
 252  108.2534
 253  -3.105557
 254  -539.3632
 255  -337.9311
 256  -289.9077
 257  -559.8102
 258  -452.6096
 259  -829.4821
 260  -1056.361
 261  -963.8467
 262  -673.3492
 263  -404.6024
 264  -185.0263
 265  -223.7782
 266  309.7688
 267  -257.7246
 268  -333.0796
 269  -428.4944
 270  -505.3684
 271  -9.299903
 272  -419.1058
 273  -1180.341
 274  -1156.994
 275  -862.8135
 276  -1155.85
 277  -779.3723
 278  -312.8135
 279  -474.2318
 280  -744.2545
 281  -451.2457
 282  -107.0828
 283  118.8146
 284  -29.31752
 285  -179.7042
 286  -237.0858
 287  -735.4012
 288  -645.665
 289  -495.4965
 290  -385.4322
 291  -260.1511
 292  -5.761367
 293  -359.3233
 294  -485.9632
 295  -470.0198
 296  -470.5128
 297  -158.2878
 298  -189.3743
 299  73.00658
 300  544.5628
 301  315.6389
 302  276.7922
 303  -309.1198
 304  -628.3126
 305  -345.9408
 306  -197.6847
 307  -221.8418
 308  -31.53589
 309  -177.5211
 310  -450.0953
 311  -212.4299
 312  196.6526
 313  -255.7078
 314  267.0835
 315  1106.996
 316  1167.614
 317  849.7001
 318  492.8176
 319  46.62872
 320  -451.3863
 321  -450.6356
 322  292.2647
 323  319.9284
 324  142.316
 325  331.6973
 326  -150.0621
 327  -249.1831
 328  262.8681
 329  610.7541
 330  776.9902
 331  783.5041
 332  881.4049
 333  807.3637
 334  631.2639
 335  646.5126
 336  761.656
 337  423.7313
 338  280.4324
 339  142.2603
 340  173.853
 341  218.3334
 342  -215.7115
 343  113.3816
 344  637.0535
 345  506.8383
 346  258.7047
 347  225.039
 348  612.0994
 349  1003.947
 350  548.0742
 351  320.0195
 352  158.1434
 353  88.73588
 354  360.8434
 355  443.5629
 356  349.9942
 357  -75.67599
 358  -27.34325
 359  -82.78069
 360  142.8576
 361  349.0197
 362  965.3674
 363  692.1016
 364  622.4102
 365  958.3798
 366  843.4421
 367  628.9828
 368  1052.183
 369  900.3592
 370  -157.492
 371  170.8667
 372  -253.248
 373  -296.4358
 374  -259.6954
 375  -47.68266
 376  -199.6135
 377  -318.893
 378  62.27168
 379  -96.18913
 380  150.6904
 381  1171.464
 382  1308.474
 383  965.201
 384  453.4221
 385  590.478
 386  385.2927
 387  -43.08201
 388  20.7464
 389  322.0634
 390  539.6971
 391  604.7728
 392  160.6295
 393  59.83749
 394  -164.0412
 395  -120.6211
 396  202.5181
 397  427.5352
 398  905.5299
 399  715.8299
 400  757.5568
 401  747.433
 402  510.2586
 403  380.812
 404  383.8686
 405  268.2346
 406  430.2182
 407  -28.17999
 408  -455.192
 409  -249.898
 410  -491.1871
 411  -101.6855
 412  260.889
 413  321.5881
 414  806.5305
 415  569.8326
 416  225.2488
 417  -234.2384
 418  -7.624986
 419  167.1031
 420  81.72663
 421  11.33117
 422  -196.6489
 423  -151.6221
 424  -459.9861
 425  -270.7679
 426  -449.8716
 427  -307.2432
 428  74.22105
 429  117.1855
 430  386.728
 431  447.9811
 432  583.9411
 433  291.8158
 434  409.68
 435  224.4576
 436  44.10192
 437  219.0891
 438  22.4139
 439  123.993
 440  273.2917
 441  737.9867
 442  900.3425
 443  781.7202
 444  974.8636
 445  541.8698
 446  1057.462
 447  1509.608
 448  1465.943
 449  1616.985
 450  1196.776
 451  526.7855
 452  -211.565
 453  -290.6336
 454  -67.45985
 455  -368.539
 456  -180.7629
 457  723.4791
 458  653.2917
 459  230.8589
 460  68.39035
 461  -51.69482
 462  13.15335
 463  213.1829
 464  339.8522
 465  686.9919
 466  882.8314
 467  987.8019
 468  849.1206
 469  467.8683
 470  264.2301
 471  131.2809
 472  -81.09351
 473  -406.9663
 474  -183.186
 475  -133.7839
 476  -143.6442
 477  -43.28569
 478  116.7636
 479  573.8972
 480  575.9606
 481  557.2141
 482  279.4323
 483  168.5509
 484  297.5977
 485  -71.85957
 486  157.4377
 487  182.6743
 488  -53.00608
 489  -364.6274
 490  -271.664
 491  -366.9298
 492  -477.0599
 493  -321.8719
 494  -204.561
 495  -67.20362
 496  -67.32037
 497  184.3136
 498  215.3601
 499  293.8372
 500  89.01865
 501  19.64887
 502  -3.657874
 503  -433.787
 504  -293.6229
 505  -395.433
 506  -690.2762
 507  -602.4901
 508  -15.64542
 509  65.6792
 510  273.4366
 511  734.1264
