# Input file       =  1203105821.111271_cleaned.dat
# Candidate        =  PSR_0332+5434
# Telescope        =  AR
# Epoch_topo       =  58168.836112398967
# Epoch_bary       =  N/A
# T_sample         =  0.002
# Data Folded      =  7340032
# Data Avg         =  0.0458038375924973
# Data StdDev      =  2.45372093221852 
# Profile Bins     =  1024
# Profile Avg      =  327.903162636747 
# Profile StdDev   =  207.741931948921 
# Reduced chi-sqr  =  1.053
# Prob(Noise)      <  0.115   (~1.2 sigma)
# P_topo (ms)      =  714.581091381856  +/- 0.000116
# P'_topo (s/s)    =  -0                +/- 6.14e-11
# P''_topo (s/s^2) =  0                 +/- 2.71e-14
# P_bary (ms)      =  N/A
# P'_bary (s/s)    =  N/A
# P''_bary (s/s^2) =  N/A
# P_orb (s)        =  N/A
# asin(i)/c (s)    =  N/A
# eccentricity     =  N/A
# w (rad)          =  N/A
# T_peri           =  N/A
######################################################
   0  321.2939
   1  309.9332
   2  347.0456
   3  297.6099
   4  241.7157
   5  284.881
   6  246.0124
   7  253.0985
   8  213.8023
   9  321.6508
  10  366.5233
  11  360.8242
  12  229.1446
  13  238.6577
  14  152.4776
  15  121.9999
  16  92.60821
  17  230.2307
  18  300.834
  19  349.6809
  20  371.4436
  21  397.044
  22  325.2699
  23  280.9382
  24  242.8906
  25  254.8499
  26  235.073
  27  295.8307
  28  347.3247
  29  453.8886
  30  432.6582
  31  438.1848
  32  419.1592
  33  340.5704
  34  228.9302
  35  202.3612
  36  238.124
  37  285.5018
  38  295.5905
  39  307.0641
  40  323.0224
  41  343.5152
  42  300.3202
  43  268.3964
  44  203.5777
  45  200.5402
  46  187.26
  47  199.0553
  48  188.6483
  49  337.4675
  50  389.6813
  51  334.0003
  52  132.0955
  53  86.96732
  54  189.8805
  55  283.9984
  56  168.6967
  57  139.6028
  58  169.9328
  59  270.016
  60  203.1963
  61  236.3842
  62  350.1655
  63  475.1482
  64  395.0935
  65  277.6072
  66  220.1774
  67  294.1121
  68  282.1644
  69  345.3266
  70  441.0407
  71  460.8993
  72  404.1351
  73  345.6039
  74  301.5362
  75  230.714
  76  227.9699
  77  278.0592
  78  301.5747
  79  283.5065
  80  268.8493
  81  263.11
  82  255.4352
  83  253.4286
  84  257.8899
  85  246.607
  86  401.0228
  87  391.9468
  88  322.4707
  89  190.7158
  90  163.1824
  91  303.8459
  92  442.9008
  93  576.4492
  94  467.9529
  95  313.7367
  96  275.4142
  97  307.5738
  98  338.033
  99  287.9048
 100  288.5761
 101  282.5098
 102  283.8739
 103  245.5037
 104  383.3229
 105  432.2446
 106  435.1623
 107  283.2455
 108  166.1855
 109  212.6259
 110  262.9698
 111  408.7625
 112  406.7118
 113  419.9666
 114  367.8676
 115  317.0525
 116  174.7292
 117  232.3056
 118  301.8976
 119  422.6238
 120  275.8559
 121  183.9158
 122  208.5342
 123  227.3004
 124  232.6486
 125  149.3569
 126  149.1264
 127  114.5264
 128  175.0057
 129  280.8908
 130  264.3291
 131  241.516
 132  262.9518
 133  324.1378
 134  351.2967
 135  299.9874
 136  300.4774
 137  277.8973
 138  304.8333
 139  227.3878
 140  249.077
 141  340.4303
 142  391.1197
 143  293.503
 144  109.3151
 145  95.30316
 146  247.7486
 147  357.7994
 148  315.5003
 149  307.0835
 150  291.9992
 151  343.1934
 152  332.7603
 153  337.6657
 154  465.1411
 155  465.643
 156  528.7762
 157  376.7191
 158  245.0573
 159  139.7324
 160  152.1293
 161  197.2937
 162  288.9539
 163  325.9688
 164  392.1414
 165  383.9365
 166  337.4067
 167  284.7664
 168  266.0597
 169  231.8051
 170  253.6689
 171  296.3184
 172  375.813
 173  444.8239
 174  415.9485
 175  441.3021
 176  542.3268
 177  619.1949
 178  557.4321
 179  355.9245
 180  382.6213
 181  362.8294
 182  373.41
 183  294.9818
 184  369.1855
 185  376.3225
 186  357.4042
 187  269.2871
 188  279.4663
 189  303.2542
 190  417.2809
 191  464.9574
 192  399.7366
 193  246.1357
 194  146.4608
 195  207.3997
 196  333.3375
 197  401.2385
 198  453.4414
 199  366.2926
 200  302.3581
 201  341.5216
 202  513.1848
 203  631.2092
 204  531.0413
 205  389.5065
 206  280.2116
 207  277.2555
 208  243.9606
 209  243.733
 210  320.8467
 211  473.8615
 212  563.0812
 213  507.1407
 214  511.8965
 215  446.671
 216  463.9951
 217  424.1326
 218  356.4941
 219  266.0395
 220  205.5121
 221  275.4372
 222  396.0526
 223  387.3566
 224  429.919
 225  321.2797
 226  271.9704
 227  166.3312
 228  260.4932
 229  413.5808
 230  381.2109
 231  318.2894
 232  277.1367
 233  287.4627
 234  362.536
 235  369.9144
 236  371.8668
 237  325.0385
 238  346.7173
 239  336.2191
 240  319.0609
 241  258.3911
 242  203.54
 243  153.3731
 244  277.8589
 245  350.0257
 246  390.1747
 247  363.6112
 248  383.3986
 249  298.6042
 250  225.4788
 251  139.9605
 252  201.0666
 253  247.0001
 254  321.7233
 255  293.5106
 256  350.7643
 257  329.9523
 258  240.3352
 259  196.6658
 260  239.8622
 261  292.1366
 262  190.5827
 263  164.3064
 264  235.8574
 265  376.62
 266  466.6898
 267  457.2154
 268  344.2818
 269  282.657
 270  307.0792
 271  285.7812
 272  247.3024
 273  364.3925
 274  466.8825
 275  452.7234
 276  321.551
 277  372.0332
 278  468.636
 279  594.511
 280  579.095
 281  506.1262
 282  418.2688
 283  335.2111
 284  396.2854
 285  365.7986
 286  417.3488
 287  378.5158
 288  394.4546
 289  435.8362
 290  403.9978
 291  357.0664
 292  223.9024
 293  239.0553
 294  245.6189
 295  407.5118
 296  439.729
 297  477.6171
 298  344.7222
 299  360.8431
 300  339.9565
 301  306.2744
 302  261.944
 303  172.3353
 304  201.9949
 305  132.3983
 306  214.1568
 307  325.1648
 308  583.4265
 309  650.464
 310  612.0507
 311  416.8977
 312  431.4562
 313  467.6101
 314  437.7598
 315  318.8571
 316  252.5455
 317  292.5862
 318  287.2848
 319  344.2697
 320  383.4904
 321  376.4966
 322  349.5252
 323  319.8904
 324  310.0218
 325  310.2859
 326  333.1921
 327  329.737
 328  327.5917
 329  260.4881
 330  199.2684
 331  188.7714
 332  292.0085
 333  304.1522
 334  281.049
 335  296.7794
 336  381.9283
 337  413.695
 338  380.8544
 339  395.7321
 340  338.4413
 341  247.4314
 342  278.5574
 343  257.595
 344  307.9023
 345  207.9521
 346  250.3936
 347  281.8184
 348  255.5919
 349  138.3503
 350  238.5904
 351  373.0534
 352  512.2992
 353  375.9342
 354  322.3828
 355  265.3438
 356  276.8503
 357  352.6422
 358  317.9761
 359  377.3055
 360  314.5518
 361  374.6491
 362  392.4751
 363  442.7098
 364  473.7918
 365  446.9542
 366  516.8425
 367  370.0181
 368  357.5469
 369  334.9322
 370  435.5331
 371  520.4435
 372  382.7406
 373  252.9267
 374  185.6091
 375  254.6367
 376  391.1427
 377  451.3741
 378  492.4687
 379  433.0806
 380  370.3485
 381  378.7323
 382  368.2623
 383  386.7614
 384  364.4725
 385  319.7501
 386  280.8948
 387  223.421
 388  208.3082
 389  188.318
 390  177.4896
 391  258.4438
 392  234.5196
 393  408.2654
 394  488.4467
 395  515.0698
 396  285.6277
 397  277.2586
 398  277.4863
 399  255.7936
 400  149.0033
 401  212.7588
 402  437.1766
 403  521.4125
 404  442.2935
 405  210.645
 406  60.43521
 407  97.96604
 408  184.2882
 409  213.721
 410  173.2962
 411  199.5278
 412  302.0525
 413  344.5668
 414  345.3576
 415  215.1429
 416  164.1285
 417  130.3004
 418  243.8295
 419  347.6244
 420  385.0427
 421  294.8665
 422  242.7436
 423  285.8492
 424  422.6112
 425  473.2498
 426  509.5601
 427  452.5345
 428  371.3846
 429  253.7405
 430  273.0889
 431  368.8405
 432  358.1027
 433  306.6391
 434  356.9751
 435  443.365
 436  427.4475
 437  311.3666
 438  322.495
 439  441.1229
 440  470.973
 441  485.6613
 442  450.7608
 443  517.4891
 444  441.4059
 445  375.5767
 446  328.5816
 447  416.1501
 448  482.8305
 449  423.8674
 450  437.1394
 451  393.8438
 452  436.0201
 453  402.6472
 454  423.4005
 455  458.4509
 456  417.167
 457  404.575
 458  384.9832
 459  438.7336
 460  382.1155
 461  444.1131
 462  513.4491
 463  504.7964
 464  338.1703
 465  204.8366
 466  261.2824
 467  273.9465
 468  283.5725
 469  320.9722
 470  316.9634
 471  202.1136
 472  71.16875
 473  -19.12999
 474  117.2041
 475  186.5259
 476  335.5191
 477  431.4763
 478  478.5665
 479  322.0149
 480  185.6827
 481  118.3325
 482  103.5992
 483  157.4131
 484  375.9412
 485  508.2948
 486  508.7619
 487  444.9819
 488  479.7253
 489  403.819
 490  305.1354
 491  376.846
 492  450.3507
 493  426.623
 494  324.7559
 495  343.3333
 496  357.9981
 497  276.3813
 498  274.6034
 499  252.6328
 500  268.6068
 501  279.4092
 502  378.925
 503  407.218
 504  371.0519
 505  347.3164
 506  391.8712
 507  324.6582
 508  202.6955
 509  134.4892
 510  237.4747
 511  248.2133
 512  273.6624
 513  253.4882
 514  329.4658
 515  419.2754
 516  547.0359
 517  532.6726
 518  499.618
 519  365.5881
 520  246.7464
 521  192.4689
 522  255.1559
 523  436.3208
 524  397.8667
 525  318.0174
 526  298.1861
 527  416.1946
 528  476.2656
 529  369.2317
 530  285.0669
 531  229.416
 532  304.248
 533  315.2385
 534  385.5114
 535  458.1263
 536  451.3123
 537  498.7213
 538  482.3021
 539  500.9965
 540  426.3902
 541  354.7331
 542  354.6708
 543  396.2309
 544  435.9641
 545  412.0437
 546  312.485
 547  219.9919
 548  159.5945
 549  226.0231
 550  332.8883
 551  379.3064
 552  398.4025
 553  361.1427
 554  365.7579
 555  268.5432
 556  238.7531
 557  252.8359
 558  325.5679
 559  402.3069
 560  349.685
 561  246.0563
 562  183.5561
 563  320.1617
 564  395.8725
 565  414.0097
 566  409.5041
 567  492.3895
 568  521.75
 569  461.8629
 570  485.6122
 571  521.4138
 572  397.9135
 573  227.1496
 574  264.7883
 575  414.1247
 576  528.7841
 577  589.1232
 578  649.3632
 579  505.8573
 580  312.3053
 581  253.4043
 582  387.4673
 583  458.7491
 584  473.6271
 585  439.1066
 586  356.9536
 587  192.9268
 588  124.6675
 589  136.9743
 590  100.5602
 591  138.8251
 592  284.5556
 593  418.2845
 594  381.5052
 595  446.3215
 596  505.1867
 597  468.5859
 598  351.678
 599  331.3463
 600  387.8229
 601  428.6812
 602  392.2046
 603  457.7653
 604  545.133
 605  695.6406
 606  796.3126
 607  798.5828
 608  853.5521
 609  822.5966
 610  957.6169
 611  927.3945
 612  890.8479
 613  787.5104
 614  800.657
 615  762.1011
 616  650.6657
 617  438.1764
 618  384.2914
 619  402.4438
 620  289.7316
 621  168.9769
 622  142.8799
 623  302.0939
 624  413.4575
 625  473.5081
 626  451.5879
 627  347.034
 628  365.9469
 629  314.7756
 630  322.9427
 631  328.7264
 632  389.3375
 633  332.0118
 634  266.2702
 635  237.7132
 636  158.2807
 637  112.012
 638  180.6799
 639  312.2303
 640  458.0751
 641  437.6331
 642  350.2428
 643  291.0241
 644  264.3087
 645  349.601
 646  415.7051
 647  351.6894
 648  316.2544
 649  365.5919
 650  570.7546
 651  538.864
 652  469.5793
 653  352.5964
 654  336.0371
 655  348.3805
 656  306.3333
 657  415.1194
 658  404.5427
 659  469.5602
 660  326.1316
 661  292.0224
 662  273.1784
 663  321.5244
 664  358.8922
 665  475.0119
 666  540.1048
 667  523.6762
 668  446.7306
 669  467.4853
 670  451.0771
 671  460.4958
 672  405.3872
 673  343.4103
 674  244.474
 675  210.0949
 676  214.2546
 677  220.3082
 678  185.7174
 679  226.5056
 680  236.1505
 681  287.8364
 682  195.4039
 683  142.9271
 684  186.1489
 685  226.8227
 686  294.7467
 687  243.2636
 688  248.0976
 689  196.0921
 690  122.5803
 691  94.33563
 692  188.9156
 693  298.9342
 694  352.6607
 695  290.5786
 696  252.565
 697  293.7621
 698  346.4648
 699  414.2202
 700  466.1373
 701  516.1739
 702  387.9548
 703  219.6496
 704  149.5923
 705  123.9938
 706  99.25153
 707  49.77768
 708  149.5861
 709  159.0856
 710  280.6611
 711  212.9101
 712  155.5689
 713  195.3562
 714  281.2719
 715  393.6451
 716  383.6713
 717  409.0073
 718  323.7481
 719  316.7683
 720  382.3689
 721  404.0698
 722  323.938
 723  194.2453
 724  336.1368
 725  246.7434
 726  180.4127
 727  27.62475
 728  88.94284
 729  97.37204
 730  152.3174
 731  137.7177
 732  202.607
 733  203.9551
 734  294.6654
 735  318.5883
 736  329.5648
 737  278.2251
 738  148.2969
 739  170.3297
 740  253.7836
 741  315.4689
 742  269.0381
 743  245.0822
 744  231.7475
 745  227.1969
 746  166.5663
 747  213.5923
 748  182.8585
 749  153.312
 750  161.6518
 751  165.1363
 752  149.8622
 753  190.5463
 754  270.7966
 755  288.2738
 756  261.0202
 757  339.0924
 758  360.3118
 759  426.8032
 760  323.1866
 761  372.6357
 762  224.8812
 763  194.2541
 764  240.88
 765  295.1119
 766  401.7799
 767  316.8691
 768  251.3847
 769  274.9002
 770  306.4523
 771  423.2899
 772  324.9879
 773  326.7957
 774  210.9888
 775  286.5048
 776  246.7624
 777  169.7441
 778  97.43764
 779  77.88083
 780  192.0239
 781  259.6474
 782  420.16
 783  549.2165
 784  534.219
 785  426.7047
 786  312.644
 787  324.9394
 788  330.2186
 789  290.1468
 790  352.9774
 791  341.6804
 792  250.9683
 793  69.71154
 794  185.0151
 795  300.334
 796  399.2958
 797  256.0455
 798  170.6806
 799  179.5948
 800  207.2604
 801  269.1128
 802  334.3197
 803  415.6957
 804  407.1148
 805  340.2803
 806  258.4803
 807  273.3766
 808  315.6758
 809  310.3899
 810  352.9978
 811  473.9628
 812  490.4352
 813  402.3276
 814  293.8724
 815  255.69
 816  301.4641
 817  301.8001
 818  275.3545
 819  221.9641
 820  196.3208
 821  332.5162
 822  359.1828
 823  404.4289
 824  341.6181
 825  372.1354
 826  289.2423
 827  267.801
 828  168.2779
 829  175.0278
 830  184.3113
 831  237.3884
 832  248.1612
 833  270.7885
 834  336.5002
 835  288.2293
 836  170.0535
 837  132.747
 838  217.1645
 839  295.2596
 840  199.9143
 841  286.8026
 842  367.1095
 843  506.9152
 844  417.6384
 845  386.9267
 846  329.9428
 847  348.3036
 848  244.9058
 849  233.6088
 850  294.5099
 851  409.7708
 852  496.8634
 853  457.8273
 854  387.0826
 855  303.056
 856  317.764
 857  226.5667
 858  159.9459
 859  121.4436
 860  283.2589
 861  325.4154
 862  308.4127
 863  264.1269
 864  337.0046
 865  345.6539
 866  298.9573
 867  342.6091
 868  375.6518
 869  490.5165
 870  531.0582
 871  468.4372
 872  429.9309
 873  372.2263
 874  306.6681
 875  291.8651
 876  292.6346
 877  446.3885
 878  421.3164
 879  432.5125
 880  350.7249
 881  441.8061
 882  490.2315
 883  463.0679
 884  404.8918
 885  338.5139
 886  316.7961
 887  322.8243
 888  275.7187
 889  306.6448
 890  220.5887
 891  234.5343
 892  191.4897
 893  278.0224
 894  293.4171
 895  308.2513
 896  202.8411
 897  291.8509
 898  389.1817
 899  289.8224
 900  178.6931
 901  67.36693
 902  212.7034
 903  256.2179
 904  261.2829
 905  182.7628
 906  220.7413
 907  236.9846
 908  225.9817
 909  218.3711
 910  295.0659
 911  373.0863
 912  308.7884
 913  318.0782
 914  285.5531
 915  342.6131
 916  395.292
 917  314.399
 918  248.2301
 919  164.2305
 920  345.0006
 921  373.3355
 922  397.4096
 923  276.4616
 924  245.9751
 925  298.9469
 926  347.7044
 927  474.6871
 928  567.7915
 929  500.4975
 930  394.7678
 931  270.0129
 932  268.1494
 933  283.1299
 934  354.9005
 935  436.2688
 936  395.5811
 937  419.2238
 938  451.2022
 939  403.1449
 940  342.1732
 941  320.0777
 942  249.9739
 943  179.9072
 944  123.4771
 945  134.1514
 946  199.0511
 947  239.2646
 948  320.2519
 949  289.5934
 950  324.1462
 951  328.1776
 952  336.948
 953  327.2205
 954  428.4979
 955  489.1347
 956  511.6049
 957  469.7386
 958  414.4354
 959  394.0745
 960  367.4986
 961  396.4588
 962  346.0126
 963  400.7312
 964  422.8494
 965  422.5947
 966  341.3415
 967  266.2859
 968  273.0806
 969  257.9371
 970  255.8378
 971  263.1573
 972  344.5688
 973  384.1796
 974  334.7254
 975  333.8223
 976  338.5765
 977  388.6978
 978  301.605
 979  275.4654
 980  314.5793
 981  416.7357
 982  338.7858
 983  283.456
 984  256.9345
 985  265.7921
 986  218.5747
 987  198.7361
 988  333.0828
 989  368.1442
 990  305.0795
 991  105.1134
 992  31.58874
 993  150.2008
 994  351.3392
 995  363.5764
 996  448.4761
 997  468.9181
 998  499.9455
 999  382.3538
1000  318.9835
1001  320.0155
1002  414.8036
1003  513.9697
1004  502.317
1005  381.8708
1006  386.041
1007  383.8713
1008  443.6958
1009  382.7877
1010  363.9766
1011  400.5546
1012  386.3688
1013  316.448
1014  292.3077
1015  389.9704
1016  421.4757
1017  446.4873
1018  426.9203
1019  416.8594
1020  260.8624
1021  213.0753
1022  216.4493
1023  254.1055
