# Input file       =  1203256882.095392_cleaned.dat
# Candidate        =  PSR_0332+5434
# Telescope        =  AR
# Epoch_topo       =  58170.584503418890
# Epoch_bary       =  N/A
# T_sample         =  0.002
# Data Folded      =  7340032
# Data Avg         =  0.148420547758117
# Data StdDev      =  1.00039139433797 
# Profile Bins     =  512
# Profile Avg      =  2127.91714215447 
# Profile StdDev   =  119.779899209272 
# Reduced chi-sqr  =  1.027
# Prob(Noise)      <  0.326   (~0.5 sigma)
# P_topo (ms)      =  714.580697922718  +/- 0.000739
# P'_topo (s/s)    =  -0                +/- 3.9e-10
# P''_topo (s/s^2) =  0                 +/- 1.72e-13
# P_bary (ms)      =  N/A
# P'_bary (s/s)    =  N/A
# P''_bary (s/s^2) =  N/A
# P_orb (s)        =  N/A
# asin(i)/c (s)    =  N/A
# eccentricity     =  N/A
# w (rad)          =  N/A
# T_peri           =  N/A
######################################################
   0  2243.103
   1  2244.115
   2  2233.952
   3  2272.5
   4  2199.771
   5  2191.465
   6  2179.113
   7  2098.485
   8  2114.117
   9  2110.05
  10  2147.408
  11  2201.421
  12  2195.54
  13  2164.103
  14  2108.504
  15  2154.386
  16  2144.936
  17  2066.992
  18  2034.599
  19  2100.731
  20  2106.089
  21  2100.692
  22  2152.974
  23  2124.358
  24  2043.027
  25  2045.795
  26  2133.243
  27  2208.344
  28  2110.309
  29  2062.799
  30  2045.364
  31  2011.373
  32  1999.259
  33  1998.722
  34  2096.737
  35  2102.495
  36  2164.758
  37  2102.775
  38  2048.763
  39  2042.182
  40  1996.246
  41  2043.553
  42  2133.804
  43  2051.546
  44  2017.182
  45  2036.087
  46  2075.331
  47  2006.337
  48  1985.259
  49  2052.395
  50  2129.535
  51  2156.587
  52  2141.609
  53  2140.467
  54  2164.72
  55  2169.709
  56  2053.827
  57  2064.083
  58  2093.987
  59  2106.259
  60  2041.223
  61  1994.675
  62  1999.908
  63  1980.451
  64  2019.59
  65  2067.867
  66  2020.324
  67  1994.27
  68  1980.421
  69  1906.119
  70  1828.292
  71  1933.948
  72  1938.847
  73  1920.3
  74  2007.215
  75  2059.405
  76  2099.255
  77  2064.041
  78  2065.215
  79  2045.663
  80  2080.633
  81  2029.354
  82  2041.549
  83  2098.271
  84  2106.128
  85  2054.393
  86  2064.622
  87  2119.708
  88  2137.561
  89  2100.594
  90  2050.432
  91  2132.965
  92  2065.369
  93  2031.898
  94  1995.02
  95  2010.01
  96  1992.158
  97  2045.83
  98  2117.702
  99  2153.53
 100  2159.448
 101  2128.553
 102  2182.594
 103  2186.44
 104  2126.695
 105  2178.189
 106  2158.074
 107  2102.968
 108  2008.283
 109  2078.033
 110  2195.553
 111  2162.473
 112  2120.863
 113  2049.185
 114  2041.599
 115  2081.79
 116  2122.989
 117  2147.522
 118  2228.129
 119  2176.241
 120  2139.243
 121  2159.371
 122  2124.354
 123  2180.623
 124  2223.479
 125  2180.211
 126  2151.593
 127  2178.64
 128  2214.213
 129  2210.087
 130  2218.093
 131  2201.555
 132  2206.622
 133  2302.169
 134  2309.641
 135  2252.521
 136  2144.985
 137  2186.339
 138  2228.508
 139  2202.824
 140  2244.538
 141  2236.991
 142  2223.697
 143  2202.591
 144  2210.151
 145  2231.208
 146  2203.36
 147  2244.623
 148  2282.403
 149  2263.259
 150  2244.425
 151  2259.452
 152  2274.352
 153  2268.962
 154  2245.886
 155  2290.788
 156  2319.084
 157  2272.107
 158  2218.214
 159  2203.148
 160  2157.866
 161  2188.349
 162  2186.207
 163  2242.058
 164  2309.788
 165  2303.613
 166  2224.834
 167  2247.808
 168  2273.344
 169  2367.081
 170  2244.545
 171  2242.059
 172  2206.138
 173  2181.161
 174  2256.44
 175  2302.924
 176  2266.568
 177  2203.889
 178  2211.925
 179  2292.498
 180  2193.814
 181  2217.518
 182  2256.546
 183  2217.048
 184  2197.065
 185  2225.242
 186  2224.585
 187  2204.415
 188  2230.976
 189  2269.158
 190  2265.037
 191  2252.215
 192  2286.5
 193  2232.789
 194  2179.175
 195  2180.357
 196  2209.599
 197  2252.694
 198  2322.277
 199  2300.355
 200  2268.918
 201  2232.374
 202  2281.825
 203  2286.094
 204  2227.606
 205  2218.206
 206  2193.776
 207  2285.964
 208  2375.133
 209  2283.68
 210  2318.609
 211  2281.155
 212  2281.454
 213  2249.098
 214  2215.752
 215  2260.395
 216  2196.051
 217  2178.478
 218  2197.452
 219  2126.912
 220  2088.834
 221  2220.724
 222  2125.552
 223  2132.736
 224  2122.681
 225  2132.347
 226  2069.308
 227  2068.964
 228  2175.443
 229  2150.501
 230  2137.04
 231  2069.889
 232  2035.491
 233  2045.197
 234  2065.639
 235  2096.465
 236  2059.013
 237  2062.31
 238  2104.729
 239  1997.441
 240  1986.316
 241  2083.595
 242  2124.168
 243  2119.123
 244  2057.442
 245  2079.343
 246  2097.251
 247  2058.587
 248  2113.805
 249  2062.886
 250  2012.914
 251  2013.821
 252  2073.904
 253  2095.45
 254  2016.882
 255  2002.488
 256  2051.525
 257  2119.088
 258  2164.261
 259  2125.429
 260  2145.673
 261  2180.043
 262  2182.833
 263  2144.04
 264  2012.773
 265  2036.042
 266  2019.55
 267  2032.638
 268  2089.687
 269  1998.653
 270  2096.396
 271  2156.568
 272  2138.652
 273  2088.992
 274  2067.99
 275  2200.453
 276  2196.445
 277  2161.976
 278  2212.138
 279  2152.991
 280  2122.76
 281  2155.878
 282  2196.841
 283  2125.907
 284  2142.768
 285  2215.23
 286  2229.611
 287  2153.896
 288  2173.49
 289  2144.394
 290  2183.174
 291  2201.816
 292  2153.555
 293  2143.91
 294  2168.425
 295  2155.665
 296  2108.425
 297  2080.313
 298  2131.234
 299  2130.884
 300  2189.52
 301  2139.982
 302  2111.533
 303  2085.741
 304  2101.388
 305  2124.097
 306  2126.475
 307  2068.329
 308  2045.426
 309  2037.158
 310  2066.837
 311  2119.182
 312  2158.473
 313  2103.8
 314  2024.665
 315  2101.32
 316  2129.774
 317  2136.747
 318  2101.584
 319  2105.333
 320  2065.266
 321  2050.848
 322  2080.381
 323  2072.96
 324  2092.118
 325  2046.279
 326  2073.933
 327  2202.375
 328  2132.977
 329  2016.45
 330  2055.581
 331  2111.448
 332  2118.444
 333  2156.354
 334  2130.274
 335  2181.203
 336  2106.672
 337  2125.064
 338  2168.814
 339  2233.765
 340  2195.086
 341  2175.352
 342  2157.181
 343  2218.899
 344  2215.184
 345  2187.701
 346  2183.759
 347  2218.74
 348  2191.948
 349  2206.956
 350  2223.209
 351  2188.866
 352  2176.087
 353  2225.176
 354  2237.764
 355  2182.433
 356  2147.467
 357  2207.125
 358  2193.318
 359  2184.883
 360  2157.471
 361  2130.298
 362  2125.206
 363  2193.017
 364  2213.379
 365  2222.186
 366  2162.795
 367  2158.228
 368  2156.577
 369  2095.378
 370  2121.562
 371  2173.82
 372  2194.305
 373  2254.96
 374  2192.704
 375  2182.854
 376  2274.493
 377  2301.842
 378  2201.623
 379  2134.935
 380  2185.854
 381  2197.824
 382  2136.56
 383  2170.724
 384  2116.692
 385  2065.18
 386  2128.534
 387  2156.721
 388  2134.764
 389  2066.794
 390  2022.467
 391  2094.141
 392  2133.062
 393  2058.504
 394  2059.647
 395  2117.672
 396  2083.481
 397  2014.477
 398  2036.262
 399  2042.11
 400  2048.02
 401  2091.127
 402  2026.677
 403  2052.849
 404  2074.667
 405  2137.657
 406  2125.108
 407  2175.31
 408  2119.751
 409  2084.055
 410  2052.481
 411  2067.327
 412  2066.123
 413  2101.69
 414  2163.364
 415  2154.182
 416  2028.431
 417  2006.098
 418  2056.369
 419  1961.914
 420  1942.262
 421  2016.013
 422  2028.632
 423  2032.828
 424  1999.84
 425  2005.132
 426  1941.703
 427  1935.97
 428  2016.854
 429  1976.215
 430  1928.859
 431  1980.982
 432  1982.664
 433  1943.905
 434  1942.269
 435  1967.995
 436  1999.868
 437  1995.663
 438  1939.331
 439  1981.28
 440  2003.6
 441  2006.027
 442  1970.933
 443  2103.544
 444  2078.937
 445  2076.27
 446  2066.514
 447  2007.599
 448  2010.598
 449  2041.588
 450  2059.51
 451  2054.857
 452  2047.63
 453  2021.426
 454  2081.976
 455  2087.702
 456  2020.597
 457  2071.784
 458  2077.437
 459  2063.901
 460  2082.959
 461  2029.11
 462  2032.194
 463  1990.905
 464  2019.348
 465  2049.884
 466  2051.824
 467  2051.13
 468  2041.149
 469  2040.811
 470  2011.371
 471  2066.891
 472  2114.425
 473  2090.841
 474  1997.804
 475  2009.682
 476  2053.873
 477  2105.296
 478  2160.435
 479  2103.107
 480  2084.814
 481  2122.964
 482  2149.35
 483  2207.075
 484  2213.137
 485  2194.16
 486  2209.1
 487  2191.103
 488  2139.545
 489  2225.496
 490  2257.463
 491  2193.776
 492  2183.353
 493  2220.708
 494  2216.83
 495  2172.286
 496  2200.041
 497  2257.321
 498  2077.299
 499  2142.478
 500  2098.511
 501  2124.599
 502  2120.381
 503  2125.656
 504  2236.02
 505  2187.004
 506  2156.644
 507  2120.09
 508  2126.454
 509  2144.684
 510  2151.341
 511  2206.907
