# Input file       =  1203871285.120302-PSRB0329-2ms-sampling-dd.dat
# Candidate        =  PSR_0332+5434
# Telescope        =  AR
# Epoch_topo       =  58177.695649540532
# Epoch_bary       =  N/A
# T_sample         =  0.002
# Data Folded      =  7340032
# Data Avg         =  -1.05871841473651e-10
# Data StdDev      =  14.2044387419847 
# Profile Bins     =  512
# Profile Avg      =  -0.00434086022632381
# Profile StdDev   =  1700.7405806056  
# Reduced chi-sqr  =  0.495
# Prob(Noise)      <  1   (~0.0 sigma)
# P_topo (ms)      =  714.580777965392  +/- 0.00204
# P'_topo (s/s)    =  -0                +/- 1.07e-09
# P''_topo (s/s^2) =  0                 +/- 4.75e-13
# P_bary (ms)      =  N/A
# P'_bary (s/s)    =  N/A
# P''_bary (s/s^2) =  N/A
# P_orb (s)        =  N/A
# asin(i)/c (s)    =  N/A
# eccentricity     =  N/A
# w (rad)          =  N/A
# T_peri           =  N/A
######################################################
   0  653.3623
   1  715.4874
   2  322.9098
   3  269.1352
   4  78.0072
   5  213.8564
   6  287.2016
   7  419.4435
   8  98.47276
   9  -353.9723
  10  -471.5163
  11  -717.8986
  12  -1176.49
  13  -907.752
  14  -1144.547
  15  -801.4659
  16  -505.8406
  17  -352.3093
  18  -176.3746
  19  -33.2398
  20  -482.0844
  21  -1135.392
  22  -1388.87
  23  -872.1506
  24  -325.733
  25  175.7412
  26  3.17204
  27  -380.3548
  28  -394.7811
  29  -304.2411
  30  -258.4598
  31  -381.2256
  32  -753.4211
  33  -709.1246
  34  -565.2797
  35  -386.4181
  36  -875.368
  37  -1184.409
  38  -1326.939
  39  -872.4026
  40  -261.3899
  41  -3.794896
  42  -230.8714
  43  327.1382
  44  295.907
  45  450.1901
  46  507.835
  47  -41.86972
  48  86.97337
  49  140.0596
  50  402.4421
  51  351.257
  52  60.35445
  53  59.95665
  54  308.1891
  55  -85.08469
  56  -369.5068
  57  -462.6025
  58  -847.6076
  59  -1295.505
  60  -1234.63
  61  -1078.166
  62  -736.1061
  63  -789.8979
  64  -876.9669
  65  -346.0073
  66  -537.6271
  67  -844.6872
  68  -356.3974
  69  -618.3972
  70  -472.4122
  71  -534.757
  72  -370.0879
  73  -81.3404
  74  66.31268
  75  61.34132
  76  -280.7041
  77  -512.2631
  78  -756.4514
  79  -1117.025
  80  -695.9505
  81  -438.2464
  82  -372.3576
  83  -648.803
  84  -846.3129
  85  -1227.349
  86  -975.5975
  87  -1056.39
  88  -1407.581
  89  -1797.551
  90  -1887.53
  91  -1708.789
  92  -1200.876
  93  -1768.544
  94  -2425.177
  95  -1843.117
  96  -1611.938
  97  -1561.315
  98  -1226.45
  99  -1332.705
 100  -1030.449
 101  -923.726
 102  -770.9288
 103  -860.6986
 104  -987.4623
 105  -872.4336
 106  -571.0157
 107  -120.7122
 108  -418.5726
 109  -522.548
 110  -623.7966
 111  -1150.906
 112  -1628.798
 113  -2020.739
 114  -1686.359
 115  -1203.662
 116  -1401.314
 117  -1526.959
 118  -2256.369
 119  -2078.622
 120  -1944.67
 121  -1634.162
 122  -1147.578
 123  -1093.914
 124  -1072.803
 125  -1114.683
 126  -1222.799
 127  -761.2963
 128  -648.4222
 129  -1070.585
 130  -1504.306
 131  -1338.541
 132  -865.6705
 133  -1072.311
 134  -1514.014
 135  -711.9546
 136  -917.5223
 137  -1215.167
 138  -1645.077
 139  -1160.46
 140  -920.4222
 141  -720.541
 142  -1082.596
 143  -1317.363
 144  -895.0238
 145  -550.5089
 146  -805.3449
 147  -899.0612
 148  -594.2678
 149  -205.7015
 150  -247.4353
 151  -402.2897
 152  -827.2466
 153  -699.5533
 154  -508.3289
 155  -498.8216
 156  -132.1516
 157  -194.7138
 158  -268.0041
 159  -76.25408
 160  -231.6057
 161  197.8783
 162  569.1604
 163  94.77552
 164  206.1563
 165  659.8906
 166  432.1422
 167  66.55957
 168  1.60666
 169  425.1907
 170  149.7067
 171  118.959
 172  340.9637
 173  106.8785
 174  193.7119
 175  230.1796
 176  -9.794104
 177  -332.1072
 178  -504.0379
 179  -726.41
 180  -899.3352
 181  -643.4252
 182  -38.10162
 183  -515.2747
 184  -1028.992
 185  -1346.178
 186  -1351.703
 187  -1413.903
 188  -1281.711
 189  -1434.66
 190  -1400.883
 191  -1026.058
 192  -1315.33
 193  -1310.655
 194  -946.7342
 195  -796.2692
 196  -281.5038
 197  -210.8791
 198  182.3588
 199  343.2567
 200  609.3269
 201  587.6895
 202  369.6758
 203  71.73048
 204  -108.4745
 205  24.96856
 206  511.0721
 207  985.1555
 208  681.2171
 209  475.4247
 210  358.0995
 211  29.42159
 212  539.8704
 213  555.8099
 214  357.7467
 215  327.3566
 216  589.3672
 217  497.5013
 218  336.1264
 219  209.7061
 220  373.1353
 221  389.157
 222  -20.13734
 223  355.9237
 224  556.2887
 225  1112.324
 226  1248.282
 227  1459.199
 228  874.7949
 229  738.0075
 230  1331.592
 231  1298.846
 232  1779.248
 233  1966.16
 234  1577.02
 235  1496.818
 236  1653.628
 237  1619.585
 238  1836.156
 239  1585.248
 240  1423.235
 241  1104.359
 242  716.3405
 243  829.1309
 244  856.7604
 245  1150.428
 246  1361.983
 247  1130.975
 248  746.1349
 249  820.8287
 250  932.9805
 251  1146.424
 252  1223.422
 253  1137.216
 254  1301.478
 255  1333.049
 256  1561.774
 257  1668.065
 258  1928.016
 259  1280.231
 260  1315.495
 261  1529.143
 262  1307.995
 263  1242.283
 264  1461.733
 265  1739.27
 266  1418.564
 267  1314.393
 268  1332.441
 269  1241.574
 270  1003.394
 271  1009.592
 272  1058.594
 273  1255.029
 274  997.2639
 275  962.1089
 276  560.9265
 277  657.3804
 278  989.1456
 279  1523.62
 280  1660.972
 281  1540.465
 282  1054.178
 283  890.9684
 284  1345.37
 285  1862.98
 286  2039.709
 287  1625.551
 288  873.5695
 289  234.6194
 290  762.0342
 291  910.6544
 292  655.0277
 293  616.2222
 294  408.118
 295  240.9565
 296  592.224
 297  193.7532
 298  372.6821
 299  505.3573
 300  481.7863
 301  -10.28163
 302  191.2857
 303  271.7542
 304  -44.31985
 305  257.6494
 306  168.1991
 307  -186.9957
 308  -306.0463
 309  -95.01362
 310  30.91712
 311  -781.0737
 312  -1083.097
 313  -775.3317
 314  -461.1104
 315  -246.5154
 316  -212.2774
 317  -81.11133
 318  -386.05
 319  -766.2979
 320  -754.9345
 321  -700.372
 322  -251.2813
 323  -94.32029
 324  107.0936
 325  -129.0001
 326  -246.5585
 327  -315.1764
 328  -654.7884
 329  -167.2064
 330  298.9893
 331  389.2744
 332  383.027
 333  201.6396
 334  287.8782
 335  553.4239
 336  781.3748
 337  257.3052
 338  -385.5735
 339  -303.4114
 340  -393.0428
 341  -48.60967
 342  -70.14262
 343  157.0805
 344  -76.9587
 345  87.91721
 346  374.6881
 347  667.9604
 348  472.1869
 349  592.8047
 350  710.59
 351  802.6887
 352  961.7276
 353  869.5169
 354  988.0297
 355  597.1396
 356  649.3279
 357  1346.42
 358  1588.064
 359  1414.935
 360  1712.161
 361  1785.67
 362  1235.699
 363  1163.965
 364  1593.485
 365  955.9327
 366  1468.312
 367  1379.863
 368  1295.06
 369  1327.633
 370  987.8737
 371  1298.284
 372  1231.955
 373  1245.099
 374  995.6766
 375  1053.442
 376  732.0391
 377  672.7722
 378  363.9266
 379  337.5204
 380  879.2338
 381  1275.037
 382  1221.58
 383  867.9719
 384  822.8171
 385  920.5869
 386  640.0081
 387  558.9474
 388  1066.39
 389  1236.843
 390  1152.628
 391  951.9195
 392  764.7649
 393  519.0383
 394  496.0672
 395  611.3312
 396  1006.905
 397  683.3373
 398  580.126
 399  715.1481
 400  440.7928
 401  425.9341
 402  834.5213
 403  557.9992
 404  460.7587
 405  838.1872
 406  554.1098
 407  671.2898
 408  611.4437
 409  592.3103
 410  533.29
 411  495.266
 412  345.1111
 413  457.6142
 414  468.0959
 415  5.836771
 416  -23.25691
 417  -201.1865
 418  -100.1499
 419  -99.4129
 420  -110.2871
 421  -543.4251
 422  -291.6795
 423  10.4505
 424  -482.1406
 425  47.80698
 426  -74.22097
 427  -203.8669
 428  -112.3803
 429  -15.75656
 430  -55.13858
 431  -50.25921
 432  -33.9863
 433  -32.7217
 434  263.5625
 435  -391.9721
 436  -245.2444
 437  22.08488
 438  -76.90346
 439  128.4473
 440  535.6017
 441  690.2298
 442  795.2245
 443  -278.3258
 444  -689.9274
 445  -421.6248
 446  -185.2486
 447  474.7887
 448  423.9422
 449  376.9172
 450  -418.6473
 451  -722.0258
 452  -1057.349
 453  -626.9352
 454  -222.2396
 455  -414.9684
 456  -235.8166
 457  -22.67382
 458  -139.8969
 459  -444.573
 460  -723.1524
 461  -812.6383
 462  -945.1503
 463  -681.319
 464  -655.9152
 465  -942.4813
 466  -1067.179
 467  -394.214
 468  -255.9333
 469  -350.5333
 470  -594.1179
 471  -180.611
 472  -83.76963
 473  -340.906
 474  -616.963
 475  48.27353
 476  43.69254
 477  -109.5216
 478  -524.048
 479  -560.4233
 480  -1133.637
 481  -1262.32
 482  -580.3823
 483  -764.3182
 484  -1019.058
 485  -1255.842
 486  -1112.976
 487  -1045.701
 488  -1394.293
 489  -1036.363
 490  -1169.599
 491  -1333.526
 492  -1042.16
 493  -442.3672
 494  104.4728
 495  -106.8871
 496  -644.8148
 497  -247.5367
 498  161.2105
 499  170.0325
 500  143.6758
 501  611.1367
 502  563.518
 503  501.0716
 504  787.7076
 505  128.2052
 506  -309.207
 507  -168.6182
 508  609.3265
 509  612.2435
 510  477.8704
 511  927.2291
