# Input file       =  1203170730.198393_cleaned.dat
# Candidate        =  PSR_0332+5434
# Telescope        =  AR
# Epoch_topo       =  58169.587374981398
# Epoch_bary       =  N/A
# T_sample         =  0.002
# Data Folded      =  7340032
# Data Avg         =  -0.740075933349932
# Data StdDev      =  7.31245225558925 
# Profile Bins     =  1024
# Profile Avg      =  -5304.83153066465
# Profile StdDev   =  619.101764554319 
# Reduced chi-sqr  =  0.336
# Prob(Noise)      <  1   (~0.0 sigma)
# P_topo (ms)      =  714.580647650038  +/- 0.00107
# P'_topo (s/s)    =  -0                +/- 5.65e-10
# P''_topo (s/s^2) =  0                 +/- 2.5e-13
# P_bary (ms)      =  N/A
# P'_bary (s/s)    =  N/A
# P''_bary (s/s^2) =  N/A
# P_orb (s)        =  N/A
# asin(i)/c (s)    =  N/A
# eccentricity     =  N/A
# w (rad)          =  N/A
# T_peri           =  N/A
######################################################
   0  -5466.928
   1  -5438.866
   2  -5437.953
   3  -5388.947
   4  -5418.466
   5  -5346.424
   6  -5364.833
   7  -5432.384
   8  -5540.646
   9  -5514.379
  10  -5361.464
  11  -5422.401
  12  -5471.412
  13  -5436.179
  14  -5499.516
  15  -5464.537
  16  -5496.216
  17  -5474.235
  18  -5390.146
  19  -5422.554
  20  -5380.239
  21  -5433.247
  22  -5517.02
  23  -5708.541
  24  -5688.948
  25  -5659.385
  26  -5549.915
  27  -5467.499
  28  -5422.411
  29  -5447.129
  30  -5413.842
  31  -5405.774
  32  -5382.792
  33  -5395.652
  34  -5416.52
  35  -5454.968
  36  -5487.41
  37  -5400.653
  38  -5333.489
  39  -5301.191
  40  -5186.368
  41  -5237.231
  42  -5167.008
  43  -5218.584
  44  -5242.512
  45  -5284.925
  46  -5300.114
  47  -5195.615
  48  -5221.064
  49  -5372.083
  50  -5502.028
  51  -5536.602
  52  -5473.524
  53  -5476.821
  54  -5439.709
  55  -5492.283
  56  -5437.912
  57  -5447.99
  58  -5453.221
  59  -5483.156
  60  -5472.369
  61  -5526.97
  62  -5536.785
  63  -5478.709
  64  -5375.029
  65  -5379.154
  66  -5449.715
  67  -5515.981
  68  -5540.931
  69  -5479.906
  70  -5394.336
  71  -5443.582
  72  -5480.839
  73  -5502.05
  74  -5379.481
  75  -5343.236
  76  -5382.333
  77  -5435.839
  78  -5414.674
  79  -5411.068
  80  -5399.667
  81  -5355.255
  82  -5283.978
  83  -5341.377
  84  -5348.665
  85  -5530.477
  86  -5486.779
  87  -5457.403
  88  -5343.313
  89  -5403.873
  90  -5220.065
  91  -5075.201
  92  -4922.222
  93  -4912.759
  94  -4913.52
  95  -4867.386
  96  -4887.14
  97  -4925.011
  98  -5010.188
  99  -5129.237
 100  -5227.163
 101  -5336.437
 102  -5215.405
 103  -5232.232
 104  -5303.148
 105  -5333.294
 106  -5204.469
 107  -5128.862
 108  -5181.571
 109  -5203.397
 110  -5142.599
 111  -5013.75
 112  -4874.843
 113  -5021.223
 114  -5167.142
 115  -5232.766
 116  -5105.825
 117  -5139.268
 118  -5129.951
 119  -5190.888
 120  -5112.01
 121  -5125.098
 122  -5222.79
 123  -5380.853
 124  -5301.829
 125  -5294.371
 126  -5345.664
 127  -5279.425
 128  -5318.336
 129  -5305.438
 130  -5329.104
 131  -5109.386
 132  -4991.824
 133  -4925.816
 134  -4941.564
 135  -4998.196
 136  -5027.517
 137  -5128.299
 138  -5131.614
 139  -5207.276
 140  -5289.864
 141  -5340.485
 142  -5390.299
 143  -5305.469
 144  -5247.963
 145  -5061.4
 146  -5174.975
 147  -5225.861
 148  -5292.626
 149  -5198.689
 150  -5238.178
 151  -5258.778
 152  -5425.135
 153  -5563.869
 154  -5775.029
 155  -5620.887
 156  -5558.408
 157  -5462.575
 158  -5571.746
 159  -5572.538
 160  -5560.825
 161  -5467
 162  -5437.41
 163  -5323.746
 164  -5215.607
 165  -5180.708
 166  -5280.656
 167  -5271.673
 168  -5340.766
 169  -5267.358
 170  -5325.716
 171  -5302.774
 172  -5324.596
 173  -5351.872
 174  -5340.69
 175  -5305.709
 176  -5354.65
 177  -5425.72
 178  -5446.911
 179  -5430.521
 180  -5438.07
 181  -5338.68
 182  -5349.314
 183  -5313.779
 184  -5489.063
 185  -5499.19
 186  -5482.455
 187  -5392.973
 188  -5323.935
 189  -5295.817
 190  -5469.119
 191  -5502.659
 192  -5475.979
 193  -5444.803
 194  -5512.617
 195  -5516.619
 196  -5524.424
 197  -5539.853
 198  -5491.011
 199  -5449.268
 200  -5363.686
 201  -5474.414
 202  -5393.715
 203  -5373.596
 204  -5274.863
 205  -5259.872
 206  -5286.933
 207  -5190.957
 208  -5274.249
 209  -5369.426
 210  -5519.703
 211  -5545.667
 212  -5564.842
 213  -5451.426
 214  -5369.292
 215  -5264.296
 216  -5361.814
 217  -5373.894
 218  -5418.704
 219  -5401.631
 220  -5466.393
 221  -5385.264
 222  -5438.667
 223  -5423.208
 224  -5383.631
 225  -5383.517
 226  -5294.882
 227  -5401.706
 228  -5364.817
 229  -5445.618
 230  -5347.668
 231  -5449.478
 232  -5505.438
 233  -5476.744
 234  -5379.89
 235  -5281.392
 236  -5247.881
 237  -5298.97
 238  -5398.35
 239  -5335.322
 240  -5265.674
 241  -5289.533
 242  -5273.784
 243  -5285.184
 244  -5321.603
 245  -5363.722
 246  -5415.638
 247  -5437.209
 248  -5358.822
 249  -5332.023
 250  -5399.079
 251  -5454.966
 252  -5520.426
 253  -5440.53
 254  -5332.431
 255  -5247.658
 256  -5193.928
 257  -5183.988
 258  -5073.91
 259  -5119.954
 260  -5142.325
 261  -5131.775
 262  -5131.427
 263  -5088.911
 264  -5010.647
 265  -5056.748
 266  -5171.045
 267  -5340.271
 268  -5353.699
 269  -5369.111
 270  -5384.565
 271  -5442.121
 272  -5381.283
 273  -5318.462
 274  -5228.823
 275  -5160.494
 276  -5294.082
 277  -5327.706
 278  -5309.671
 279  -5245.899
 280  -5441.176
 281  -5539.626
 282  -5506.702
 283  -5505.218
 284  -5479.697
 285  -5603.293
 286  -5532.685
 287  -5427.078
 288  -5302.687
 289  -5377.567
 290  -5373.579
 291  -5440.173
 292  -5450.75
 293  -5436.936
 294  -5387.097
 295  -5428.369
 296  -5398.324
 297  -5340.847
 298  -5277.626
 299  -5288.528
 300  -5218.522
 301  -5278.275
 302  -5340.39
 303  -5385.646
 304  -5397.829
 305  -5477.333
 306  -5513.67
 307  -5554.873
 308  -5499.108
 309  -5408.348
 310  -5358.06
 311  -5367.759
 312  -5348.58
 313  -5288.674
 314  -5228.481
 315  -5312.561
 316  -5291.776
 317  -5231.522
 318  -5133.081
 319  -5306.957
 320  -5408.571
 321  -5328.587
 322  -5222.29
 323  -5159.86
 324  -5196.994
 325  -5297.642
 326  -5400.279
 327  -5521.134
 328  -5493.608
 329  -5527.86
 330  -5520.577
 331  -5503.504
 332  -5388.846
 333  -5230.065
 334  -5228.051
 335  -5355.515
 336  -5424.027
 337  -5415.354
 338  -5485.914
 339  -5469.389
 340  -5404.292
 341  -5354.439
 342  -5363.355
 343  -5521.215
 344  -5516.197
 345  -5479.121
 346  -5433.387
 347  -5574.811
 348  -5638.792
 349  -5637.267
 350  -5620.214
 351  -5686.854
 352  -5754.326
 353  -5640.358
 354  -5602.855
 355  -5497.164
 356  -5389.309
 357  -5207.93
 358  -5227.848
 359  -5277.527
 360  -5232.272
 361  -5159.029
 362  -5149.021
 363  -5047.3
 364  -4999.37
 365  -5120.373
 366  -5239.39
 367  -5204.834
 368  -5130.46
 369  -5150.292
 370  -5195.166
 371  -5198.365
 372  -5251.133
 373  -5224.936
 374  -5168.102
 375  -4967.854
 376  -4962.022
 377  -5016.16
 378  -5038.631
 379  -4975.752
 380  -4978.92
 381  -5032.048
 382  -5074.374
 383  -5263.907
 384  -5176.508
 385  -5126.75
 386  -4892.143
 387  -4901.419
 388  -4945.154
 389  -5111.495
 390  -5193.922
 391  -5174.581
 392  -5172.049
 393  -5179.01
 394  -5236.768
 395  -5235.518
 396  -5279.685
 397  -5368.287
 398  -5353.857
 399  -5333.126
 400  -5148.561
 401  -5137.751
 402  -5014.763
 403  -5072.824
 404  -5217.823
 405  -5241.274
 406  -5177.901
 407  -5134.073
 408  -5131.488
 409  -5024.251
 410  -5016.068
 411  -5152.845
 412  -5329.642
 413  -5318.158
 414  -5256.746
 415  -5359.455
 416  -5493.614
 417  -5444.583
 418  -5324.486
 419  -5353.186
 420  -5357.53
 421  -5192.66
 422  -5227.206
 423  -5352.899
 424  -5546.2
 425  -5442.924
 426  -5461.146
 427  -5476.673
 428  -5527.5
 429  -5481.96
 430  -5294.023
 431  -5277.999
 432  -5266.864
 433  -5444.116
 434  -5472.514
 435  -5475.28
 436  -5494.026
 437  -5662.426
 438  -5749.949
 439  -5568.764
 440  -5623.658
 441  -5713.975
 442  -5723.414
 443  -5534.437
 444  -5434.091
 445  -5576.672
 446  -5510.271
 447  -5520.818
 448  -5483.361
 449  -5547.329
 450  -5555.899
 451  -5633.345
 452  -5683.724
 453  -5572.06
 454  -5406.593
 455  -5394.445
 456  -5581.347
 457  -5592.276
 458  -5551.545
 459  -5503.008
 460  -5320.359
 461  -5291.562
 462  -5369.247
 463  -5631.383
 464  -5674.877
 465  -5690.693
 466  -5680.389
 467  -5619.755
 468  -5487.329
 469  -5326.693
 470  -5300.453
 471  -5359.548
 472  -5488.902
 473  -5474.191
 474  -5428.208
 475  -5359.821
 476  -5381.974
 477  -5374.857
 478  -5312.95
 479  -5448.671
 480  -5538.266
 481  -5514.251
 482  -5357.691
 483  -5433.402
 484  -5491.561
 485  -5468.752
 486  -5462.099
 487  -5428.847
 488  -5399.621
 489  -5393.562
 490  -5517.502
 491  -5572.261
 492  -5618.454
 493  -5542.944
 494  -5395.317
 495  -5340.081
 496  -5314.31
 497  -5539.837
 498  -5541.302
 499  -5502.249
 500  -5395.462
 501  -5377.581
 502  -5427.215
 503  -5394.461
 504  -5372.146
 505  -5326.643
 506  -5473.922
 507  -5625.849
 508  -5578.791
 509  -5504.114
 510  -5503.073
 511  -5583.454
 512  -5517.249
 513  -5471.705
 514  -5597.151
 515  -5730.864
 516  -5715.583
 517  -5711.251
 518  -5722.568
 519  -5778.391
 520  -5558.325
 521  -5482.94
 522  -5607.536
 523  -5839.653
 524  -5929.508
 525  -5749.9
 526  -5568.27
 527  -5532.061
 528  -5487.645
 529  -5549.757
 530  -5492.995
 531  -5518.007
 532  -5513.274
 533  -5511.54
 534  -5510.171
 535  -5522.533
 536  -5481.078
 537  -5390.689
 538  -5227.898
 539  -5187.447
 540  -5199.26
 541  -5233.139
 542  -5164.481
 543  -5189.042
 544  -5173.62
 545  -5135.99
 546  -5145.581
 547  -5174.242
 548  -5280.422
 549  -5275.054
 550  -5287.078
 551  -5197.52
 552  -5114.303
 553  -5076.521
 554  -5099.572
 555  -5142.486
 556  -5148.336
 557  -5106.777
 558  -5026.512
 559  -4859.734
 560  -4844.416
 561  -4965.149
 562  -5207.502
 563  -5180.938
 564  -5121.881
 565  -5113.033
 566  -5201.071
 567  -5175.237
 568  -5258.848
 569  -5096.68
 570  -4913.092
 571  -4809.372
 572  -4985.547
 573  -5128.987
 574  -5202.796
 575  -5229.342
 576  -5255.924
 577  -5164.115
 578  -5213.467
 579  -5240.394
 580  -5336.263
 581  -5375.655
 582  -5283.455
 583  -5317.646
 584  -5278.591
 585  -5292.766
 586  -5255.863
 587  -5289.604
 588  -5306.185
 589  -5302.004
 590  -5317.113
 591  -5276.419
 592  -5204.401
 593  -5021.226
 594  -5039.933
 595  -5175.838
 596  -5281.313
 597  -5178.689
 598  -4997.485
 599  -4877.869
 600  -5013.419
 601  -5057.611
 602  -5164.85
 603  -5142.584
 604  -5123.449
 605  -5185.287
 606  -5140.612
 607  -5095.838
 608  -4992.663
 609  -4873.069
 610  -4760.007
 611  -4661.345
 612  -4642.691
 613  -4683.863
 614  -4799.372
 615  -4854.727
 616  -4865.768
 617  -5027.272
 618  -5058.727
 619  -5263.042
 620  -5318.755
 621  -5340.688
 622  -5224.347
 623  -5121.795
 624  -5034.942
 625  -4993.907
 626  -5043.623
 627  -5066.299
 628  -5049.363
 629  -4955.81
 630  -4917.375
 631  -4870.719
 632  -5003.925
 633  -5033.292
 634  -5073.209
 635  -4887.259
 636  -4885.755
 637  -4938.247
 638  -5121.371
 639  -5178.792
 640  -5078.683
 641  -5006.572
 642  -4929.251
 643  -4951.983
 644  -4889.542
 645  -4903.909
 646  -4895.704
 647  -4955.277
 648  -5073.302
 649  -5184.797
 650  -5235.066
 651  -5342.695
 652  -5421.897
 653  -5646.736
 654  -5523.726
 655  -5363.181
 656  -5252.62
 657  -5272.972
 658  -5351.846
 659  -5230.944
 660  -5182.436
 661  -5208.923
 662  -5375.514
 663  -5463.16
 664  -5448.857
 665  -5314.917
 666  -5308.448
 667  -5245.319
 668  -5386.829
 669  -5455.592
 670  -5531.909
 671  -5347.723
 672  -5313.308
 673  -5252.093
 674  -5330.92
 675  -5361.09
 676  -5431.341
 677  -5528.496
 678  -5441.267
 679  -5357.622
 680  -5401.756
 681  -5403.959
 682  -5370.195
 683  -5261.084
 684  -5278.827
 685  -5351.918
 686  -5361.885
 687  -5605.83
 688  -5613.587
 689  -5431.987
 690  -5395.628
 691  -5498.938
 692  -5577.271
 693  -5401.969
 694  -5422.223
 695  -5423.495
 696  -5445.974
 697  -5334.722
 698  -5368.52
 699  -5415.94
 700  -5424.133
 701  -5370.126
 702  -5364.282
 703  -5225.167
 704  -5212.881
 705  -5188.506
 706  -5312.529
 707  -5441.035
 708  -5504.955
 709  -5614.018
 710  -5624.427
 711  -5616.578
 712  -5639.644
 713  -5664.005
 714  -5636.289
 715  -5614.15
 716  -5629.177
 717  -5538.496
 718  -5562.908
 719  -5575.679
 720  -5644.346
 721  -5461.469
 722  -5362.698
 723  -5367.733
 724  -5500.174
 725  -5553.638
 726  -5702.022
 727  -5762.346
 728  -5772.679
 729  -5654.892
 730  -5602.103
 731  -5699.65
 732  -5760.951
 733  -5600.195
 734  -5435.913
 735  -5519.396
 736  -5604.477
 737  -5672.375
 738  -5556.729
 739  -5537.157
 740  -5581.788
 741  -5517.907
 742  -5438.167
 743  -5330.8
 744  -5392.449
 745  -5558.333
 746  -5626.202
 747  -5645.836
 748  -5603.537
 749  -5557.914
 750  -5496.899
 751  -5409.64
 752  -5338.979
 753  -5337.008
 754  -5381.76
 755  -5343.931
 756  -5443.651
 757  -5370.875
 758  -5399.143
 759  -5410.85
 760  -5426.94
 761  -5365.009
 762  -5313.694
 763  -5193.953
 764  -5196.215
 765  -5100.48
 766  -5137.802
 767  -5131.434
 768  -5133.244
 769  -5105.289
 770  -5011.028
 771  -5021.768
 772  -5028.069
 773  -5044.014
 774  -5100.877
 775  -5159.323
 776  -5189.034
 777  -5185.744
 778  -5122.426
 779  -5023.11
 780  -5123.29
 781  -5056.586
 782  -5094.381
 783  -5121.975
 784  -5271.269
 785  -5248.697
 786  -5100.015
 787  -4956.716
 788  -4906.396
 789  -5035.408
 790  -5140.068
 791  -5152.457
 792  -5131.802
 793  -5128.975
 794  -5172.109
 795  -5188.069
 796  -5251.807
 797  -5179.276
 798  -5157.216
 799  -5131.24
 800  -5111.124
 801  -5233.649
 802  -5469.84
 803  -5449.928
 804  -5365.322
 805  -5265.347
 806  -5201.842
 807  -5121.976
 808  -5093.326
 809  -5066.204
 810  -5038.34
 811  -5044.268
 812  -5053.702
 813  -5068.415
 814  -5175.734
 815  -5204.046
 816  -5261.653
 817  -5201.727
 818  -5253.193
 819  -5297.733
 820  -5380.076
 821  -5275.412
 822  -5255.428
 823  -5141.256
 824  -5188.583
 825  -5161.749
 826  -4998.41
 827  -4796.277
 828  -4758.636
 829  -4926.738
 830  -5154.935
 831  -5246.358
 832  -5263.896
 833  -5188.767
 834  -5215.235
 835  -5208.816
 836  -5205.167
 837  -5092.334
 838  -5124.459
 839  -5177.992
 840  -5211.116
 841  -5185.096
 842  -5130.114
 843  -5059.377
 844  -5089.967
 845  -5074.065
 846  -5243.183
 847  -5295.656
 848  -5387.668
 849  -5386.103
 850  -5409.136
 851  -5321.555
 852  -5351.856
 853  -5325.529
 854  -5394.406
 855  -5368.822
 856  -5376.87
 857  -5338.034
 858  -5257.267
 859  -5239.609
 860  -5240.447
 861  -5274.131
 862  -5236.694
 863  -5163.861
 864  -5071.743
 865  -5017.337
 866  -5061.667
 867  -5283.568
 868  -5370.854
 869  -5187.391
 870  -4895.445
 871  -4858.887
 872  -4881.446
 873  -4933.535
 874  -4954.333
 875  -4952.287
 876  -4866.158
 877  -4820.313
 878  -4734.708
 879  -4832.089
 880  -4918.978
 881  -5000.362
 882  -5030.867
 883  -5055.668
 884  -4990.821
 885  -5069.373
 886  -5165.194
 887  -5195.727
 888  -5193.182
 889  -5109.834
 890  -4982.335
 891  -4850.438
 892  -4841.973
 893  -4878.689
 894  -4957.706
 895  -5082.261
 896  -5069.595
 897  -4925.017
 898  -4892.975
 899  -4962.652
 900  -5082.518
 901  -5293.935
 902  -5373.681
 903  -5226.932
 904  -5202.646
 905  -5250.556
 906  -5291.989
 907  -5260.668
 908  -5180.741
 909  -5118.346
 910  -5162.234
 911  -5109.441
 912  -5080.044
 913  -5206.064
 914  -5305.638
 915  -5379.006
 916  -5397.591
 917  -5386.568
 918  -5382.875
 919  -5406.547
 920  -5392.71
 921  -5345.716
 922  -5287.16
 923  -5146.584
 924  -5164.864
 925  -5168.081
 926  -5133.03
 927  -5076.412
 928  -5214.257
 929  -5306.657
 930  -5219.809
 931  -5116.733
 932  -5173.825
 933  -5093.21
 934  -5259.776
 935  -5414.356
 936  -5493.154
 937  -5377.334
 938  -5287.469
 939  -5190.015
 940  -5071.956
 941  -4915.407
 942  -4959.613
 943  -5075.071
 944  -5296.336
 945  -5354.932
 946  -5528.137
 947  -5509.511
 948  -5301.606
 949  -5336.245
 950  -5341.055
 951  -5318.044
 952  -5219.291
 953  -5322.353
 954  -5308.665
 955  -5268.078
 956  -5196.777
 957  -5209.331
 958  -5129.738
 959  -5308.732
 960  -5469.946
 961  -5569.498
 962  -5498.736
 963  -5446.952
 964  -5434.183
 965  -5402.093
 966  -5344.935
 967  -5340.478
 968  -5392.155
 969  -5363.47
 970  -5358.022
 971  -5411.382
 972  -5336.405
 973  -5261.34
 974  -5179.134
 975  -5246.042
 976  -5150.319
 977  -5117.734
 978  -5190.267
 979  -5304.895
 980  -5292.238
 981  -5210.929
 982  -5213.608
 983  -5259.731
 984  -5231.601
 985  -5180.644
 986  -5196.86
 987  -5180.004
 988  -5161.044
 989  -5150.822
 990  -5229.814
 991  -5169.517
 992  -5138.473
 993  -5057.167
 994  -5065.181
 995  -5161.139
 996  -5256.403
 997  -5303.009
 998  -5357.524
 999  -5490.132
1000  -5520.482
1001  -5422.063
1002  -5366.284
1003  -5386.211
1004  -5505.565
1005  -5517.079
1006  -5490.996
1007  -5530.758
1008  -5492.739
1009  -5443.819
1010  -5408.865
1011  -5375.958
1012  -5328.879
1013  -5234.277
1014  -5379.25
1015  -5500.129
1016  -5652.761
1017  -5585.018
1018  -5464.862
1019  -5256.182
1020  -5193.568
1021  -5269.278
1022  -5445.935
1023  -5569.113
