# Input file       =  1203075975.116474_cleaned.dat
# Candidate        =  PSR_0332+5434
# Telescope        =  AR
# Epoch_topo       =  58168.490672644373
# Epoch_bary       =  N/A
# T_sample         =  0.002
# Data Folded      =  7340032
# Data Avg         =  1.20845480690124 
# Data StdDev      =  5.89089126609418 
# Profile Bins     =  512
# Profile Avg      =  17323.9088787477 
# Profile StdDev   =  705.334298254828 
# Reduced chi-sqr  =  0.953
# Prob(Noise)      <  0.772   (~0.0 sigma)
# P_topo (ms)      =  714.580508839591  +/- 0.00118
# P'_topo (s/s)    =  -0                +/- 6.25e-10
# P''_topo (s/s^2) =  0                 +/- 2.76e-13
# P_bary (ms)      =  N/A
# P'_bary (s/s)    =  N/A
# P''_bary (s/s^2) =  N/A
# P_orb (s)        =  N/A
# asin(i)/c (s)    =  N/A
# eccentricity     =  N/A
# w (rad)          =  N/A
# T_peri           =  N/A
######################################################
   0  17887.48
   1  17483.38
   2  17192.59
   3  17166.44
   4  17167.3
   5  17254.74
   6  17174.56
   7  17089.56
   8  17001.14
   9  17004.59
  10  17195.97
  11  17254.41
  12  16889.12
  13  16876.38
  14  17390.86
  15  17577.74
  16  17836.42
  17  17778.13
  18  17739.04
  19  17136.6
  20  17053.78
  21  17189.08
  22  17358.38
  23  17499.79
  24  17601.89
  25  17563.8
  26  17625.31
  27  17619.45
  28  17422.14
  29  17433.26
  30  17420.04
  31  17262.28
  32  16955.79
  33  17409.35
  34  17149.08
  35  16988.46
  36  17010.27
  37  17192.84
  38  17065.23
  39  16888.99
  40  16937.96
  41  17029.54
  42  16894.43
  43  17154.68
  44  17230.71
  45  17214.9
  46  16973.65
  47  17179.29
  48  17137.45
  49  17340.03
  50  17195.18
  51  17051.13
  52  17115.34
  53  16924.91
  54  17082.14
  55  16971.12
  56  17421.22
  57  17708.58
  58  17302.47
  59  17158.03
  60  16751.68
  61  16883.58
  62  16908.13
  63  16821.82
  64  16981.69
  65  17026.32
  66  16740.05
  67  16784.58
  68  16807.99
  69  16909.82
  70  16717.32
  71  16569.58
  72  16688.35
  73  16732.32
  74  17057.79
  75  17132.08
  76  17243.54
  77  17286.64
  78  17376.47
  79  17663.08
  80  17582.06
  81  17898.23
  82  17763.29
  83  18060.5
  84  17979.11
  85  17820.59
  86  17723.69
  87  17529.1
  88  17487.59
  89  17293.79
  90  17561.76
  91  17697.43
  92  17671.92
  93  17452.58
  94  17477.82
  95  17232.41
  96  17425.33
  97  17614.95
  98  17590.37
  99  17252.09
 100  17313.38
 101  17550.07
 102  17140.63
 103  17418.42
 104  17311.3
 105  17134.87
 106  16907.09
 107  17036.37
 108  17468.55
 109  17130.03
 110  17068.12
 111  17227.37
 112  17070.01
 113  17043.73
 114  17130.75
 115  17430.04
 116  17438.32
 117  17364.71
 118  17305.04
 119  16842.63
 120  17295.11
 121  17254.19
 122  16622.96
 123  16753.5
 124  16904.66
 125  17138.69
 126  17463.07
 127  17046.48
 128  17009.73
 129  17204.22
 130  17044.68
 131  17025.86
 132  17124.83
 133  17324.13
 134  17113.38
 135  17087.37
 136  17128.09
 137  16905.88
 138  17225.91
 139  17344.6
 140  17154.34
 141  17088.62
 142  17117.17
 143  17240.29
 144  17442.01
 145  17257.55
 146  17302.77
 147  17451.98
 148  17423.05
 149  17332.31
 150  17445.89
 151  17287.44
 152  17254.23
 153  17486.22
 154  17127.69
 155  16951.33
 156  17447.23
 157  17498.33
 158  17152.36
 159  16757.97
 160  16747.1
 161  16845.54
 162  17297.86
 163  17275.87
 164  17291.71
 165  17193.91
 166  17266.96
 167  16998.06
 168  16847.26
 169  17080.48
 170  16916.99
 171  16672.76
 172  16881.33
 173  16766.89
 174  16584.84
 175  16824.6
 176  17183.55
 177  17065.32
 178  17157.68
 179  16689.74
 180  16727.72
 181  16825.05
 182  16925.49
 183  16946.86
 184  16784.44
 185  16717.97
 186  16705.32
 187  16351.69
 188  16478.63
 189  16713.36
 190  16669.21
 191  16391.57
 192  16388.28
 193  16415.4
 194  16147.47
 195  16022.46
 196  16299.3
 197  16363.82
 198  16282.87
 199  16218.33
 200  15993.58
 201  16158.38
 202  16079.29
 203  16245.84
 204  16154.29
 205  15820.23
 206  15817.37
 207  16157.9
 208  16294.92
 209  16178.4
 210  15993.79
 211  16277.27
 212  16262.09
 213  16150.31
 214  16627.95
 215  16608.7
 216  16745.78
 217  16636.62
 218  16571.22
 219  16209.31
 220  16211.84
 221  16373.2
 222  16499.88
 223  16493.23
 224  16551.28
 225  16314.37
 226  16392.29
 227  16551.51
 228  16411.7
 229  16347.13
 230  16496.54
 231  16672.73
 232  16852.05
 233  16492.53
 234  16667.71
 235  17027.05
 236  17052.61
 237  16951.77
 238  16629.96
 239  16693.63
 240  16687.54
 241  16983.98
 242  17085.21
 243  17288.88
 244  17101.81
 245  17257.2
 246  17574.21
 247  17942.59
 248  17763.51
 249  17415.09
 250  17113.91
 251  17193.59
 252  17316.4
 253  17585.92
 254  17544.59
 255  17575.03
 256  17777.44
 257  17627.21
 258  17535.31
 259  17104.26
 260  17161.67
 261  17356.37
 262  17893.21
 263  17750.56
 264  17529.33
 265  17468.06
 266  17441.49
 267  17497.24
 268  17614.69
 269  17797.24
 270  17786.41
 271  17651.95
 272  17513.13
 273  17380.26
 274  17452.13
 275  17695.21
 276  17477.99
 277  17165.93
 278  17059.84
 279  17426.86
 280  17683.25
 281  17282.62
 282  17413.99
 283  17656.24
 284  17598.92
 285  17519.83
 286  17813.14
 287  17657.94
 288  17610.47
 289  17465.67
 290  17429.92
 291  17357.65
 292  17578.34
 293  17743.19
 294  17572.74
 295  17382.34
 296  17176.39
 297  17081.95
 298  17036.91
 299  17245.16
 300  17262.72
 301  17211.66
 302  17123.64
 303  16942.95
 304  16786.56
 305  16920.64
 306  16997.47
 307  17285.39
 308  17173.29
 309  17068.49
 310  16977.18
 311  16849.94
 312  17014.74
 313  17235.47
 314  17309.23
 315  17311.72
 316  17248.08
 317  17447.63
 318  16898.63
 319  16975.52
 320  16924.75
 321  17069.29
 322  17345.65
 323  17209.73
 324  17259.63
 325  17482.17
 326  17593.19
 327  17425.46
 328  17952.27
 329  18061.6
 330  18476.23
 331  18806.12
 332  19137.81
 333  19057.9
 334  18501.74
 335  17874
 336  17191.74
 337  17540.21
 338  17574.7
 339  17320.34
 340  17498.15
 341  17507.88
 342  17072.02
 343  17398.89
 344  17455.62
 345  17460.46
 346  17797.84
 347  17808.79
 348  17534.2
 349  17565.39
 350  17569.75
 351  17906.92
 352  17879.87
 353  18142.74
 354  17938.82
 355  17720.54
 356  17868.89
 357  17577.31
 358  17623.72
 359  17538.12
 360  17651.26
 361  17839.03
 362  18038.24
 363  18000.82
 364  17835.29
 365  17941.45
 366  17810.45
 367  17879.58
 368  17942.02
 369  17836.46
 370  17762.6
 371  17871.66
 372  18177.32
 373  18049.57
 374  17938.05
 375  17921.46
 376  17859.37
 377  18079.74
 378  18078.78
 379  18198.86
 380  18375.15
 381  18191.83
 382  18430.39
 383  18401.94
 384  18579.05
 385  18261.34
 386  18145.82
 387  18000.18
 388  18210.98
 389  18342.94
 390  17855.26
 391  18085.99
 392  18202.8
 393  18310.03
 394  18413.75
 395  18200.07
 396  18316.16
 397  18435.49
 398  18001.69
 399  17803.42
 400  17908.7
 401  18095.23
 402  18186.85
 403  17661.66
 404  17424.03
 405  17732.04
 406  17646.41
 407  17718.2
 408  17514.47
 409  17513.77
 410  17607.08
 411  17602.07
 412  17713.56
 413  17744.31
 414  17617.88
 415  17586.06
 416  17417.23
 417  17257.48
 418  17736.34
 419  17502.41
 420  17542.12
 421  17553.43
 422  17448.84
 423  17541.72
 424  17400.15
 425  17357.1
 426  17718.18
 427  17421.31
 428  17515.27
 429  17531.87
 430  17113.49
 431  17313.52
 432  17335.63
 433  17270.16
 434  17350.62
 435  17201.31
 436  17393.95
 437  17478.73
 438  17667.21
 439  17634.03
 440  17646.84
 441  17597.1
 442  17435.09
 443  17276.47
 444  17450.55
 445  17404.34
 446  17677.99
 447  17516.81
 448  17501.34
 449  17542.41
 450  17543.18
 451  17389.91
 452  17602.87
 453  17551.7
 454  17498.15
 455  17738.86
 456  17500.77
 457  17730.5
 458  17537.25
 459  17765.98
 460  17796.84
 461  17791.14
 462  17880.51
 463  17995.2
 464  17930.71
 465  17750.51
 466  17816.57
 467  17979.26
 468  17982.26
 469  17985.94
 470  17759.51
 471  17744.61
 472  17783.3
 473  17735.74
 474  17590.39
 475  17399.22
 476  17242.73
 477  17330.5
 478  17269.6
 479  17339.24
 480  17284.87
 481  17008.71
 482  16905.79
 483  16918.36
 484  17184.83
 485  17149.01
 486  17197.29
 487  17076.01
 488  17331.19
 489  17523.91
 490  17228.26
 491  17296.03
 492  17542.72
 493  17487.08
 494  17797.18
 495  18092.89
 496  17613.67
 497  17214.42
 498  17209.59
 499  17462.29
 500  17461.66
 501  17720.1
 502  17984.65
 503  17756.58
 504  17494.22
 505  17316.86
 506  17358.08
 507  17383
 508  17459.67
 509  17630.74
 510  17875.26
 511  17779.15
