# Input file       =  1203611338.104799_cleaned.dat
# Candidate        =  PSR_0332+5434
# Telescope        =  AR
# Epoch_topo       =  58174.687003527768
# Epoch_bary       =  N/A
# T_sample         =  0.002
# Data Folded      =  7340032
# Data Avg         =  0.499247069024672
# Data StdDev      =  8.13833311586249 
# Profile Bins     =  256
# Profile Avg      =  14314.383101085  
# Profile StdDev   =  1378.04835271511 
# Reduced chi-sqr  =  0.650
# Prob(Noise)      <  1   (~0.0 sigma)
# P_topo (ms)      =  714.580917472217  +/- 0.00145
# P'_topo (s/s)    =  -0                +/- 7.63e-10
# P''_topo (s/s^2) =  0                 +/- 3.37e-13
# P_bary (ms)      =  N/A
# P'_bary (s/s)    =  N/A
# P''_bary (s/s^2) =  N/A
# P_orb (s)        =  N/A
# asin(i)/c (s)    =  N/A
# eccentricity     =  N/A
# w (rad)          =  N/A
# T_peri           =  N/A
######################################################
   0  14106.4
   1  14733.22
   2  13857.45
   3  14323.36
   4  14096.54
   5  14157.05
   6  14478.88
   7  14729.3
   8  15246.87
   9  15725.92
  10  14641.68
  11  15031.79
  12  13898.5
  13  13631.09
  14  14561.57
  15  13937.07
  16  13443.4
  17  13476.13
  18  13743.24
  19  13162.94
  20  12865.39
  21  12478.95
  22  11560.3
  23  12348.61
  24  12312.1
  25  12451.33
  26  13150.65
  27  14231.28
  28  13926.43
  29  13533.87
  30  13906.12
  31  13395.51
  32  13680.1
  33  13090.96
  34  13089.56
  35  13048.13
  36  13395.09
  37  13299.98
  38  12817.83
  39  13078.59
  40  13486.9
  41  14168.49
  42  13547.58
  43  13077.59
  44  13818.5
  45  13872.75
  46  14271.55
  47  13976.75
  48  13016.95
  49  14271.02
  50  13942.32
  51  13176.62
  52  13761.49
  53  14096.75
  54  15261.79
  55  13965.18
  56  13631.55
  57  14378.44
  58  13892.89
  59  12992.54
  60  13556.67
  61  13901.19
  62  14345.96
  63  14265.81
  64  14116.93
  65  15089.85
  66  14789.84
  67  14921.52
  68  15030.32
  69  15069.91
  70  15229.27
  71  15376.38
  72  14761.44
  73  15287.35
  74  14788.88
  75  15265.83
  76  15328.24
  77  15745.36
  78  15815.38
  79  15350.09
  80  15543.19
  81  14925.29
  82  14739.93
  83  14787.46
  84  14827.64
  85  14597.24
  86  13880.34
  87  14934.76
  88  15473.22
  89  16610.54
  90  15728.19
  91  16322.11
  92  16093.56
  93  15637.42
  94  16667.18
  95  16917.86
  96  15863.3
  97  16359.91
  98  16445.97
  99  15656.73
 100  15512.68
 101  15160.37
 102  15816.05
 103  15364.9
 104  14272.62
 105  15441.72
 106  15088.96
 107  15625.58
 108  15751.84
 109  15779.01
 110  14763.9
 111  14183.48
 112  14979.86
 113  14781.86
 114  15702.94
 115  14420.57
 116  14879.72
 117  15229.78
 118  14768.05
 119  14533.33
 120  15517.86
 121  15072.28
 122  13527.26
 123  13766.29
 124  13926.32
 125  12995.68
 126  12630.91
 127  13664.57
 128  13995.51
 129  13241.48
 130  12967.08
 131  13300.46
 132  13583.88
 133  12875.92
 134  13991.94
 135  14236.19
 136  15012.59
 137  14226.85
 138  12799.45
 139  13638.56
 140  13408.34
 141  14481.17
 142  14270.27
 143  13862.74
 144  14210.32
 145  15604.62
 146  13760.14
 147  12868.63
 148  13521.3
 149  13538.67
 150  14560.85
 151  15615.43
 152  16879.26
 153  16665.09
 154  15874.29
 155  14188.21
 156  14483.79
 157  14743.01
 158  14371.69
 159  14389.99
 160  14286.66
 161  13989.42
 162  14416.37
 163  13764.57
 164  13327.93
 165  14308.63
 166  13953.23
 167  12836.72
 168  13313.87
 169  13481.33
 170  14376.72
 171  15473.94
 172  15820.84
 173  16593.91
 174  15285.3
 175  15128.5
 176  15291.47
 177  16036.26
 178  14619.68
 179  14191.96
 180  14777.99
 181  14344.56
 182  13970.07
 183  14608.37
 184  16094.91
 185  14432.43
 186  14332.26
 187  14357.64
 188  14465.73
 189  14009.02
 190  13653.97
 191  13685.72
 192  13621.3
 193  13826.87
 194  14490.79
 195  13567.74
 196  12128.58
 197  12443.36
 198  13477.73
 199  13141.42
 200  12630.92
 201  12235.16
 202  13806.13
 203  14828.99
 204  13733.8
 205  13970.4
 206  13662.35
 207  13609.77
 208  12624.12
 209  12963.41
 210  13282.68
 211  13522.65
 212  14136.55
 213  14971.59
 214  14976.34
 215  14683.25
 216  14795.11
 217  14297.8
 218  14576.47
 219  14648.57
 220  14235.2
 221  13935.91
 222  14037.31
 223  14037.28
 224  13932.01
 225  14936.91
 226  15121.16
 227  14978.3
 228  14784.9
 229  14779.37
 230  15066.19
 231  13993.01
 232  14733.5
 233  14414.35
 234  14419.37
 235  15048.67
 236  14655.4
 237  14556.06
 238  14645.58
 239  14327.98
 240  14450.69
 241  13347.62
 242  14122.39
 243  14314.66
 244  13915.76
 245  14981.93
 246  14781.8
 247  14055.91
 248  13101.23
 249  13503.07
 250  13778.36
 251  13461.48
 252  13882.18
 253  13892.18
 254  14442.6
 255  14302.94
