# Input file       =  1203586598.108145_cleaned.dat
# Candidate        =  PSR_0332+5434
# Telescope        =  AR
# Epoch_topo       =  58174.400660973901
# Epoch_bary       =  N/A
# T_sample         =  0.002
# Data Folded      =  7405568
# Data Avg         =  0.0355023110740761
# Data StdDev      =  5.62223199960659 
# Profile Bins     =  256
# Profile Avg      =  1026.9456588482  
# Profile StdDev   =  956.242335181452 
# Reduced chi-sqr  =  1.217
# Prob(Noise)      <  0.0101   (~2.3 sigma)
# P_topo (ms)      =  714.580703116017  +/- 5.8e-05
# P'_topo (s/s)    =  -0                +/- 3.03e-11
# P''_topo (s/s^2) =  0                 +/- 1.33e-14
# P_bary (ms)      =  N/A
# P'_bary (s/s)    =  N/A
# P''_bary (s/s^2) =  N/A
# P_orb (s)        =  N/A
# asin(i)/c (s)    =  N/A
# eccentricity     =  N/A
# w (rad)          =  N/A
# T_peri           =  N/A
######################################################
   0  728.9314
   1  684.3123
   2  1039.19
   3  2198.003
   4  397.8228
   5  -38.81648
   6  -325.9761
   7  786.7742
   8  -393.7701
   9  1000.966
  10  290.9959
  11  2020.027
  12  1824.615
  13  964.9429
  14  409.3344
  15  303.2892
  16  1187.53
  17  1632.267
  18  1841.172
  19  2339.166
  20  2439.172
  21  1600.321
  22  701.8871
  23  1382.109
  24  1602.785
  25  491.3322
  26  1498.487
  27  2738.178
  28  1994.081
  29  231.2806
  30  1497.323
  31  1033.382
  32  1465.394
  33  343.9968
  34  2826.37
  35  2728.028
  36  2680.117
  37  1547.372
  38  1468.633
  39  941.8937
  40  1327.452
  41  1018.972
  42  1478.21
  43  2171.799
  44  2486.847
  45  1321.015
  46  836.6871
  47  1854.266
  48  991.7693
  49  1053.745
  50  1235.423
  51  1664.389
  52  2474.724
  53  2901.257
  54  1611.014
  55  1117.312
  56  327.753
  57  1716.081
  58  1551.763
  59  2195.993
  60  1759.061
  61  2820.023
  62  1160.954
  63  1630.75
  64  245.0393
  65  2023.804
  66  332.3241
  67  1106.456
  68  2212.798
  69  3505.059
  70  2029.217
  71  865.6553
  72  971.0836
  73  1896.292
  74  848.8749
  75  1617.479
  76  2108.904
  77  2596.858
  78  2607.259
  79  1773.002
  80  1586.592
  81  834.2314
  82  861.972
  83  1071.235
  84  1773.09
  85  2085.085
  86  2008.406
  87  1134.823
  88  890.8596
  89  -260.3026
  90  667.2728
  91  336.7594
  92  1831.645
  93  1505.518
  94  2819.961
  95  1139.381
  96  929.3413
  97  -127.8658
  98  1342.421
  99  504.7552
 100  869.1008
 101  988.3084
 102  1870.691
 103  1059.616
 104  285.7699
 105  538.5184
 106  429.4881
 107  397.519
 108  420.2538
 109  1652.878
 110  2930.371
 111  1146.042
 112  380.3812
 113  625.2637
 114  60.59969
 115  694.7692
 116  600.2402
 117  766.51
 118  1552.565
 119  1216.751
 120  436.9216
 121  73.83947
 122  8.884788
 123  961.0331
 124  -51.23706
 125  599.9958
 126  788.8782
 127  2192.237
 128  921.4559
 129  571.599
 130  -464.1315
 131  453.1691
 132  -511.2106
 133  1431.584
 134  606.5815
 135  913.7372
 136  576.2478
 137  5.122049
 138  -541.2416
 139  543.8741
 140  134.0238
 141  351.8825
 142  622.22
 143  1991.698
 144  1555.316
 145  368.6408
 146  -253.8611
 147  157.5699
 148  1275.132
 149  1924.085
 150  2708.58
 151  3116.243
 152  4997.39
 153  3626.162
 154  1857.141
 155  695.1916
 156  992.3683
 157  703.0215
 158  1416.788
 159  2622.161
 160  2824.381
 161  2222.958
 162  1520.881
 163  502.7334
 164  1546.366
 165  804.5837
 166  1305.407
 167  1104.15
 168  2469.624
 169  1180.603
 170  1259.935
 171  -28.2238
 172  1096.492
 173  1179.81
 174  822.4389
 175  1321.323
 176  1897.565
 177  1838.794
 178  453.0484
 179  -197.5714
 180  -379.8713
 181  549.2118
 182  562.6216
 183  934.0461
 184  1852.094
 185  2477.456
 186  1125.559
 187  931.2125
 188  -863.72
 189  431.2197
 190  -104.9315
 191  996.2576
 192  1249.718
 193  1722.199
 194  757.5283
 195  1357.675
 196  -338.1399
 197  313.434
 198  -136.0608
 199  1077.975
 200  1708.904
 201  2128.306
 202  1461.904
 203  560.9085
 204  -7.550941
 205  830.05
 206  369.3164
 207  189.6074
 208  587.528
 209  1784.851
 210  1747.183
 211  736.2861
 212  906.9252
 213  -371.4902
 214  280.4398
 215  -513.6736
 216  677.3039
 217  905.991
 218  1918.329
 219  -352.3412
 220  -190.5588
 221  116.5657
 222  555.5363
 223  74.72734
 224  1455.225
 225  719.5661
 226  1134.324
 227  343.4378
 228  792.8738
 229  -18.6061
 230  387.5378
 231  -235.2186
 232  817.3755
 233  498.8067
 234  1369.09
 235  323.9174
 236  103.817
 237  -211.9002
 238  -282.5183
 239  -666.5986
 240  349.5783
 241  95.7507
 242  891.8139
 243  253.4334
 244  -135.2561
 245  155.3226
 246  -332.8368
 247  -62.56519
 248  -885.9219
 249  14.82003
 250  914.4954
 251  1746.33
 252  -181.9266
 253  685.8751
 254  -497.9821
 255  260.0079
