# Input file       =  1203444197.101021-PSRB0329-2ms-sampling-dd.dat
# Candidate        =  PSR_0332+5434
# Telescope        =  AR
# Epoch_topo       =  58172.752501169227
# Epoch_bary       =  N/A
# T_sample         =  0.002
# Data Folded      =  7340032
# Data Avg         =  -5.69847130995953e-10
# Data StdDev      =  7.68848035566276 
# Profile Bins     =  512
# Profile Avg      =  0.0688670558713094
# Profile StdDev   =  920.56509810662  
# Reduced chi-sqr  =  0.448
# Prob(Noise)      <  1   (~0.0 sigma)
# P_topo (ms)      =  714.58108380081   +/- 0.00109
# P'_topo (s/s)    =  -0                +/- 5.77e-10
# P''_topo (s/s^2) =  0                 +/- 2.55e-13
# P_bary (ms)      =  N/A
# P'_bary (s/s)    =  N/A
# P''_bary (s/s^2) =  N/A
# P_orb (s)        =  N/A
# asin(i)/c (s)    =  N/A
# eccentricity     =  N/A
# w (rad)          =  N/A
# T_peri           =  N/A
######################################################
   0  -48.58928
   1  -138.6478
   2  -463.6183
   3  -121.1175
   4  -183.5664
   5  -411.8775
   6  -16.43143
   7  -158.5439
   8  -218.9934
   9  -323.1387
  10  -81.14492
  11  68.58688
  12  -293.8439
  13  -294.8303
  14  -406.5986
  15  -97.3809
  16  -217.4985
  17  -218.7189
  18  256.3613
  19  164.4059
  20  -30.2659
  21  36.75834
  22  237.176
  23  187.3644
  24  365.0179
  25  10.54454
  26  -249.9099
  27  -195.0125
  28  285.6766
  29  560.2766
  30  577.6989
  31  244.0335
  32  187.3501
  33  25.15261
  34  -192.0171
  35  175.1948
  36  280.8628
  37  207.5994
  38  9.024688
  39  -7.07292
  40  340.1929
  41  305.0547
  42  -24.4749
  43  -349.3263
  44  -260.003
  45  -62.57164
  46  -474.7891
  47  -585.0968
  48  -367.9188
  49  -112.0981
  50  214.4123
  51  305.4788
  52  431.555
  53  138.2478
  54  -353.6094
  55  -125.2832
  56  -385.6259
  57  -521.7487
  58  -418.6191
  59  -2.028002
  60  3.849696
  61  -99.99146
  62  68.06276
  63  -543.202
  64  -796.0057
  65  -566.4901
  66  -123.2807
  67  -566.6179
  68  -291.0688
  69  -109.6541
  70  -30.71563
  71  -67.79309
  72  -244.539
  73  -696.9542
  74  -813.3385
  75  -385.7103
  76  -641.404
  77  -417.1371
  78  -309.0315
  79  -367.8231
  80  -627.0568
  81  -463.7085
  82  -71.56066
  83  -277.5059
  84  -282.3503
  85  -152.8992
  86  -242.4167
  87  -263.1323
  88  -603.2162
  89  -241.1446
  90  -49.06053
  91  256.7565
  92  252.2374
  93  -63.31411
  94  -486.8349
  95  -363.4598
  96  -439.7145
  97  -646.5229
  98  -559.745
  99  -337.5796
 100  -230.5929
 101  -720.4245
 102  -419.0898
 103  -511.9124
 104  -679.7459
 105  -581.8719
 106  -364.0436
 107  -513.6661
 108  -536.5433
 109  -533.2473
 110  -421.2869
 111  198.6479
 112  -110.3376
 113  -381.185
 114  -534.8473
 115  -338.0499
 116  -524.9846
 117  -454.4733
 118  -514.862
 119  -607.4623
 120  -777.2495
 121  -426.3177
 122  -38.64851
 123  66.95596
 124  -330.2913
 125  -347.8313
 126  -655.98
 127  -369.2612
 128  -368.7282
 129  -205.9386
 130  1.611959
 131  133.6389
 132  638.7524
 133  418.1964
 134  141.1346
 135  256.3817
 136  194.0144
 137  -35.84747
 138  -301.9661
 139  -96.34156
 140  -256.1649
 141  -434.5496
 142  -277.4465
 143  -180.609
 144  -342.0974
 145  -300.7146
 146  -232.7544
 147  -125.595
 148  -201.2008
 149  -317.0195
 150  -164.632
 151  349.6842
 152  371.4112
 153  535.6476
 154  653.4149
 155  816.5204
 156  571.5258
 157  495.2153
 158  651.5432
 159  698.441
 160  454.0558
 161  872.4103
 162  690.0048
 163  487.5792
 164  514.9489
 165  1097.278
 166  910.058
 167  312.6954
 168  232.3901
 169  365.1031
 170  635.9003
 171  710.9818
 172  530.5308
 173  86.01262
 174  -79.64153
 175  -128.5078
 176  492.6667
 177  514.4495
 178  547.6495
 179  127.4026
 180  21.96207
 181  296.7941
 182  465.9576
 183  553.4282
 184  409.3843
 185  277.351
 186  90.35978
 187  271.4982
 188  52.19033
 189  -297.6451
 190  -322.0544
 191  -208.2475
 192  342.8224
 193  338.4794
 194  312.8452
 195  -449.8323
 196  -594.5629
 197  -465.9974
 198  101.4573
 199  394.7764
 200  563.1177
 201  678.1689
 202  578.5026
 203  163.8551
 204  161.1192
 205  368.9153
 206  505.8197
 207  807.4816
 208  754.543
 209  146.6892
 210  299.56
 211  339.6794
 212  385.4437
 213  376.3215
 214  182.7478
 215  309.8007
 216  167.3556
 217  466.2914
 218  396.1122
 219  415.3042
 220  270.3186
 221  1.624709
 222  -228.6893
 223  -176.6928
 224  130.4281
 225  283.525
 226  87.75156
 227  -298.0299
 228  -376.1022
 229  -318.9133
 230  -477.0522
 231  -237.4172
 232  -206.5623
 233  303.3705
 234  540.6411
 235  440.3467
 236  285.3536
 237  209.089
 238  459.2267
 239  -142.9924
 240  27.45264
 241  165.4708
 242  522.6854
 243  567.8995
 244  490.7322
 245  35.64346
 246  137.2634
 247  -103.2508
 248  -113.2577
 249  -263.4022
 250  279.4176
 251  723.3509
 252  318.3258
 253  -177.0224
 254  -173.6727
 255  254.2154
 256  242.1029
 257  -142.3423
 258  221.8889
 259  408.4671
 260  336.6969
 261  682.3051
 262  352.2298
 263  -2.774684
 264  -373.8428
 265  -279.2309
 266  -105.4114
 267  472.8287
 268  672.4201
 269  120.1244
 270  96.13849
 271  130.0283
 272  174.3943
 273  399.7942
 274  704.2513
 275  382.3446
 276  480.5389
 277  358.2745
 278  326.1122
 279  365.498
 280  248.2603
 281  217.9534
 282  257.8313
 283  517.9908
 284  920.687
 285  692.0875
 286  473.6584
 287  281.5111
 288  -55.63075
 289  82.05714
 290  247.4087
 291  333.4698
 292  705.9709
 293  -12.04333
 294  -230.0172
 295  -26.29987
 296  -80.40411
 297  -7.150033
 298  -467.2844
 299  -183.2301
 300  115.4624
 301  126.2517
 302  -617.1142
 303  -472.92
 304  -652.3151
 305  -394.8818
 306  -259.9372
 307  17.26652
 308  -98.84801
 309  -425.5569
 310  -397.2599
 311  -607.3317
 312  -480.4264
 313  -286.4127
 314  -255.7633
 315  -542.1758
 316  -127.8206
 317  -82.80869
 318  -376.8427
 319  -465.5361
 320  -110.3787
 321  164.6059
 322  -295.7745
 323  -156.2296
 324  -36.89643
 325  6.51087
 326  401.1668
 327  412.9934
 328  -11.19737
 329  -184.0678
 330  -403.3128
 331  -74.78085
 332  80.42925
 333  104.8573
 334  227.4766
 335  204.7043
 336  -163.2936
 337  -514.3439
 338  -203.8694
 339  355.2766
 340  728.9061
 341  1256.682
 342  975.7441
 343  391.1152
 344  491.4547
 345  107.8226
 346  119.2146
 347  210.6789
 348  400.9412
 349  709.2521
 350  520.6838
 351  471.7697
 352  55.98782
 353  -37.10934
 354  -17.00107
 355  -205.261
 356  215.2624
 357  683.6612
 358  401.0868
 359  370.4908
 360  478.8601
 361  760.9692
 362  -204.2636
 363  -534.0374
 364  -391.6609
 365  -622.2269
 366  -89.91582
 367  16.94913
 368  417.2177
 369  293.3444
 370  -102.0178
 371  42.30634
 372  91.90434
 373  84.12527
 374  156.5649
 375  -127.0879
 376  -77.31716
 377  -76.48788
 378  -179.1805
 379  -634.6481
 380  -302.0564
 381  -125.9173
 382  193.6591
 383  102.5041
 384  207.8018
 385  217.8285
 386  14.3751
 387  -384.8931
 388  -411.3168
 389  -294.4679
 390  -526.5297
 391  -356.2087
 392  -568.911
 393  -731.3496
 394  -344.5432
 395  -621.1214
 396  -1219.137
 397  -1016.961
 398  -766.1973
 399  -736.6911
 400  -478.3856
 401  -377.4102
 402  -180.5509
 403  -656.2575
 404  -766.2349
 405  -420.2547
 406  -0.2573433
 407  264.9851
 408  279.7485
 409  476.5573
 410  193.9364
 411  -138.288
 412  -546.2261
 413  -265.3111
 414  196.7658
 415  259.3796
 416  208.381
 417  -102.4652
 418  -522.0093
 419  -397.095
 420  68.82037
 421  325.5013
 422  -217.6045
 423  -155.777
 424  6.7664
 425  -322.951
 426  -568.5411
 427  -330.6421
 428  -52.82919
 429  -178.9341
 430  -336.7395
 431  -19.13024
 432  64.00797
 433  -339.1638
 434  -148.533
 435  140.1023
 436  221.0635
 437  259.9272
 438  324.2485
 439  662.9741
 440  837.2384
 441  943.5752
 442  1037.587
 443  928.2758
 444  1346.871
 445  1600.795
 446  1776.866
 447  2128.253
 448  1605.404
 449  1062.377
 450  671.877
 451  421.6835
 452  289.6309
 453  621.9869
 454  685.4667
 455  185.0924
 456  51.75008
 457  -140.6921
 458  333.3194
 459  557.5324
 460  546.259
 461  449.7227
 462  111.1146
 463  -54.31691
 464  -316.4337
 465  -80.86742
 466  554.5615
 467  242.9038
 468  354.9207
 469  193.4594
 470  -215.2742
 471  90.73232
 472  -76.73643
 473  -507.5552
 474  -573.7654
 475  -447.0057
 476  -736.1532
 477  -908.0318
 478  -517.1075
 479  -457.899
 480  -840.473
 481  -848.1086
 482  -827.1795
 483  -982.951
 484  -690.4892
 485  -430.1881
 486  -370.55
 487  -1045.5
 488  -792.0843
 489  -327.8302
 490  -179.0816
 491  -54.85094
 492  -268.5986
 493  60.76793
 494  86.0853
 495  -415.4017
 496  -671.2137
 497  -858.1939
 498  -444.4765
 499  -327.3745
 500  201.3777
 501  61.28097
 502  171.6389
 503  -296.0956
 504  -414.3204
 505  -432.6998
 506  153.2318
 507  230.0083
 508  -409.1537
 509  -810.0699
 510  -458.4238
 511  53.26257
