# Input file       =  1203256882.095392_cleaned.dat
# Candidate        =  PSR_0332+5434
# Telescope        =  AR
# Epoch_topo       =  58170.584503418890
# Epoch_bary       =  N/A
# T_sample         =  0.002
# Data Folded      =  7340032
# Data Avg         =  1.37278508970381 
# Data StdDev      =  10.1384743842732 
# Profile Bins     =  512
# Profile Avg      =  19680.6694439236 
# Profile StdDev   =  1213.9103222571  
# Reduced chi-sqr  =  0.816
# Prob(Noise)      <  0.999   (~0.0 sigma)
# P_topo (ms)      =  714.580697969682  +/- 0.000278
# P'_topo (s/s)    =  -0                +/- 1.47e-10
# P''_topo (s/s^2) =  0                 +/- 6.48e-14
# P_bary (ms)      =  N/A
# P'_bary (s/s)    =  N/A
# P''_bary (s/s^2) =  N/A
# P_orb (s)        =  N/A
# asin(i)/c (s)    =  N/A
# eccentricity     =  N/A
# w (rad)          =  N/A
# T_peri           =  N/A
######################################################
   0  19017.59
   1  19959.12
   2  18989.23
   3  18710.58
   4  19597.75
   5  18949.64
   6  19194.26
   7  19083.62
   8  19254.15
   9  19649.07
  10  19940.08
  11  20381.02
  12  19742.07
  13  19481.07
  14  19470.83
  15  19877.29
  16  20244.14
  17  20334.66
  18  20616.14
  19  20445.8
  20  20355.18
  21  19940.36
  22  20554.26
  23  20898.73
  24  20111
  25  20177.76
  26  20030.1
  27  20242.39
  28  19878.41
  29  20454.11
  30  20981.81
  31  19522.73
  32  19797.91
  33  19480.36
  34  19185.91
  35  19359
  36  19912.71
  37  20553.76
  38  19901.24
  39  19669.75
  40  19552.5
  41  19661.08
  42  19821.76
  43  20109.21
  44  20740.09
  45  20593.17
  46  20590.79
  47  20071.62
  48  20123.82
  49  20156.86
  50  19764.26
  51  19284.13
  52  18857.03
  53  19054.89
  54  19455.04
  55  18993.75
  56  19690.46
  57  20138.93
  58  19996.03
  59  19889.39
  60  19736.22
  61  19034.38
  62  18498.4
  63  18941.16
  64  20025.42
  65  20154.28
  66  19813.94
  67  19609.2
  68  19330.13
  69  18875.55
  70  19207.22
  71  19446.22
  72  19632.25
  73  19288.29
  74  18953.47
  75  18692.68
  76  18312.22
  77  18360.89
  78  18561.44
  79  19460.97
  80  19638.26
  81  19257.86
  82  18941.95
  83  18411.31
  84  18440.5
  85  18508.18
  86  18666.18
  87  20018.71
  88  19159.25
  89  18782.77
  90  18581.33
  91  18648.21
  92  18119.26
  93  18438.01
  94  19225.6
  95  19985.58
  96  19916.68
  97  19322.62
  98  19002.14
  99  19068.71
 100  19300.62
 101  18784.69
 102  18916.87
 103  19116.17
 104  19544.46
 105  18801.86
 106  18515.46
 107  18444.81
 108  17974.65
 109  17893.71
 110  17818.72
 111  18111.38
 112  18147.39
 113  18228.25
 114  18014.56
 115  17282.77
 116  17967.39
 117  17589.48
 118  17682.5
 119  18357.32
 120  18875.78
 121  19223.33
 122  19363.3
 123  19397.05
 124  18820.1
 125  19141.12
 126  19134.52
 127  19233.9
 128  19489.53
 129  19776.64
 130  19574.5
 131  19304.2
 132  19527.83
 133  19682.18
 134  19587.47
 135  19361.91
 136  19668.68
 137  20195.22
 138  19810.77
 139  18839.97
 140  18502.43
 141  18805.16
 142  19701.95
 143  19539.21
 144  20383.17
 145  21030.56
 146  19921.99
 147  19981.91
 148  20059.83
 149  19944.41
 150  20357.85
 151  20167.33
 152  19862.34
 153  19241.39
 154  19274.53
 155  19959.21
 156  20219.51
 157  19551.12
 158  18989.68
 159  19027.05
 160  19185.32
 161  19157.61
 162  19100.95
 163  19699.23
 164  19390.15
 165  19418.79
 166  19763.22
 167  19097.59
 168  19469.05
 169  19521.33
 170  19803.05
 171  20120.6
 172  20323.93
 173  20381.98
 174  19939.51
 175  19735.33
 176  19884.81
 177  20441.4
 178  20968.79
 179  20304.09
 180  20178.8
 181  20474.76
 182  20817.53
 183  20686.27
 184  20101.27
 185  20325.11
 186  20080.04
 187  20056.67
 188  20194.43
 189  20303.29
 190  20466.75
 191  20290.24
 192  20375.6
 193  20533.09
 194  20460.52
 195  20455.02
 196  20222.74
 197  20195.61
 198  20538.14
 199  20789.67
 200  20929.29
 201  20849.54
 202  20610.57
 203  20168.88
 204  20223.78
 205  20322.93
 206  20846.88
 207  20628.94
 208  21123.24
 209  21769.53
 210  20751.75
 211  20143.13
 212  20411.67
 213  20943.6
 214  21504.19
 215  21074.69
 216  20884.89
 217  20253.43
 218  20156.74
 219  20600.76
 220  20619.71
 221  20408.1
 222  20422.87
 223  20924.49
 224  21273.63
 225  20196.25
 226  20401.44
 227  20044.35
 228  20273.49
 229  20544.02
 230  21306.87
 231  20901.04
 232  20324.5
 233  20805.53
 234  20697.09
 235  20793.47
 236  21085.32
 237  21461.81
 238  21210.8
 239  20269.28
 240  20235.02
 241  20620.72
 242  21220.21
 243  21593.48
 244  21645.75
 245  21204.59
 246  20331.79
 247  20602.65
 248  21015.02
 249  21094.37
 250  21507.94
 251  20931.91
 252  21361.5
 253  21429.97
 254  21103.35
 255  21628
 256  21168.1
 257  21379.1
 258  21565.3
 259  21231.18
 260  21001.41
 261  20663.27
 262  21011.8
 263  20601.65
 264  20206.73
 265  20014.49
 266  20495.29
 267  20128.83
 268  19985.11
 269  20062.52
 270  20372.21
 271  20034.57
 272  19643.64
 273  19993.76
 274  19768.97
 275  19231.64
 276  19541.71
 277  19028.6
 278  19039.79
 279  19519.31
 280  19935.4
 281  19477.95
 282  18680
 283  19215.99
 284  18887.21
 285  18961.9
 286  19665.92
 287  19697.95
 288  19681.69
 289  19399.05
 290  19720.95
 291  19533.94
 292  18956.92
 293  19845.57
 294  19594.54
 295  19615.87
 296  19481.53
 297  20194.73
 298  20142.4
 299  19524.79
 300  19513.74
 301  19711.78
 302  20024.71
 303  20149.03
 304  20023.13
 305  20105.59
 306  20205.47
 307  20453.78
 308  20492.44
 309  19720.03
 310  19409.63
 311  19277.38
 312  19107.33
 313  19584.11
 314  19941.49
 315  20258.32
 316  20115.15
 317  20416.76
 318  20024.72
 319  19817.15
 320  20644.83
 321  20769.77
 322  20776.15
 323  21047.2
 324  20455.69
 325  19931.21
 326  20469.95
 327  20612.5
 328  20320.63
 329  21141.95
 330  21378.62
 331  21176.75
 332  20474
 333  20076.43
 334  20472.88
 335  21168.12
 336  21203.66
 337  20612.32
 338  20364.85
 339  20173.2
 340  19979.54
 341  19786.9
 342  19758.18
 343  20929.72
 344  20575.06
 345  20509.61
 346  19688.12
 347  19175.94
 348  18973.83
 349  19402.2
 350  19978.81
 351  19648.89
 352  19334.06
 353  19113.37
 354  18432.72
 355  18612.94
 356  19243.36
 357  19773.36
 358  19475.33
 359  18605.12
 360  19171.6
 361  18797.8
 362  18965.93
 363  19302.4
 364  19570.06
 365  19600.2
 366  19315.31
 367  19717.61
 368  19320.67
 369  19442.78
 370  19538.32
 371  19884.47
 372  19833.82
 373  18831.87
 374  18674.83
 375  18577.06
 376  19258.59
 377  19077.84
 378  19178.78
 379  18997.88
 380  19365.61
 381  19309.76
 382  19056.89
 383  19332.51
 384  19759.39
 385  19791.43
 386  20074.43
 387  20003.72
 388  20382.05
 389  19875.48
 390  19416.62
 391  19386.2
 392  19720.79
 393  19681.41
 394  20055.94
 395  20108.88
 396  19938.97
 397  19543.32
 398  19768.63
 399  20057.88
 400  19696.44
 401  19442.96
 402  19576.78
 403  19722.81
 404  19715.54
 405  19524.4
 406  19562.77
 407  19361.53
 408  19902.22
 409  19870.04
 410  19707.82
 411  19145.51
 412  19389.74
 413  19143.9
 414  19010.6
 415  19342.25
 416  19589.96
 417  20062.19
 418  20562.99
 419  20041.67
 420  19633.28
 421  20007.64
 422  20482.17
 423  19595.2
 424  19370.96
 425  19909.13
 426  19742.06
 427  19269.86
 428  19290.36
 429  19047.24
 430  18689.42
 431  19282.15
 432  19918.26
 433  19580.1
 434  18866.01
 435  18526.88
 436  19169.13
 437  19284.27
 438  18923.21
 439  18996.31
 440  19209.12
 441  19144.83
 442  18719.86
 443  19088.33
 444  18895.16
 445  19034.03
 446  19458.64
 447  18483
 448  18865.97
 449  18919.77
 450  19075.69
 451  19412.35
 452  19566.47
 453  19430.96
 454  18869.08
 455  18815.36
 456  19526.46
 457  19108.3
 458  19325
 459  19729.8
 460  19716.83
 461  18934.63
 462  19046.7
 463  19331.47
 464  18800.47
 465  18493.37
 466  18545.17
 467  18699.03
 468  19376.63
 469  19160.89
 470  19358.86
 471  18396.74
 472  18054.31
 473  18573.27
 474  18061.63
 475  17836.05
 476  18226.4
 477  18856.55
 478  18561.58
 479  18433.9
 480  18156.01
 481  18437.11
 482  18530.71
 483  17799.89
 484  19071.18
 485  19264.26
 486  19069.44
 487  19115.98
 488  19217.61
 489  18772.69
 490  18923.92
 491  19479.4
 492  18910.58
 493  18650.77
 494  19154.82
 495  19259.16
 496  18812.96
 497  18949.46
 498  19203.9
 499  19888.84
 500  19198.55
 501  19404.49
 502  19099.9
 503  18847.27
 504  18699.69
 505  19351.44
 506  19845.01
 507  19373.62
 508  19459.34
 509  19399.18
 510  18802.99
 511  18523.1
