# Input file       =  1203358026.105044_cleaned.dat
# Candidate        =  PSR_0332+5434
# Telescope        =  AR
# Epoch_topo       =  58171.755151678750
# Epoch_bary       =  N/A
# T_sample         =  0.002
# Data Folded      =  7340032
# Data Avg         =  0.0229892348372441
# Data StdDev      =  1.000013188999   
# Profile Bins     =  512
# Profile Avg      =  329.656550092601 
# Profile StdDev   =  119.734615535663 
# Reduced chi-sqr  =  1.103
# Prob(Noise)      <  0.0531   (~1.6 sigma)
# P_topo (ms)      =  714.581072474134  +/- 0.000241
# P'_topo (s/s)    =  -0                +/- 1.27e-10
# P''_topo (s/s^2) =  0                 +/- 5.62e-14
# P_bary (ms)      =  N/A
# P'_bary (s/s)    =  N/A
# P''_bary (s/s^2) =  N/A
# P_orb (s)        =  N/A
# asin(i)/c (s)    =  N/A
# eccentricity     =  N/A
# w (rad)          =  N/A
# T_peri           =  N/A
######################################################
   0  779.209
   1  712.6099
   2  606.1344
   3  412.4433
   4  276.6974
   5  391.7242
   6  359.6965
   7  364.4766
   8  250.5274
   9  213.2052
  10  305.3015
  11  385.5335
  12  438.9856
  13  252.3371
  14  304.8987
  15  409.1064
  16  475.2597
  17  514.0173
  18  404.2093
  19  242.1119
  20  242.4134
  21  351.4245
  22  269.1657
  23  196.9234
  24  284.3822
  25  362.5646
  26  277.5059
  27  383.3699
  28  418.0904
  29  442.6232
  30  289.5689
  31  313.9145
  32  412.6418
  33  449.8619
  34  333.2005
  35  401.8908
  36  396.2101
  37  370.365
  38  499.6954
  39  461.0235
  40  361.7814
  41  384.496
  42  411.4738
  43  495.468
  44  561.235
  45  410.2542
  46  348.4056
  47  354.8773
  48  267.6449
  49  367.6155
  50  439.3198
  51  509.4983
  52  407.2388
  53  396.197
  54  428.1521
  55  370.3162
  56  262.5121
  57  306.5986
  58  439.9808
  59  402.4146
  60  381.6934
  61  335.1212
  62  391.9792
  63  535.3361
  64  406.2349
  65  381.7485
  66  472.2466
  67  399.5488
  68  453.5217
  69  411.9931
  70  393.0588
  71  301.585
  72  402.6609
  73  496.7797
  74  408.1052
  75  385.1391
  76  395.9773
  77  352.7017
  78  370.5415
  79  383.1558
  80  368.1308
  81  285.5419
  82  423.5036
  83  360.678
  84  374.9412
  85  378.9372
  86  295.7346
  87  378.2301
  88  418.4264
  89  465.3738
  90  534.7994
  91  530.8449
  92  461.9615
  93  411.5872
  94  405.6422
  95  362.3605
  96  384.1989
  97  400.9944
  98  260.1445
  99  352.5549
 100  388.8537
 101  462.009
 102  405.2198
 103  386.334
 104  517.3162
 105  369.7959
 106  407.5968
 107  326.0997
 108  323.9319
 109  343.1035
 110  251.3316
 111  326.0709
 112  310.2494
 113  342.0254
 114  316.726
 115  364.4464
 116  374.3476
 117  333.4015
 118  312.4841
 119  298.1672
 120  385.2486
 121  331.3946
 122  293.8047
 123  328.6668
 124  364.0607
 125  391.7971
 126  436.4575
 127  423.3945
 128  407.2128
 129  378.6746
 130  373.5003
 131  362.0733
 132  362.6532
 133  450.4002
 134  454.1484
 135  442.0959
 136  376.1387
 137  419.2873
 138  421.7859
 139  304.1194
 140  312.3165
 141  393.2992
 142  346.0497
 143  410.6821
 144  369.0106
 145  421.3216
 146  335.9681
 147  247.5577
 148  351.1939
 149  338.6113
 150  259.8567
 151  240.1573
 152  269.6726
 153  337.9647
 154  429.0339
 155  339.8541
 156  377.9337
 157  366.0651
 158  391.2022
 159  363.7403
 160  450.0961
 161  449.8683
 162  344.9579
 163  409.9593
 164  406.5894
 165  401.7777
 166  374.8848
 167  258.3331
 168  221.6997
 169  307.9065
 170  401.6844
 171  307.5352
 172  310.3618
 173  466.0626
 174  391.2491
 175  372.3834
 176  390.6708
 177  358.9287
 178  434.1671
 179  384.1667
 180  296.7802
 181  323.8805
 182  389.5875
 183  291.739
 184  367.1791
 185  294.0755
 186  251.3471
 187  465.3544
 188  360.7293
 189  307.8164
 190  221.7121
 191  303.5898
 192  376.9284
 193  262.0499
 194  218.4853
 195  326.2206
 196  363.6894
 197  419.5055
 198  460.8177
 199  452.6621
 200  329.615
 201  423.8679
 202  507.2649
 203  325.0403
 204  258.7992
 205  449.6121
 206  559.2333
 207  269.5562
 208  287.0119
 209  344.0883
 210  337.6606
 211  314.4856
 212  248.4621
 213  291.0206
 214  380.7874
 215  308.8938
 216  296.3658
 217  343.9063
 218  351.702
 219  312.4416
 220  304.2798
 221  273.3333
 222  414.3235
 223  373.0091
 224  274.7661
 225  221.3743
 226  273.8447
 227  329.0436
 228  295.9745
 229  240.4164
 230  256.9003
 231  331.8196
 232  341.7886
 233  321.8316
 234  173.1964
 235  149.2953
 236  205.0182
 237  284.8403
 238  413.5034
 239  483.3852
 240  328.4884
 241  250.4705
 242  271.4198
 243  232.242
 244  245.2364
 245  402.7269
 246  380.4414
 247  354.372
 248  324.1479
 249  353.1387
 250  279.2742
 251  156.4741
 252  288.8503
 253  351.501
 254  303.0674
 255  333.3779
 256  379.8194
 257  453.2878
 258  379.5682
 259  291.2961
 260  309.944
 261  281.5577
 262  238.539
 263  389.7804
 264  350.7737
 265  230.005
 266  210.4775
 267  240.474
 268  186.3798
 269  273.9475
 270  303.933
 271  225.7007
 272  144.3532
 273  214.4238
 274  284.1479
 275  312.9154
 276  158.1913
 277  181.8387
 278  75.40402
 279  110.7294
 280  258.4207
 281  373.0671
 282  283.9678
 283  247.978
 284  303.2597
 285  153.2914
 286  148.1031
 287  317.8305
 288  272.0739
 289  209.9101
 290  319.3441
 291  263.2184
 292  221.2901
 293  259.6055
 294  325.6144
 295  364.633
 296  372.771
 297  311.2512
 298  244.8426
 299  326.9739
 300  338.7592
 301  261.3539
 302  176.114
 303  201.9167
 304  258.3809
 305  262.0505
 306  317.0735
 307  366.955
 308  388.5296
 309  357.1366
 310  249.0104
 311  302.0074
 312  239.6127
 313  249.7453
 314  184.2575
 315  238.3569
 316  185.2267
 317  100.1909
 318  271.4539
 319  321.2668
 320  288.9366
 321  253.2988
 322  216.57
 323  320.9009
 324  375.0873
 325  223.921
 326  270.1666
 327  284.2379
 328  248.618
 329  124.3553
 330  164.2188
 331  348.9456
 332  375.5924
 333  307.8114
 334  310.9904
 335  239.0738
 336  246.3379
 337  199.4074
 338  160.0532
 339  255.79
 340  248.175
 341  184.7238
 342  241.4333
 343  271.8022
 344  351.7739
 345  353.821
 346  315.4808
 347  290.4801
 348  246.2646
 349  247.0987
 350  341.972
 351  227.4497
 352  256.4074
 353  364.5321
 354  259.0645
 355  212.4654
 356  294.4948
 357  340.0403
 358  361.0495
 359  307.9217
 360  296.4486
 361  253.6346
 362  257.5652
 363  335.5801
 364  318.9974
 365  460.288
 366  389.6989
 367  372.5061
 368  310.255
 369  272.9922
 370  306.8228
 371  260.2328
 372  253.9964
 373  212.3073
 374  211.2725
 375  173.6566
 376  330.1524
 377  339.2149
 378  275.6955
 379  152.6324
 380  249.5646
 381  274.9814
 382  365.9994
 383  391.325
 384  270.4854
 385  279.0501
 386  201.4267
 387  275.5855
 388  306.3535
 389  381.6068
 390  337.2047
 391  207.811
 392  197.5658
 393  373.4374
 394  441.1488
 395  319.848
 396  399.0891
 397  400.6103
 398  402.3535
 399  186.1722
 400  184.1782
 401  192.4627
 402  271.8452
 403  324.8344
 404  330.0502
 405  296.4714
 406  325.6023
 407  290.7258
 408  208.7714
 409  224.5187
 410  437.8447
 411  380.5484
 412  218.4491
 413  146.6313
 414  250.8333
 415  154.0102
 416  147.9002
 417  277.1194
 418  271.649
 419  222.1655
 420  412.3188
 421  396.6605
 422  301.0393
 423  305.5714
 424  246.0462
 425  167.0781
 426  265.9397
 427  355.2953
 428  464.1157
 429  503.8755
 430  409.2409
 431  374.252
 432  370.7828
 433  292.5623
 434  378.8859
 435  255.3506
 436  226.2138
 437  279.5022
 438  247.9903
 439  356.6229
 440  334.5535
 441  410.0779
 442  312.1851
 443  352.4479
 444  295.1914
 445  198.7451
 446  250.8578
 447  158.8248
 448  196.0982
 449  314.2734
 450  289.8511
 451  278.7108
 452  302.8874
 453  371.7314
 454  224.0337
 455  177.3221
 456  331.4163
 457  312.0275
 458  306.8934
 459  260.6316
 460  219.4903
 461  319.617
 462  227.101
 463  190.8856
 464  274.6987
 465  253.6598
 466  239.3777
 467  251.0095
 468  352.6566
 469  325.1772
 470  479.852
 471  446.1254
 472  370.1075
 473  395.6061
 474  329.3351
 475  328.676
 476  278.5648
 477  310.0713
 478  391.4683
 479  419.6671
 480  374.9254
 481  303.2505
 482  293.37
 483  366.5105
 484  420.0869
 485  315.2881
 486  286.0318
 487  319.0345
 488  267.6107
 489  262.6452
 490  301.8859
 491  410.6457
 492  305.6135
 493  402.0773
 494  332.1681
 495  266.6345
 496  336.9045
 497  315.8022
 498  265.7854
 499  282.7312
 500  370.8644
 501  319.2446
 502  333.4856
 503  333.0299
 504  394.9773
 505  478.8804
 506  533.9933
 507  504.2559
 508  487.8831
 509  539.1625
 510  666.8254
 511  677.1693
