# Input file       =  1203586598.108145-PSRB0329-2ms-sampling-dd.dat
# Candidate        =  PSR_0332+5434
# Telescope        =  AR
# Epoch_topo       =  58174.400660973901
# Epoch_bary       =  N/A
# T_sample         =  0.002
# Data Folded      =  7405568
# Data Avg         =  -2.07756056000566e-09
# Data StdDev      =  7.57448041809774 
# Profile Bins     =  512
# Profile Avg      =  -0.0439204979181158
# Profile StdDev   =  910.955272299562 
# Reduced chi-sqr  =  0.790
# Prob(Noise)      <  1   (~0.0 sigma)
# P_topo (ms)      =  714.580703100735  +/- 4.49e-05
# P'_topo (s/s)    =  -0                +/- 2.35e-11
# P''_topo (s/s^2) =  0                 +/- 1.03e-14
# P_bary (ms)      =  N/A
# P'_bary (s/s)    =  N/A
# P''_bary (s/s^2) =  N/A
# P_orb (s)        =  N/A
# asin(i)/c (s)    =  N/A
# eccentricity     =  N/A
# w (rad)          =  N/A
# T_peri           =  N/A
######################################################
   0  1.625899
   1  -157.6519
   2  -422.8258
   3  -1192.183
   4  -1640.182
   5  -654.8111
   6  -269.1155
   7  -875.3566
   8  -746.5726
   9  -377.7961
  10  -13.85714
  11  -685.3981
  12  -75.66255
  13  26.4946
  14  179.0137
  15  104.3725
  16  -353.1672
  17  185.7056
  18  -174.1421
  19  -701.7075
  20  -1278.83
  21  -675.9427
  22  -200.8542
  23  -563.342
  24  -612.5216
  25  -675.8218
  26  43.44432
  27  57.31431
  28  241.8393
  29  419.6201
  30  407.0565
  31  399.8767
  32  -276.3979
  33  -670.0382
  34  -639.1708
  35  -437.5619
  36  -990.724
  37  -693.0179
  38  271.4617
  39  -46.4949
  40  -818.647
  41  -1115.746
  42  -650.1287
  43  -455.5049
  44  33.28222
  45  556.5455
  46  543.4833
  47  632.052
  48  -4.801672
  49  -472.4663
  50  -418.9304
  51  288.6043
  52  -164.9019
  53  -1049.258
  54  -543.598
  55  -293.6122
  56  -631.5201
  57  -987.1005
  58  -820.6343
  59  -55.75885
  60  -702.2282
  61  -724.2498
  62  -154.5548
  63  846.6786
  64  553.0751
  65  -293.2784
  66  -819.8532
  67  -784.5021
  68  -1092.846
  69  -1349.176
  70  -616.6587
  71  -210.4075
  72  -384.9742
  73  -529.5302
  74  -218.1345
  75  280.5948
  76  578.9146
  77  -13.36405
  78  112.1747
  79  386.6875
  80  402.3356
  81  107.2138
  82  -67.75401
  83  332.8913
  84  178.308
  85  -109.343
  86  -364.6858
  87  -575.4229
  88  262.0335
  89  170.6394
  90  -995.6298
  91  -443.5614
  92  -81.42667
  93  -144.1194
  94  -409.5067
  95  -26.79237
  96  595.192
  97  401.5682
  98  -66.76514
  99  -506.1754
 100  -475.7379
 101  -661.5226
 102  -1091.444
 103  -776.4894
 104  -353.5875
 105  -132.5292
 106  -1134.363
 107  -951.2603
 108  -379.2793
 109  -252.6807
 110  -566.4508
 111  -557.6736
 112  282.5789
 113  -26.61007
 114  -629.1217
 115  -1106.338
 116  -615.4942
 117  -331.1316
 118  -287.7944
 119  -562.1146
 120  -327.7118
 121  103.575
 122  -589.0886
 123  -1412.686
 124  -947.5339
 125  -231.8141
 126  -149.8198
 127  30.57356
 128  518.9871
 129  764.1577
 130  488.7663
 131  -607.2847
 132  -628.6621
 133  -112.6882
 134  -198.0651
 135  -721.8405
 136  -1133.526
 137  -576.9536
 138  -424.3726
 139  -555.4141
 140  -368.1269
 141  -279.2991
 142  -580.66
 143  -480.496
 144  118.8129
 145  817.0176
 146  1068.162
 147  576.52
 148  -451.3797
 149  -876.7957
 150  -615.9857
 151  -853.4604
 152  -690.4224
 153  -293.7391
 154  163.0399
 155  -444.4361
 156  -750.0615
 157  -575.0682
 158  -44.6648
 159  -325.0213
 160  -432.2299
 161  78.17519
 162  706.0353
 163  1151.855
 164  -8.558565
 165  -157.2689
 166  -251.5958
 167  -160.196
 168  -709.5065
 169  -957.5673
 170  175.6643
 171  415.4191
 172  -90.27843
 173  -292.909
 174  297.9882
 175  370.4928
 176  -49.51697
 177  161.6618
 178  804.6214
 179  965.5814
 180  568.3178
 181  397.1552
 182  -56.86773
 183  141.8334
 184  -600.5355
 185  -26.31844
 186  1270.004
 187  1189.255
 188  376.3817
 189  -442.8069
 190  -297.0528
 191  18.8612
 192  379.2529
 193  765.5092
 194  1177.89
 195  1258.093
 196  553.0486
 197  -210.331
 198  -342.7686
 199  -101.457
 200  407.82
 201  121.7978
 202  213.842
 203  411.5624
 204  453.0402
 205  -227.8567
 206  -779.3364
 207  364.291
 208  1038.353
 209  953.6992
 210  753.173
 211  994.9464
 212  1135.81
 213  869.8857
 214  412.3064
 215  303.4935
 216  339.6299
 217  -19.35463
 218  16.6945
 219  481.7215
 220  547.7211
 221  940.0125
 222  543.0251
 223  314.3316
 224  862.9801
 225  914.7956
 226  775.8062
 227  1123.132
 228  1678.743
 229  1580.147
 230  466.694
 231  71.44232
 232  478.4839
 233  942.9885
 234  452.671
 235  78.40795
 236  359.313
 237  661.2751
 238  183.7823
 239  -34.35828
 240  117.7228
 241  97.32008
 242  10.69522
 243  387.1777
 244  818.7787
 245  1359.61
 246  1226.602
 247  435.7368
 248  524.1339
 249  190.5802
 250  -182.5864
 251  -574.1789
 252  106.6024
 253  874.3181
 254  790.8079
 255  738.6793
 256  620.87
 257  918.2111
 258  1052.02
 259  569.6347
 260  626.8342
 261  1179.7
 262  1251.135
 263  411.3622
 264  149.0212
 265  379.1261
 266  537.5884
 267  17.93598
 268  -162.9497
 269  565.8196
 270  627.4653
 271  -206.2043
 272  -887.3627
 273  -294.5227
 274  -289.0596
 275  -355.3162
 276  467.9277
 277  1233.902
 278  984.5842
 279  722.5236
 280  75.71478
 281  -607.9083
 282  -385.8985
 283  -483.0007
 284  -534.937
 285  76.73513
 286  456.7173
 287  212.4883
 288  17.85835
 289  -256.2011
 290  492.8398
 291  552.3495
 292  259.5984
 293  525.8317
 294  997.1243
 295  1262.298
 296  850.505
 297  342.3495
 298  218.8901
 299  45.06905
 300  -229.4284
 301  -785.9602
 302  -72.83179
 303  181.3605
 304  55.61446
 305  -126.0554
 306  -139.6805
 307  64.3942
 308  190.0748
 309  548.8096
 310  794.4301
 311  780.3481
 312  866.7957
 313  -26.52705
 314  197.7582
 315  124.3069
 316  -492.1828
 317  -743.6378
 318  -526.9233
 319  -168.5989
 320  -37.4121
 321  -454.3594
 322  -163.0004
 323  329.0156
 324  233.8012
 325  302.9349
 326  508.1526
 327  1065.696
 328  1164.628
 329  309.3845
 330  -19.21348
 331  393.3203
 332  -170.403
 333  -685.7703
 334  -704.6601
 335  -71.09567
 336  241.9633
 337  -256.8785
 338  -426.733
 339  -146.227
 340  -0.7407792
 341  -153.0467
 342  -166.2488
 343  76.99963
 344  494.5016
 345  389.9414
 346  -126.8401
 347  -286.2898
 348  -510.4006
 349  -595.0954
 350  -670.7573
 351  -571.7428
 352  -430.113
 353  -82.1805
 354  -208.4076
 355  -532.2184
 356  -54.54624
 357  43.26311
 358  348.6458
 359  824.2078
 360  952.6489
 361  810.831
 362  528.7925
 363  -130.3506
 364  -8.179457
 365  109.3478
 366  -647.129
 367  -1011.575
 368  -352.8021
 369  254.5767
 370  -507.3351
 371  -525.3328
 372  -276.4809
 373  -357.3274
 374  -437.5652
 375  61.91331
 376  179.6871
 377  482.8093
 378  -47.27924
 379  -533.1417
 380  -332.511
 381  -637.8279
 382  -953.5177
 383  -964.2618
 384  -354.4803
 385  70.72301
 386  180.2575
 387  -540.1733
 388  -495.3954
 389  -211.0848
 390  -299.8474
 391  -173.2498
 392  213.6233
 393  1033.109
 394  1071.019
 395  511.6574
 396  -117.4822
 397  -38.00171
 398  -229.0117
 399  -596.8535
 400  -522.1373
 401  -318.562
 402  -104.9414
 403  -736.0688
 404  -845.8785
 405  209.405
 406  497.3156
 407  261.6566
 408  -641.2146
 409  -466.6601
 410  22.92813
 411  1.768495
 412  -219.8573
 413  -539.1771
 414  -339.5271
 415  -338.4701
 416  -1112.138
 417  -1126.733
 418  3.897046
 419  -212.7168
 420  -834.1104
 421  -803.7852
 422  108.382
 423  430.5461
 424  -313.1275
 425  176.1798
 426  677.6458
 427  587.7009
 428  341.7952
 429  -305.4376
 430  -71.03346
 431  -610.1229
 432  -873.46
 433  -1182.043
 434  -257.2317
 435  348.8605
 436  243.1405
 437  58.24897
 438  468.5658
 439  889.0785
 440  329.833
 441  312.8575
 442  927.0312
 443  1908.348
 444  2100.458
 445  1555.107
 446  987.4798
 447  379.5625
 448  -401.5076
 449  -964.5139
 450  -437.4076
 451  -85.37243
 452  -536.8274
 453  -419.4002
 454  -567.5939
 455  -337.9695
 456  -134.6288
 457  455.9183
 458  749.0212
 459  805.0554
 460  1148.072
 461  841.0037
 462  804.9069
 463  209.1682
 464  63.78551
 465  -436.8148
 466  -460.6911
 467  334.0436
 468  808.3188
 469  259.774
 470  -205.9306
 471  -404.2047
 472  -190.6216
 473  20.48354
 474  76.59296
 475  721.629
 476  1022.614
 477  301.0923
 478  -356.3076
 479  -434.5744
 480  354.2417
 481  -224.4229
 482  -311.5646
 483  -70.5967
 484  -16.82998
 485  116.7047
 486  -480.4224
 487  -539.7417
 488  219.602
 489  395.7428
 490  225.0946
 491  156.0364
 492  525.8401
 493  527.7394
 494  120.0689
 495  -144.3347
 496  -346.2469
 497  -601.9304
 498  -705.3395
 499  -824.3346
 500  -741.2238
 501  371.097
 502  -56.98749
 503  -151.5064
 504  227.4187
 505  177.1491
 506  -238.0134
 507  64.75655
 508  479.1033
 509  793.0257
 510  542.1369
 511  -49.96762
