# Input file       =  1203444197.101021_cleaned.dat
# Candidate        =  PSR_0332+5434
# Telescope        =  AR
# Epoch_topo       =  58172.752501169227
# Epoch_bary       =  N/A
# T_sample         =  0.002
# Data Folded      =  7340032
# Data Avg         =  0.196412418164462
# Data StdDev      =  5.02659471562247 
# Profile Bins     =  256
# Profile Avg      =  5631.78832399298 
# Profile StdDev   =  851.143651779103 
# Reduced chi-sqr  =  0.775
# Prob(Noise)      <  0.997   (~0.0 sigma)
# P_topo (ms)      =  714.581083806261  +/- 0.00094
# P'_topo (s/s)    =  -0                +/- 4.96e-10
# P''_topo (s/s^2) =  0                 +/- 2.19e-13
# P_bary (ms)      =  N/A
# P'_bary (s/s)    =  N/A
# P''_bary (s/s^2) =  N/A
# P_orb (s)        =  N/A
# asin(i)/c (s)    =  N/A
# eccentricity     =  N/A
# w (rad)          =  N/A
# T_peri           =  N/A
######################################################
   0  5498.95
   1  5206.797
   2  5582.005
   3  6044.555
   4  5745.451
   5  5619.679
   6  6716.631
   7  6588.843
   8  6081.714
   9  6363.461
  10  6851.223
  11  5766.294
  12  6426.419
  13  5334.905
  14  6107.617
  15  5951.759
  16  5019.505
  17  5579.852
  18  5629.117
  19  5501.834
  20  5709.193
  21  5222.512
  22  4727.752
  23  5518.555
  24  4640.699
  25  5179.427
  26  5936.235
  27  4902.62
  28  5274.274
  29  6533.934
  30  7046.756
  31  6268.894
  32  6333.118
  33  6559.56
  34  5450.247
  35  5993.248
  36  5782.46
  37  5527.277
  38  5623.028
  39  5921.038
  40  5136.866
  41  4815.68
  42  4968.913
  43  4898.062
  44  5464.473
  45  5277.511
  46  5924.688
  47  6030.302
  48  6338.158
  49  5393.917
  50  5914.625
  51  5786.118
  52  5880.319
  53  5673.839
  54  5360.312
  55  5921.312
  56  4902.808
  57  5850.859
  58  4736.72
  59  4971.768
  60  5882.615
  61  5303.318
  62  4969.115
  63  5742.523
  64  5923.194
  65  6334.726
  66  6378.889
  67  5665.722
  68  5911.582
  69  5772.111
  70  5917.596
  71  6084.457
  72  5864.229
  73  5561.938
  74  5850.365
  75  6135.113
  76  5487.678
  77  6132.149
  78  5645.436
  79  5583.692
  80  5501.305
  81  5445.562
  82  5672.152
  83  5192.693
  84  4845.708
  85  5125.569
  86  5811.675
  87  5302.192
  88  5163.802
  89  5438.148
  90  5803.784
  91  5755.927
  92  5861.507
  93  6231.508
  94  5262.385
  95  5375.462
  96  5265.826
  97  5897.375
  98  5695.088
  99  6682.807
 100  6605.375
 101  5845.261
 102  5567.011
 103  5812.197
 104  5443.066
 105  5585.127
 106  5285.869
 107  5556.251
 108  5945.13
 109  6150.552
 110  6428.873
 111  5490.409
 112  5659.01
 113  6386.038
 114  5922.562
 115  5947.958
 116  5675.287
 117  5340.553
 118  4775.82
 119  4862.516
 120  5535.336
 121  5620.09
 122  5880.295
 123  5323.743
 124  5556.833
 125  5234.198
 126  5246.253
 127  4767.709
 128  4657.245
 129  4763.522
 130  5077.332
 131  4400.48
 132  4672.967
 133  4791.681
 134  5371.883
 135  4513.058
 136  5727.193
 137  5785.209
 138  4887.152
 139  5303.065
 140  5368.688
 141  5327.918
 142  5134.653
 143  5480.682
 144  5881.511
 145  5801.197
 146  5526.399
 147  6202.667
 148  6185.603
 149  6784.492
 150  7210.981
 151  7353.879
 152  8132.292
 153  8802.798
 154  7075.73
 155  6229.351
 156  6828.163
 157  6344.689
 158  6125.604
 159  6675.962
 160  6386.399
 161  5866.522
 162  6275.406
 163  6291.38
 164  5986.969
 165  6414.843
 166  5441.57
 167  5230.678
 168  5505.906
 169  5449.922
 170  4767.726
 171  5414.317
 172  6165.183
 173  5027.531
 174  6030.854
 175  6109.313
 176  6163.629
 177  5114.661
 178  5244.474
 179  6204.59
 180  5827.75
 181  4786.837
 182  5791.543
 183  5828.309
 184  4517.446
 185  5590.545
 186  5288.162
 187  5600.456
 188  5553.386
 189  5745.659
 190  6179.008
 191  6168.829
 192  5948.186
 193  6167.588
 194  6511.75
 195  6419.077
 196  5988.705
 197  6060.945
 198  5763.682
 199  6124.324
 200  6541.316
 201  5746.653
 202  5597.222
 203  6628.97
 204  6204.042
 205  6061.309
 206  6090.156
 207  5670.116
 208  5659.116
 209  5348.956
 210  6081.768
 211  6264.424
 212  5582.99
 213  5459.479
 214  5130.745
 215  5894.674
 216  6212.209
 217  5020.523
 218  5556.629
 219  5087.373
 220  5488.373
 221  5288.096
 222  4551.32
 223  5574.268
 224  5455.337
 225  4998.046
 226  5348.208
 227  5461.654
 228  5704.715
 229  5173.454
 230  5236.733
 231  5899.913
 232  5115.484
 233  4571.861
 234  4127.993
 235  4713.095
 236  4163.719
 237  3952.288
 238  4678.274
 239  4780.254
 240  4490.216
 241  5250.313
 242  4761.728
 243  4888.647
 244  4553.512
 245  4045.537
 246  4660.192
 247  4478.955
 248  4176.258
 249  5249.186
 250  5555.375
 251  6145.24
 252  5853.309
 253  5520.743
 254  5149.006
 255  5518.795
