# Input file       =  1203698822.10975_cleaned.dat
# Candidate        =  PSR_0332+5434
# Telescope        =  AR
# Epoch_topo       =  58175.699549881363
# Epoch_bary       =  N/A
# T_sample         =  0.002
# Data Folded      =  7340032
# Data Avg         =  0.420952941578955
# Data StdDev      =  8.29710585442649 
# Profile Bins     =  1024
# Profile Avg      =  3017.44945628902 
# Profile StdDev   =  702.466518156498 
# Reduced chi-sqr  =  1.401
# Prob(Noise)      <  2.9e-16   (~8.1 sigma)
# P_topo (ms)      =  714.580908678077  +/- 0.00019
# P'_topo (s/s)    =  -0                +/- 1e-10
# P''_topo (s/s^2) =  0                 +/- 4.42e-14
# P_bary (ms)      =  N/A
# P'_bary (s/s)    =  N/A
# P''_bary (s/s^2) =  N/A
# P_orb (s)        =  N/A
# asin(i)/c (s)    =  N/A
# eccentricity     =  N/A
# w (rad)          =  N/A
# T_peri           =  N/A
######################################################
   0  3640.932
   1  3688.673
   2  3787.153
   3  3687.12
   4  3625.359
   5  3547.904
   6  3598.862
   7  3604.823
   8  3659.372
   9  3582.956
  10  3539.034
  11  3403.724
  12  3308.427
  13  3210.851
  14  3276.354
  15  3365.869
  16  3500.979
  17  3497.833
  18  3383.77
  19  3290.49
  20  3572.483
  21  3683.26
  22  3674.28
  23  3597.415
  24  3457.533
  25  3382.115
  26  3330.308
  27  3360.35
  28  3376.449
  29  3399.578
  30  3539.758
  31  3760.525
  32  3676.806
  33  3552.092
  34  3417.663
  35  3406.334
  36  3437.721
  37  3329.324
  38  3287.252
  39  3122.468
  40  3164.205
  41  3039.593
  42  2920.084
  43  2819.257
  44  2887.699
  45  2960.552
  46  3255.04
  47  3310.135
  48  3456.399
  49  3392.604
  50  3469.449
  51  3417.141
  52  3348.42
  53  3248.01
  54  3295.165
  55  3434.297
  56  3394.338
  57  3274.582
  58  3296.005
  59  3232.901
  60  3324.291
  61  3338.184
  62  3403.812
  63  3377.597
  64  3385.396
  65  3296.787
  66  3147.392
  67  3088.722
  68  3163.344
  69  3158.539
  70  3097.023
  71  3060.294
  72  3250.772
  73  3375.472
  74  3316.829
  75  3283.43
  76  3333.135
  77  3341.706
  78  3399.386
  79  3342.966
  80  3424.384
  81  3446.319
  82  3481.305
  83  3256.265
  84  3122.431
  85  3060.434
  86  3080.575
  87  3172.805
  88  3140.185
  89  3006.928
  90  2900.757
  91  2991.921
  92  3049.972
  93  3005.635
  94  2943.408
  95  2962.038
  96  2935.211
  97  2869.14
  98  2703.598
  99  2803.337
 100  2729.102
 101  2973.247
 102  3042.225
 103  3015.007
 104  2921.653
 105  2756.688
 106  2724.036
 107  2700.6
 108  2802.491
 109  2824.602
 110  2759.683
 111  2787.733
 112  2870.823
 113  2693.372
 114  2722.034
 115  2807.779
 116  2882.951
 117  2874.411
 118  2870.305
 119  2889.333
 120  2775.863
 121  2602.772
 122  2565.699
 123  2835.42
 124  3043.913
 125  3072.997
 126  3100.823
 127  3050.511
 128  3060.066
 129  3238.374
 130  3344.863
 131  3384.145
 132  3410.409
 133  3511.729
 134  3382.391
 135  3248.506
 136  3314.061
 137  3423.177
 138  3536.153
 139  3564.409
 140  3612.393
 141  3629.517
 142  3487.039
 143  3564.809
 144  3672.171
 145  3702.938
 146  3895.444
 147  3803.106
 148  3836.112
 149  3925.943
 150  3987.304
 151  4020.654
 152  4044.52
 153  3959.975
 154  3840.944
 155  3732.257
 156  3748.904
 157  3789.808
 158  3716.162
 159  3698.451
 160  3742.18
 161  3890.938
 162  4101.716
 163  4090.16
 164  4111.108
 165  3986.132
 166  4090.098
 167  3981.928
 168  3904.978
 169  3704.67
 170  3853.798
 171  3828.688
 172  3737.669
 173  3605.519
 174  3470.187
 175  3411.247
 176  3461.919
 177  3647.384
 178  3647.486
 179  3577.401
 180  3568.783
 181  3636.88
 182  3707.874
 183  3643.398
 184  3749.331
 185  3645.778
 186  3429.931
 187  3358.629
 188  3431.511
 189  3370.646
 190  3227.531
 191  3158.613
 192  3061.261
 193  2992.973
 194  3059.419
 195  3080.198
 196  3081.844
 197  3081.639
 198  3210.026
 199  3132.385
 200  2898.739
 201  2789.486
 202  2899.604
 203  2793.844
 204  2783.981
 205  2827.941
 206  2943.743
 207  2833.097
 208  2840.32
 209  2780.315
 210  2750.12
 211  2819.431
 212  2930.814
 213  2778.242
 214  2717.378
 215  2662.368
 216  2820.055
 217  2790.275
 218  2677.601
 219  2607.378
 220  2710.826
 221  2722.092
 222  2777.389
 223  2568.396
 224  2439.844
 225  2489.218
 226  2443.157
 227  2486.736
 228  2390.206
 229  2532.917
 230  2595.248
 231  2541.654
 232  2435.575
 233  2516.877
 234  2692.301
 235  2835.767
 236  2736.553
 237  2637.699
 238  2579.5
 239  2523.003
 240  2504.878
 241  2334.752
 242  2469.229
 243  2331.097
 244  2349.807
 245  2366.941
 246  2373.479
 247  2297.183
 248  2272.674
 249  2376.358
 250  2436.118
 251  2468.635
 252  2493.305
 253  2485.794
 254  2517.841
 255  2450.43
 256  2451.396
 257  2365.584
 258  2280.411
 259  2311.273
 260  2493.496
 261  2564.868
 262  2452.913
 263  2277.907
 264  2335.593
 265  2405.055
 266  2571.345
 267  2463.411
 268  2444.332
 269  2400.491
 270  2492.866
 271  2690.926
 272  2782.926
 273  2712.213
 274  2702.829
 275  2732.816
 276  2886.699
 277  2920.905
 278  2686.996
 279  2577.453
 280  2776.223
 281  3116.783
 282  3062.587
 283  2907.191
 284  2728.587
 285  2819.472
 286  2849.691
 287  2839.408
 288  2811.722
 289  2862.169
 290  2837.912
 291  2810.346
 292  2825.9
 293  2894.698
 294  2837.536
 295  2799.563
 296  2973.179
 297  3178.458
 298  3269.404
 299  3337.342
 300  3335.538
 301  3383.699
 302  3371.945
 303  3422.047
 304  3442.661
 305  3350.104
 306  3320.462
 307  3313.237
 308  3315.555
 309  3515.693
 310  3664.114
 311  3717.522
 312  3581.729
 313  3440.888
 314  3463.617
 315  3717.383
 316  3934.38
 317  4023.496
 318  4033.994
 319  3927.544
 320  3820.95
 321  3814.862
 322  3627.456
 323  3484.122
 324  3462.447
 325  3562.925
 326  3489.389
 327  3473.697
 328  3413.47
 329  3502.925
 330  3346.38
 331  3270.504
 332  3231.586
 333  3345.313
 334  3286.114
 335  3067.187
 336  3122.958
 337  3087.563
 338  3011.396
 339  3130.288
 340  3189.696
 341  3249.742
 342  3249.767
 343  3224.111
 344  3054.462
 345  2987.704
 346  2844.994
 347  2943.257
 348  2822.106
 349  2831.657
 350  2823.29
 351  2826.649
 352  2867.727
 353  2789.809
 354  2843.91
 355  2828.468
 356  2729.274
 357  2679.647
 358  2728.398
 359  2767.727
 360  2535.822
 361  2505.552
 362  2437.96
 363  2610.337
 364  2562.231
 365  2663.184
 366  2511.712
 367  2383.549
 368  2403.006
 369  2580.541
 370  2564.112
 371  2533.66
 372  2505.435
 373  2607.396
 374  2485.187
 375  2635.116
 376  2729.1
 377  2756.191
 378  2662.615
 379  2599.27
 380  2660.722
 381  2642.607
 382  2508.888
 383  2526.174
 384  2535.609
 385  2591.589
 386  2490.117
 387  2401.275
 388  2355.03
 389  2254.503
 390  2182.189
 391  2151.127
 392  2293.925
 393  2262.773
 394  2247.094
 395  2187.525
 396  2374.333
 397  2458.426
 398  2458.148
 399  2454.105
 400  2480.378
 401  2378.321
 402  2356.504
 403  2408.47
 404  2456.616
 405  2343.329
 406  2308.656
 407  2387.13
 408  2418.328
 409  2450.085
 410  2436.11
 411  2584.086
 412  2678.449
 413  2727.914
 414  2699.362
 415  2645.668
 416  2578.361
 417  2423.916
 418  2337.782
 419  2280.726
 420  2351.351
 421  2545.12
 422  2608.433
 423  2672.606
 424  2674.763
 425  2674.283
 426  2741.98
 427  2679.154
 428  2565.538
 429  2616.543
 430  2690.187
 431  2596.146
 432  2413.606
 433  2310.05
 434  2362.445
 435  2499.767
 436  2704.332
 437  2721.16
 438  2677.899
 439  2754.938
 440  2810.169
 441  2885.498
 442  2961.344
 443  3086.037
 444  3312.275
 445  3325.477
 446  3233.653
 447  3093.819
 448  3107.903
 449  3056.749
 450  3069.198
 451  3109.692
 452  3024.993
 453  3080.666
 454  3119.815
 455  3026.56
 456  2981.931
 457  2887.213
 458  3026.584
 459  2992.14
 460  3076.206
 461  3060.533
 462  3109.722
 463  2993.537
 464  2967.227
 465  2919.505
 466  2963.443
 467  2977.328
 468  2882.965
 469  2826.156
 470  2800.135
 471  2787.786
 472  2948.49
 473  3103.824
 474  3002.489
 475  2719.056
 476  2717.07
 477  2744.428
 478  2781.806
 479  2875.739
 480  2929.338
 481  2865.26
 482  2806.438
 483  2810.904
 484  2860.699
 485  2813.289
 486  2784.543
 487  2807.791
 488  2891.691
 489  2875.402
 490  2660.17
 491  2612.47
 492  2655.743
 493  2884.209
 494  3089.789
 495  3235.854
 496  3217.689
 497  3107.234
 498  3109.228
 499  3113.008
 500  2993.838
 501  2965.022
 502  2773.812
 503  2688.572
 504  2541.439
 505  2487.282
 506  2444.499
 507  2477.424
 508  2592.966
 509  2636.097
 510  2603.879
 511  2643.689
 512  2630.354
 513  2540.831
 514  2527.208
 515  2644.898
 516  2565.137
 517  2563.149
 518  2536.118
 519  2512.861
 520  2466.149
 521  2548.075
 522  2622.268
 523  2712.427
 524  2573.897
 525  2444.377
 526  2393.237
 527  2491.663
 528  2502.173
 529  2655.072
 530  2739.941
 531  2654.854
 532  2489.399
 533  2475.2
 534  2657.278
 535  2847.336
 536  2845.736
 537  2915.431
 538  2983.522
 539  2819.654
 540  2489.306
 541  2535.715
 542  2650.163
 543  2731.83
 544  2663.857
 545  2642.686
 546  2654.228
 547  2691.066
 548  2611.819
 549  2607.436
 550  2668.325
 551  2684.835
 552  2563.165
 553  2575.15
 554  2694.346
 555  2763.022
 556  2747.537
 557  2929.711
 558  3037.286
 559  3023.144
 560  2857.992
 561  2906.315
 562  3030.116
 563  3025.462
 564  2986.529
 565  3107.251
 566  3168.501
 567  3243.744
 568  3473.037
 569  3559.951
 570  3481.915
 571  3335.594
 572  3365.841
 573  3381.596
 574  3369.971
 575  3380.651
 576  3446.371
 577  3521.702
 578  3465.258
 579  3428.857
 580  3440.411
 581  3523.062
 582  3571.269
 583  3617.598
 584  3617.335
 585  3533.565
 586  3538.147
 587  3626.056
 588  3749.711
 589  3982.716
 590  4095.641
 591  4060.934
 592  3993.933
 593  4079.609
 594  4158.171
 595  3901.581
 596  3764.741
 597  3701.678
 598  3802.726
 599  3805.301
 600  3978.301
 601  4092.354
 602  4235.548
 603  4312.899
 604  4333.752
 605  4287.616
 606  4436.792
 607  4709.648
 608  4927.688
 609  4977.816
 610  4868.525
 611  4761.275
 612  4581.679
 613  4334.791
 614  4082.362
 615  4008.61
 616  3851.73
 617  3607.133
 618  3437.916
 619  3434.548
 620  3473.377
 621  3474.224
 622  3494.305
 623  3419.899
 624  3438.328
 625  3376.527
 626  3368.004
 627  3263.037
 628  3214.632
 629  3157.026
 630  3048.448
 631  2955.518
 632  2911.156
 633  2935.161
 634  3038.604
 635  2948.833
 636  2881.134
 637  2868.613
 638  2833.063
 639  2969.281
 640  3049.981
 641  3054.939
 642  3025.401
 643  2951.085
 644  2807.616
 645  2685.774
 646  2724.725
 647  2734.959
 648  2638.146
 649  2613.973
 650  2664.317
 651  2728.354
 652  2724.446
 653  2752.174
 654  2772.643
 655  2784.995
 656  2844.111
 657  2792.848
 658  2725.931
 659  2743.607
 660  2791.053
 661  2805.32
 662  2817.385
 663  2805.345
 664  2865.232
 665  2643.586
 666  2622.288
 667  2601.684
 668  2621.495
 669  2657.778
 670  2729.181
 671  2798.492
 672  2826.014
 673  2833.38
 674  2747.054
 675  2840.04
 676  2885.436
 677  2787.492
 678  2548.745
 679  2356.071
 680  2278.574
 681  2292.439
 682  2327.295
 683  2301.7
 684  2506.398
 685  2514.69
 686  2511.358
 687  2535.934
 688  2637.721
 689  2678.76
 690  2627.91
 691  2661.435
 692  2634.071
 693  2418.154
 694  2337.198
 695  2296.041
 696  2308.237
 697  2311.153
 698  2333.967
 699  2403.067
 700  2358.263
 701  2250.727
 702  2459.257
 703  2591.148
 704  2559.89
 705  2448.802
 706  2411.26
 707  2654.475
 708  2822.703
 709  2823.639
 710  2648.128
 711  2561.302
 712  2529.305
 713  2620.042
 714  2415.226
 715  2306.246
 716  2452.936
 717  2672.004
 718  2685.792
 719  2567.857
 720  2583.206
 721  2662.309
 722  2840.073
 723  2864.26
 724  3012.598
 725  2981.599
 726  2884.98
 727  2869.804
 728  2949.589
 729  3123.56
 730  3201.404
 731  3293.391
 732  3249.517
 733  3207.289
 734  3141.985
 735  3205.485
 736  3263.915
 737  3416.218
 738  3601.41
 739  3726.586
 740  3777.926
 741  3639.887
 742  3615.605
 743  3700.772
 744  3921.029
 745  3981.879
 746  3929.549
 747  3773.213
 748  3734.167
 749  3860.069
 750  3966.479
 751  3959.535
 752  3788.581
 753  3642.894
 754  3570.79
 755  3387.604
 756  3370.636
 757  3414.894
 758  3659.907
 759  3805.179
 760  3823.114
 761  3678.663
 762  3565.153
 763  3593.909
 764  3681.788
 765  3503.436
 766  3365.331
 767  3303.269
 768  3325.631
 769  3328.978
 770  3279.075
 771  3198.591
 772  3154.476
 773  3207.283
 774  3221.146
 775  3181.357
 776  3016.881
 777  2801.779
 778  2773.333
 779  2670.443
 780  2766.501
 781  2849.629
 782  2902.826
 783  2814.98
 784  2806.64
 785  2783.129
 786  2857.769
 787  2842.27
 788  2866.194
 789  2918.646
 790  3083.947
 791  3121.233
 792  2979.67
 793  2829.849
 794  2853.386
 795  2805.705
 796  2828.579
 797  2811.924
 798  2789.131
 799  2763.129
 800  2740.118
 801  2920.827
 802  3108.75
 803  3079.26
 804  3076.382
 805  3127.305
 806  3085.09
 807  2995.687
 808  2941.989
 809  3022.683
 810  3040.469
 811  3006.486
 812  2948.034
 813  2816.607
 814  2865.082
 815  2917.902
 816  2882.881
 817  2748.25
 818  2807.158
 819  2840.323
 820  2850.26
 821  2782.98
 822  2855.089
 823  3046.487
 824  3077.033
 825  2974.357
 826  2763.851
 827  2714.078
 828  2661.974
 829  2528.035
 830  2515.229
 831  2569.629
 832  2649.246
 833  2785.805
 834  2864.809
 835  3052.628
 836  3109.884
 837  3061.093
 838  2991.945
 839  2885.183
 840  2862.425
 841  2752.37
 842  2739.656
 843  2684.742
 844  2812.617
 845  2804.238
 846  2825.932
 847  2841.894
 848  3043.665
 849  3051.258
 850  3000.888
 851  2760.228
 852  2733.917
 853  2597.151
 854  2669.816
 855  2786.49
 856  2835.272
 857  2776.577
 858  2607.197
 859  2619.533
 860  2684.722
 861  2590.408
 862  2647.541
 863  2747.389
 864  2940.606
 865  2937.753
 866  3023.319
 867  2882.031
 868  2716.801
 869  2697.599
 870  2695.501
 871  2722.632
 872  2640.486
 873  2761.481
 874  2905.406
 875  3074.445
 876  3006.786
 877  2970.575
 878  2985.444
 879  2982.774
 880  3161.331
 881  3163.682
 882  3299.226
 883  3287.729
 884  3383.486
 885  3215.524
 886  3204
 887  3220.589
 888  3203.572
 889  3144.882
 890  3171.096
 891  3297.667
 892  3388.793
 893  3535.331
 894  3740.376
 895  3717.026
 896  3657.133
 897  3638.222
 898  3600.657
 899  3655.044
 900  3551.261
 901  3648.852
 902  3607.78
 903  3554.342
 904  3513.009
 905  3460.735
 906  3459.598
 907  3515.365
 908  3670.408
 909  3739.246
 910  3508.799
 911  3525.19
 912  3532.004
 913  3451.623
 914  3384.407
 915  3217.508
 916  3183.772
 917  3166.385
 918  3237.487
 919  3181.373
 920  3108.173
 921  3184.652
 922  3270.154
 923  3316.68
 924  3316.41
 925  3330.677
 926  3334.439
 927  3240.303
 928  3072.285
 929  3129.704
 930  3089.337
 931  3153.765
 932  3236.235
 933  3328.158
 934  3337.381
 935  3309.861
 936  3251.01
 937  3093.094
 938  3023.147
 939  3137.071
 940  3132.274
 941  3114.493
 942  3122.015
 943  3185.302
 944  3235.487
 945  3197.886
 946  3123.355
 947  2963.886
 948  2902.927
 949  2769.102
 950  2944.7
 951  3015.775
 952  2923.645
 953  2815.622
 954  2841.679
 955  2938.284
 956  2951.364
 957  2765.595
 958  2686.118
 959  2651.111
 960  2896.057
 961  2794.733
 962  2673.097
 963  2444.234
 964  2432.75
 965  2499.815
 966  2426.973
 967  2286.572
 968  2227.847
 969  2258.291
 970  2273.594
 971  2361.938
 972  2590.715
 973  2640.873
 974  2741.614
 975  2776.324
 976  2632.182
 977  2407.765
 978  2419.021
 979  2387.038
 980  2485.171
 981  2405.528
 982  2580.188
 983  2480.52
 984  2457.782
 985  2421.334
 986  2496.368
 987  2561.448
 988  2384.722
 989  2283.988
 990  2337.308
 991  2565.723
 992  2663.798
 993  2576.334
 994  2473.577
 995  2522.858
 996  2703.858
 997  2751.195
 998  2547.583
 999  2500.159
1000  2531.847
1001  2485.075
1002  2457.097
1003  2648.832
1004  2818.122
1005  2887.286
1006  2875.107
1007  2873.388
1008  3009.511
1009  3062.149
1010  3062.436
1011  3005.332
1012  2902.061
1013  2959.171
1014  2992.969
1015  3053.263
1016  3149.673
1017  3332.171
1018  3437.588
1019  3494.03
1020  3545.267
1021  3340.371
1022  3289.729
1023  3340.031
