# Input file       =  1203672702.105511_cleaned.dat
# Candidate        =  PSR_0332+5434
# Telescope        =  AR
# Epoch_topo       =  58175.397235017488
# Epoch_bary       =  N/A
# T_sample         =  0.002
# Data Folded      =  7405568
# Data Avg         =  0.506636324398369
# Data StdDev      =  6.60972195734303 
# Profile Bins     =  1024
# Profile Avg      =  3664.02990860305 
# Profile StdDev   =  562.098465505522 
# Reduced chi-sqr  =  1.103
# Prob(Noise)      <  0.0116   (~2.3 sigma)
# P_topo (ms)      =  714.580666988539  +/- 7.24e-05
# P'_topo (s/s)    =  -0                +/- 3.79e-11
# P''_topo (s/s^2) =  0                 +/- 1.66e-14
# P_bary (ms)      =  N/A
# P'_bary (s/s)    =  N/A
# P''_bary (s/s^2) =  N/A
# P_orb (s)        =  N/A
# asin(i)/c (s)    =  N/A
# eccentricity     =  N/A
# w (rad)          =  N/A
# T_peri           =  N/A
######################################################
   0  3686.635
   1  3692.439
   2  3624.397
   3  3652.18
   4  3446.657
   5  3236.174
   6  3263.461
   7  3314.977
   8  3461.19
   9  3535.141
  10  3586.162
  11  3695.934
  12  3705.575
  13  3877.314
  14  3731.286
  15  3797.885
  16  3927.263
  17  4035.353
  18  4054.551
  19  3913.418
  20  3933.92
  21  3888.392
  22  3775.1
  23  3703.351
  24  3593.194
  25  3661.195
  26  3590.092
  27  3610.809
  28  3643.445
  29  3481.008
  30  3441.626
  31  3123.938
  32  3146.292
  33  3266.611
  34  3697.222
  35  3620.57
  36  3489.921
  37  3472.812
  38  3488.729
  39  3344.466
  40  3164.924
  41  3268.075
  42  3391.3
  43  3522.42
  44  3448.188
  45  3473.633
  46  3424.629
  47  3783.335
  48  4005.522
  49  3976.303
  50  3775.398
  51  3746.074
  52  3870.916
  53  3925.462
  54  3929.687
  55  4020.684
  56  3996.918
  57  3865.42
  58  3878.082
  59  3798.66
  60  3725.155
  61  3463.583
  62  3409.382
  63  3408.985
  64  3380.511
  65  3522.467
  66  3646.77
  67  3635.465
  68  3349.412
  69  3259.429
  70  3226.069
  71  3323.768
  72  3386.516
  73  3466.961
  74  3607.387
  75  3563.365
  76  3594.04
  77  3521.39
  78  3652.344
  79  3778.701
  80  3941.263
  81  3953.077
  82  3901.036
  83  3760.777
  84  3698.282
  85  3540.708
  86  3640.744
  87  3711.696
  88  3854.822
  89  3835.047
  90  3827.723
  91  3865.269
  92  4020.701
  93  3997.246
  94  4040.289
  95  3961.906
  96  3941.986
  97  3710.841
  98  3590.886
  99  3646.906
 100  3770.477
 101  3837.385
 102  3697.541
 103  3563.844
 104  3570.872
 105  3464.453
 106  3520.5
 107  3623.828
 108  3795.453
 109  3926.018
 110  3938.479
 111  4064.009
 112  4112.587
 113  4091.725
 114  4158.207
 115  4185.725
 116  4292.126
 117  4198.944
 118  4228.08
 119  4264.711
 120  4248.723
 121  4195.32
 122  4187.058
 123  4304.529
 124  4410.493
 125  4394.449
 126  4320.482
 127  4024.053
 128  3798.259
 129  3711.155
 130  3707.965
 131  3772.903
 132  3839.198
 133  4015.365
 134  3878.295
 135  3617.362
 136  3713.833
 137  3855.466
 138  3957.864
 139  4045.547
 140  4040.733
 141  4056.553
 142  3961.465
 143  3927.504
 144  3920.737
 145  3947.789
 146  4031.081
 147  4045.706
 148  4029.337
 149  4103.53
 150  4121.18
 151  4095.951
 152  3949.78
 153  3986.153
 154  4014.874
 155  4260.955
 156  4180.452
 157  4229.114
 158  4084.481
 159  4206.009
 160  4163.721
 161  4134.243
 162  3805.527
 163  3517.181
 164  3480.131
 165  3665.523
 166  3613.686
 167  3498.868
 168  3353.804
 169  3415.693
 170  3250.268
 171  3261.672
 172  3212.732
 173  3343.612
 174  3547.938
 175  3733.017
 176  3934.749
 177  3761.565
 178  3724.109
 179  3796.2
 180  3961.269
 181  3953.078
 182  3924.059
 183  4103.723
 184  4156.84
 185  4238.283
 186  4198.432
 187  4280.122
 188  4117.081
 189  4076.091
 190  4027.047
 191  4023.314
 192  3875.669
 193  3892.024
 194  3793.751
 195  3614.018
 196  3382.094
 197  3286.696
 198  3322.894
 199  3202
 200  3351.26
 201  3555.937
 202  3595.242
 203  3650.151
 204  3632.913
 205  3641.572
 206  3595.429
 207  3520.427
 208  3564.6
 209  3496.039
 210  3543.491
 211  3598.536
 212  3680.899
 213  3687.991
 214  3754.657
 215  3724.427
 216  3698.672
 217  3605.858
 218  3592.927
 219  3762.587
 220  3790.409
 221  3740.655
 222  3651.678
 223  3713.646
 224  3900.141
 225  3939.059
 226  3806.039
 227  3570.094
 228  3480.02
 229  3553.047
 230  3582.258
 231  3671.732
 232  3771.956
 233  3683.908
 234  3509.133
 235  3303.202
 236  3269.923
 237  3378.353
 238  3351.955
 239  3484.208
 240  3407.076
 241  3488.468
 242  3486.46
 243  3546.98
 244  3511.644
 245  3460.754
 246  3622.408
 247  3737.924
 248  3640.443
 249  3505.708
 250  3387.777
 251  3522.038
 252  3612.737
 253  3567.178
 254  3598.027
 255  3481.038
 256  3600.028
 257  3561.861
 258  3499.282
 259  3529.594
 260  3436.302
 261  3335.917
 262  3097.071
 263  2997.179
 264  3027.244
 265  3012.458
 266  3325.082
 267  3389.817
 268  3408.573
 269  3280.112
 270  3424.761
 271  3478.981
 272  3466.27
 273  3482.39
 274  3655.205
 275  3677.115
 276  3812.734
 277  3766.455
 278  3743.749
 279  3583.568
 280  3603.521
 281  3658.465
 282  3582.565
 283  3497.86
 284  3505.407
 285  3592.574
 286  3650.508
 287  3603.939
 288  3614.003
 289  3597.375
 290  3639.442
 291  3663.436
 292  3629.509
 293  3523.527
 294  3495.172
 295  3476.71
 296  3445.083
 297  3414.308
 298  3441.02
 299  3490.704
 300  3353.445
 301  3234.424
 302  3118.04
 303  3161.075
 304  3343.021
 305  3354.384
 306  3237.425
 307  3392.198
 308  3467.878
 309  3515.245
 310  3389.154
 311  3280.145
 312  3353.704
 313  3640.958
 314  3752.861
 315  3698.166
 316  3496.573
 317  3469.719
 318  3513.693
 319  3583.788
 320  3620.498
 321  3642.749
 322  3686.268
 323  3564.784
 324  3521.419
 325  3589.843
 326  3522.921
 327  3354.487
 328  3257.812
 329  3299.569
 330  3224.797
 331  3258.9
 332  3168.067
 333  3119.621
 334  3113.451
 335  3134.341
 336  3169.684
 337  3060.649
 338  3137.757
 339  3365.75
 340  3520.856
 341  3585.449
 342  3472.034
 343  3476.387
 344  3427.716
 345  3488.564
 346  3496.319
 347  3585.467
 348  3553.181
 349  3670.802
 350  3684.207
 351  3711.079
 352  3659.089
 353  3737.167
 354  3773.732
 355  3889.869
 356  3965.446
 357  3949.753
 358  3836.22
 359  3774.033
 360  3668.836
 361  3504.69
 362  3326.308
 363  3342.591
 364  3403.912
 365  3435.475
 366  3239.283
 367  3249.774
 368  3172.263
 369  3268.825
 370  3378.052
 371  3569.324
 372  3793.962
 373  3939.836
 374  4030.788
 375  3994.281
 376  3952.667
 377  4064.907
 378  4207.8
 379  4356.802
 380  4315.78
 381  4213.753
 382  4184.226
 383  4109.915
 384  4054.686
 385  3927.197
 386  3896.597
 387  3790.767
 388  3862.72
 389  3887.987
 390  3954.737
 391  3926.273
 392  3997.693
 393  3932.923
 394  4017.062
 395  4079.821
 396  4042.829
 397  3976.979
 398  3890.299
 399  3814.432
 400  3666.914
 401  3454.347
 402  3571.692
 403  3524.933
 404  3570.15
 405  3558.37
 406  3764.167
 407  3876.453
 408  3845.062
 409  4023.908
 410  4061.587
 411  4059.239
 412  4031.969
 413  4059.799
 414  4082.817
 415  4082.181
 416  4177.948
 417  4278.411
 418  4223.335
 419  4156.071
 420  4143.831
 421  4142.312
 422  4175.428
 423  4219.941
 424  4267.85
 425  4192.689
 426  3950.88
 427  3840.846
 428  3668.319
 429  3665.026
 430  3730.083
 431  3822.171
 432  3757.953
 433  3553.442
 434  3481.118
 435  3380.268
 436  3443.377
 437  3733.534
 438  3910.171
 439  3987.874
 440  4003.551
 441  3947.546
 442  4041.554
 443  4126.658
 444  4217.375
 445  4117.635
 446  4030.263
 447  3964.651
 448  3893.912
 449  3958.482
 450  3775.927
 451  3634.255
 452  3541.241
 453  3733.427
 454  3826.579
 455  3827.146
 456  3826.044
 457  3854.914
 458  3817.787
 459  3723.812
 460  3529.17
 461  3497.135
 462  3659.803
 463  3841.445
 464  3734.791
 465  3429.581
 466  3404.328
 467  3554.758
 468  3557.049
 469  3535.853
 470  3526.938
 471  3755.313
 472  3804.214
 473  3752.537
 474  3551.418
 475  3542.545
 476  3670.947
 477  3894.944
 478  4015.22
 479  4038.702
 480  4040.788
 481  4027.702
 482  4059.749
 483  4100.294
 484  4127.455
 485  4199.204
 486  4209.689
 487  4245.332
 488  4225.857
 489  4087.311
 490  3950.92
 491  3916.375
 492  3826.381
 493  3752.324
 494  3672.906
 495  3730.109
 496  3759.885
 497  3669.355
 498  3652.127
 499  3544.268
 500  3556.846
 501  3659.947
 502  3863.317
 503  3942.017
 504  3837.133
 505  3851.269
 506  3761.643
 507  3861.526
 508  3786.531
 509  3691.081
 510  3737.21
 511  3973.633
 512  4051.309
 513  3882.694
 514  3769.642
 515  3761.54
 516  3870.599
 517  4051.754
 518  4045.476
 519  3865.942
 520  3764.014
 521  3807.927
 522  3969.001
 523  3865.611
 524  3752.863
 525  3614.608
 526  3713.355
 527  3840.986
 528  3804.559
 529  3679.337
 530  3625.675
 531  3609.156
 532  3518.541
 533  3226.572
 534  3099.984
 535  3283.962
 536  3584.917
 537  3688.321
 538  3581.193
 539  3551.054
 540  3588.89
 541  3784.796
 542  3902.969
 543  3920.159
 544  4043.7
 545  4075.487
 546  4170.593
 547  4065.176
 548  4103.693
 549  4177.156
 550  4185.801
 551  4058.32
 552  4122.931
 553  4173.049
 554  4106.699
 555  4075.184
 556  4081.596
 557  4110.804
 558  4026.309
 559  3935.42
 560  3863.062
 561  3845.765
 562  3853.77
 563  3698.118
 564  3511.245
 565  3459.153
 566  3463.51
 567  3475.146
 568  3562.627
 569  3655.619
 570  3715.188
 571  3704.583
 572  3865.254
 573  3972.994
 574  3984.966
 575  3946.975
 576  4051.223
 577  4084.798
 578  3950.525
 579  3839.425
 580  3932.552
 581  4006.421
 582  3937.737
 583  3864.282
 584  3803.342
 585  3789.416
 586  3731.548
 587  3960.573
 588  3986.49
 589  3796.552
 590  3634.623
 591  3516.446
 592  3471.402
 593  3451.648
 594  3598.747
 595  3669.94
 596  3580.347
 597  3522.416
 598  3459.853
 599  3392.112
 600  3329.203
 601  3435.686
 602  3546.408
 603  3635.657
 604  3697.306
 605  3806.35
 606  3760.258
 607  3775.042
 608  3945.531
 609  4202.324
 610  4329.612
 611  4313.375
 612  4384.429
 613  4431.193
 614  4293.276
 615  4210.592
 616  4254.558
 617  4231.819
 618  4237.092
 619  4074.889
 620  3905.51
 621  3737.151
 622  3629.243
 623  3714.823
 624  3675.624
 625  3652.171
 626  3613.709
 627  3578.625
 628  3584.341
 629  3564.358
 630  3607.827
 631  3529.222
 632  3486.361
 633  3490.991
 634  3418.745
 635  3522.009
 636  3656.855
 637  3812.925
 638  3771.411
 639  3617.51
 640  3662.934
 641  3790.538
 642  3767.232
 643  3754.243
 644  3800.554
 645  3933.927
 646  3939.285
 647  3866.157
 648  3845.559
 649  3994.822
 650  4038.707
 651  4057.221
 652  3900.67
 653  3734.128
 654  3526.432
 655  3407.594
 656  3335.643
 657  3340.069
 658  3324.93
 659  3362.252
 660  3339.644
 661  3411.141
 662  3226.148
 663  3115.161
 664  2894.195
 665  3051.96
 666  3118.804
 667  3170.102
 668  3184.271
 669  3330.271
 670  3503.036
 671  3488.98
 672  3417.923
 673  3501.638
 674  3563.216
 675  3694.044
 676  3816.848
 677  3938.883
 678  3961.063
 679  3829.651
 680  3770.012
 681  3742.304
 682  3866.625
 683  3807.589
 684  3749.895
 685  3589.988
 686  3608.173
 687  3515.745
 688  3523.9
 689  3542.381
 690  3625.179
 691  3660.316
 692  3561.989
 693  3448.134
 694  3450.02
 695  3296.727
 696  3223.222
 697  3265.485
 698  3330.346
 699  3281.2
 700  3280.423
 701  3352.353
 702  3378.108
 703  3402.007
 704  3633.545
 705  3720.211
 706  3566.753
 707  3328.914
 708  3241.457
 709  3333.979
 710  3500.433
 711  3716.717
 712  3720.985
 713  3531.397
 714  3392.748
 715  3424.502
 716  3428.945
 717  3562.493
 718  3510.598
 719  3645.177
 720  3565.033
 721  3679.197
 722  3549.232
 723  3467.365
 724  3297.534
 725  3366.843
 726  3242.129
 727  2992.206
 728  2751.78
 729  2823.033
 730  2785.622
 731  2616.963
 732  2629.435
 733  2722.542
 734  2901.659
 735  3173.918
 736  3266.643
 737  3055.194
 738  3050.535
 739  3115.067
 740  3144.394
 741  3096.65
 742  3311.998
 743  3432.415
 744  3219.671
 745  2989.098
 746  3056.134
 747  3170.135
 748  3144.443
 749  3147.983
 750  3158.048
 751  3144.351
 752  3146.823
 753  3252.929
 754  3286.168
 755  3076.533
 756  3062.278
 757  3138.954
 758  3066.331
 759  2793.309
 760  2762.465
 761  2975.857
 762  2903.279
 763  2820.701
 764  2658.857
 765  2703.299
 766  2747.501
 767  2758.837
 768  2864.422
 769  2866.498
 770  2917.361
 771  3035.94
 772  3060.843
 773  3056.877
 774  2911.752
 775  2977.592
 776  3023.658
 777  3178.938
 778  3300.772
 779  3250.547
 780  3040.925
 781  3005.434
 782  3235.91
 783  3315.689
 784  3378.128
 785  3437.312
 786  3485.376
 787  3371.285
 788  3272.989
 789  3260.845
 790  3154.773
 791  3074.257
 792  3136.137
 793  3134.44
 794  3027.238
 795  2783.353
 796  2786.255
 797  2877.599
 798  2940.861
 799  2901.494
 800  3040.286
 801  3220.353
 802  3366.148
 803  3445.929
 804  3466.074
 805  3425.494
 806  3321.897
 807  3363.138
 808  3509.935
 809  3524.901
 810  3520.964
 811  3507.892
 812  3611.547
 813  3625.566
 814  3584.1
 815  3609.394
 816  3553.827
 817  3665.986
 818  3757.256
 819  3801.725
 820  3683.327
 821  3579.346
 822  3614.232
 823  3594.358
 824  3504.146
 825  3420.896
 826  3415.923
 827  3483.792
 828  3354.579
 829  3228.982
 830  3144.275
 831  3249.521
 832  3407.104
 833  3484.691
 834  3643.421
 835  3671.531
 836  3588.437
 837  3601.573
 838  3656.393
 839  3726.911
 840  3806.14
 841  3816.418
 842  3973.44
 843  3890.821
 844  3851.87
 845  3851.472
 846  3987.196
 847  4123.893
 848  4068.7
 849  4013.449
 850  3912.628
 851  3849.604
 852  3810.399
 853  3780.042
 854  3602.576
 855  3530.607
 856  3313.606
 857  3331.339
 858  3272.297
 859  3424.346
 860  3466.885
 861  3361.472
 862  3318.981
 863  3312.3
 864  3401.479
 865  3578.299
 866  3560.775
 867  3644.037
 868  3571.094
 869  3587.841
 870  3573.065
 871  3621.218
 872  3804.618
 873  3883.638
 874  3928.735
 875  3883.399
 876  3815.29
 877  3722.82
 878  3661.667
 879  3625.966
 880  3760.595
 881  3709.546
 882  3768.511
 883  3751.341
 884  3824.255
 885  3765.91
 886  3671.869
 887  3621.034
 888  3633.153
 889  3491.814
 890  3515.595
 891  3453.566
 892  3465.226
 893  3412.438
 894  3520.776
 895  3456.701
 896  3374.136
 897  3259.444
 898  3293.758
 899  3472.813
 900  3458.226
 901  3516.97
 902  3536.094
 903  3489.213
 904  3446.331
 905  3616.907
 906  3894.541
 907  3880.571
 908  3762.447
 909  3726.007
 910  3784.922
 911  3726.745
 912  3792.264
 913  3826.421
 914  3746.202
 915  3716.404
 916  3752.842
 917  3771.829
 918  3719.491
 919  3680.804
 920  3699.785
 921  3656.891
 922  3539.246
 923  3443.164
 924  3577.476
 925  3588.62
 926  3549.737
 927  3407.37
 928  3404.032
 929  3409.194
 930  3440.16
 931  3429.136
 932  3404.228
 933  3418.874
 934  3552.223
 935  3533.568
 936  3743.771
 937  3830.083
 938  3858.82
 939  3729.676
 940  3773.048
 941  3728.28
 942  3559.244
 943  3484.338
 944  3643.614
 945  3697.117
 946  3728.441
 947  3664.973
 948  3751.303
 949  3795.676
 950  3870.865
 951  4003.529
 952  4092.984
 953  4103.948
 954  4043.718
 955  3934.888
 956  3901.188
 957  3770.475
 958  3736.106
 959  3726.112
 960  3786.343
 961  3650.904
 962  3471.641
 963  3293.583
 964  3294.459
 965  3432.724
 966  3556.178
 967  3693.885
 968  3848.283
 969  3875.631
 970  3779.043
 971  3855.38
 972  3986.964
 973  4249.108
 974  4253.179
 975  4303.388
 976  4239.665
 977  4199.645
 978  4327.092
 979  4317.01
 980  4314.765
 981  4234.322
 982  4320.127
 983  4198.095
 984  4087.885
 985  4083.368
 986  4101.896
 987  4053.03
 988  4019.913
 989  4014.341
 990  4006.567
 991  3953.515
 992  3973.555
 993  4093.109
 994  4011.079
 995  4047.249
 996  3969.241
 997  3947.263
 998  3950.161
 999  3910.869
1000  3906.356
1001  3842.003
1002  3778.994
1003  3862.395
1004  3932.944
1005  4054.274
1006  4220.304
1007  4364.922
1008  4498.349
1009  4387.293
1010  4232.756
1011  4127.095
1012  4054.053
1013  4075.091
1014  4020.356
1015  3906.436
1016  3808.903
1017  3865.991
1018  3933.646
1019  4009.98
1020  3993.614
1021  3971.27
1022  3878.67
1023  3814.186
