# Input file       =  1203785124.167161_cleaned.dat
# Candidate        =  PSR_0332+5434
# Telescope        =  AR
# Epoch_topo       =  58176.698416286585
# Epoch_bary       =  N/A
# T_sample         =  0.002
# Data Folded      =  7340032
# Data Avg         =  0.412989375059884
# Data StdDev      =  9.62929766807526 
# Profile Bins     =  1024
# Profile Avg      =  2960.31127445231 
# Profile StdDev   =  815.255261758122 
# Reduced chi-sqr  =  0.422
# Prob(Noise)      <  1   (~0.0 sigma)
# P_topo (ms)      =  714.580853527844  +/- 0.000547
# P'_topo (s/s)    =  -0                +/- 2.89e-10
# P''_topo (s/s^2) =  0                 +/- 1.27e-13
# P_bary (ms)      =  N/A
# P'_bary (s/s)    =  N/A
# P''_bary (s/s^2) =  N/A
# P_orb (s)        =  N/A
# asin(i)/c (s)    =  N/A
# eccentricity     =  N/A
# w (rad)          =  N/A
# T_peri           =  N/A
######################################################
   0  3149.609
   1  3077.286
   2  2981.441
   3  2923.952
   4  2878.441
   5  2832.248
   6  2858.715
   7  2834.037
   8  2859.689
   9  2830.827
  10  2789.455
  11  2713.008
  12  2666.149
  13  2695.906
  14  2732.214
  15  2663.395
  16  2663.827
  17  2675.556
  18  2579.125
  19  2563.09
  20  2653.783
  21  2727.203
  22  2849.393
  23  2829.341
  24  2878.138
  25  2844.295
  26  2873.509
  27  2898.548
  28  2875.645
  29  2916.626
  30  3092.481
  31  3144.419
  32  3164.566
  33  3172.284
  34  3236.445
  35  3189.888
  36  3238.767
  37  3237.888
  38  3264.759
  39  3182.836
  40  3230.36
  41  3273.366
  42  3315.29
  43  3394.516
  44  3324.116
  45  3191.621
  46  3161.311
  47  3328.973
  48  3325.351
  49  3231.292
  50  3307.511
  51  3306.248
  52  3327.176
  53  3265.608
  54  3166.45
  55  3145.387
  56  3089.954
  57  2998.543
  58  2962.061
  59  2952.861
  60  2877.697
  61  3110.795
  62  3168.391
  63  3009.617
  64  2750.974
  65  2814.07
  66  3022.248
  67  3099
  68  3041.699
  69  3045.508
  70  3043.436
  71  3051.619
  72  2770.835
  73  2770.248
  74  2672.769
  75  2757.696
  76  2761.436
  77  2576.236
  78  2598.25
  79  2720.268
  80  3060.046
  81  2938.163
  82  2914.694
  83  2901.297
  84  2973.186
  85  2878.986
  86  2678.244
  87  2530.093
  88  2469.76
  89  2738.667
  90  2972.809
  91  3158.021
  92  3011.044
  93  2777.853
  94  2589.052
  95  2414.976
  96  2280.462
  97  2205.433
  98  2389.411
  99  2376.61
 100  2349.838
 101  2338.805
 102  2390.014
 103  2512.61
 104  2530.378
 105  2611.946
 106  2546.841
 107  2498.398
 108  2445.956
 109  2551.605
 110  2517.142
 111  2535.998
 112  2567.794
 113  2676.71
 114  2516.91
 115  2414.499
 116  2515.674
 117  2638.115
 118  2520.892
 119  2618.506
 120  2722.759
 121  2773.724
 122  2739.038
 123  2750.167
 124  2757.377
 125  2529.541
 126  2488.175
 127  2653.873
 128  2714.565
 129  2839.677
 130  2475.133
 131  2527.362
 132  2647.141
 133  2609.194
 134  2470.138
 135  2420.625
 136  2525.63
 137  2590.591
 138  2576.156
 139  2605.15
 140  2406.094
 141  2390.67
 142  2438.753
 143  2592.137
 144  2657.577
 145  2743.088
 146  2707.895
 147  2699.142
 148  2753.615
 149  2857.65
 150  2863.899
 151  2885.43
 152  2947.172
 153  2972.898
 154  2856.361
 155  2641.887
 156  2640.45
 157  2663.362
 158  2700.439
 159  2871.432
 160  3006.422
 161  3057.835
 162  3002.203
 163  2937.894
 164  2918.222
 165  2864.512
 166  2925.203
 167  3002.635
 168  3280.027
 169  3325.56
 170  3322.327
 171  3363.072
 172  3308.919
 173  3147.139
 174  3228.869
 175  3164.028
 176  3267.966
 177  3089.806
 178  3013.325
 179  2946.348
 180  2841.733
 181  2901.452
 182  3067.911
 183  3146.762
 184  3117.435
 185  3139.25
 186  3455.063
 187  3509.502
 188  3464.398
 189  3263.048
 190  3191.513
 191  3077.605
 192  3032.853
 193  3061.346
 194  3095.19
 195  3212.306
 196  3286.008
 197  3320.393
 198  3325.875
 199  3337.18
 200  3311.386
 201  3289.265
 202  3279.069
 203  3144.211
 204  2855.641
 205  2744.096
 206  2904.119
 207  3082.683
 208  3017.922
 209  2929.572
 210  2866.966
 211  2903.548
 212  2954.624
 213  2972.806
 214  3067.474
 215  2952.879
 216  2905.444
 217  2975.261
 218  2977.552
 219  3013.76
 220  2936.429
 221  2993.295
 222  2928.061
 223  3095.811
 224  3055.967
 225  3101.193
 226  3134.076
 227  3075.497
 228  3108.903
 229  3168.175
 230  3073.265
 231  3104.166
 232  3145.248
 233  3150.934
 234  2885.219
 235  2964.247
 236  3179.669
 237  3340.659
 238  3387.038
 239  3360.514
 240  3393.261
 241  3364.118
 242  3376.638
 243  3412.79
 244  3308.941
 245  3305.154
 246  3195.615
 247  3159.711
 248  2954.757
 249  2852.365
 250  2811.049
 251  2857.396
 252  2903.298
 253  2870.981
 254  2857.089
 255  2768.562
 256  2851.439
 257  2887.622
 258  2979.644
 259  2881.706
 260  2905.342
 261  2862.995
 262  2898.602
 263  2861.987
 264  2912.866
 265  2921.734
 266  2908.685
 267  3001.437
 268  3193.161
 269  3243.194
 270  3292.688
 271  3345.798
 272  3256.6
 273  3212.442
 274  3140.837
 275  3338.423
 276  3440.769
 277  3323.029
 278  3150.446
 279  3113.962
 280  3012.761
 281  3036.438
 282  3112.849
 283  3105.279
 284  3129.742
 285  3110.814
 286  3063.728
 287  3158.737
 288  3149.43
 289  3107.703
 290  3197.022
 291  3323.295
 292  3496.699
 293  3337.809
 294  3259.49
 295  3231.456
 296  3330.758
 297  3258.811
 298  3191.619
 299  3140.294
 300  3079.349
 301  2935.962
 302  2940.787
 303  3155.541
 304  3412.985
 305  3553.923
 306  3603.962
 307  3792.554
 308  3667.904
 309  3539.298
 310  3565.44
 311  3642.31
 312  3574.726
 313  3315.569
 314  3063.145
 315  2940.736
 316  2864.395
 317  3059.081
 318  3276.719
 319  3247.841
 320  3305.357
 321  3481.733
 322  3598.549
 323  3424.606
 324  3465.985
 325  3662.783
 326  3613.008
 327  3495.313
 328  3424.261
 329  3344.051
 330  3212.185
 331  3209.282
 332  3343.624
 333  3263.11
 334  3120.793
 335  3289.239
 336  3438.24
 337  3437.222
 338  3261.136
 339  3187.165
 340  3313.09
 341  3259.347
 342  3295.055
 343  3159.141
 344  3084.597
 345  3100.988
 346  3128.28
 347  3125.865
 348  3091.192
 349  3239.629
 350  3141.715
 351  3110.218
 352  3145.284
 353  3257.544
 354  3131.786
 355  2925.438
 356  3086.905
 357  3160.333
 358  3145.228
 359  3042.584
 360  3105.553
 361  3093.733
 362  3036.766
 363  3005.494
 364  3105.223
 365  2987.806
 366  2875.952
 367  2733.728
 368  2693.772
 369  2706.719
 370  2620.631
 371  2617.601
 372  2587.725
 373  2584.169
 374  2678.005
 375  2780.942
 376  2620.543
 377  2575.164
 378  2553.698
 379  2725.765
 380  2853.199
 381  2783.966
 382  2624.863
 383  2411.25
 384  2321.638
 385  2358.485
 386  2504.393
 387  2623.849
 388  2655.947
 389  2607.313
 390  2519.435
 391  2539.578
 392  2684.184
 393  2840.335
 394  2995.987
 395  3096.695
 396  2965.19
 397  2800.791
 398  2692.341
 399  2869.549
 400  3124.932
 401  3088.164
 402  3012.607
 403  2929.699
 404  2860.112
 405  2751.848
 406  2754.081
 407  3057.46
 408  3132.013
 409  3050.73
 410  3035.799
 411  2803.263
 412  2681.058
 413  2611.218
 414  2791.997
 415  2776.446
 416  2782.213
 417  2840.027
 418  2919.718
 419  2992.362
 420  2933.088
 421  2953.32
 422  3002.889
 423  2903.391
 424  2787.055
 425  2607.948
 426  2560.755
 427  2506.369
 428  2605.406
 429  2796.486
 430  2868.801
 431  2940.859
 432  2786.923
 433  2749.53
 434  2658.784
 435  2828.234
 436  2909.174
 437  2905.627
 438  2902.127
 439  2828.407
 440  2869.148
 441  2785.056
 442  2790.132
 443  2719.125
 444  2617.229
 445  2622.422
 446  2596.703
 447  2702.196
 448  2623.758
 449  2686.771
 450  2788.982
 451  2907.643
 452  3089.585
 453  3150.817
 454  3193.165
 455  3018.176
 456  3081.763
 457  3197.972
 458  3213.488
 459  3176.319
 460  3086.536
 461  3145.643
 462  2948.773
 463  2963.637
 464  2879.619
 465  2895.882
 466  3022.382
 467  3030.818
 468  3135.277
 469  3197.667
 470  3361.028
 471  3550.403
 472  3555.805
 473  3263.811
 474  3077.78
 475  2997.016
 476  2872.36
 477  2835.505
 478  2886.995
 479  2937.461
 480  2982.428
 481  3049.349
 482  3208.477
 483  3239.047
 484  3093.192
 485  3102.963
 486  2998.364
 487  2821.13
 488  2729.069
 489  2841.981
 490  2906.762
 491  2872.368
 492  2907.342
 493  2999.555
 494  3040.564
 495  3001.816
 496  2960.184
 497  2902.705
 498  2933.942
 499  2889.86
 500  2817.009
 501  2878.391
 502  2857.07
 503  2882.457
 504  2934.137
 505  2911.488
 506  2898.212
 507  2949.627
 508  3005.725
 509  3132.239
 510  3161.707
 511  3114.726
 512  2816.337
 513  2683.483
 514  2651.283
 515  2525.195
 516  2434.392
 517  2418.015
 518  2732.254
 519  2903.823
 520  2850.462
 521  2791.118
 522  2883.6
 523  2880.314
 524  2803.981
 525  2795.678
 526  2860.531
 527  2709.106
 528  2795.06
 529  2840.966
 530  2857.748
 531  2794.397
 532  2890.141
 533  3040.466
 534  3104.814
 535  3224.724
 536  3498.312
 537  3518.577
 538  3476.048
 539  3362.757
 540  3338.375
 541  3058.749
 542  3105.953
 543  3146.288
 544  3282.079
 545  3122.541
 546  3080.307
 547  2969.255
 548  2909.254
 549  2886.708
 550  2862.101
 551  3006.102
 552  2995.935
 553  3122.726
 554  2924.505
 555  2974.466
 556  3063.275
 557  2948.329
 558  2622.308
 559  2405.383
 560  2404.075
 561  2577.47
 562  2595.514
 563  2485.125
 564  2470.218
 565  2560.061
 566  2640.114
 567  2540.536
 568  2555.954
 569  2619.865
 570  2672.877
 571  2737.678
 572  2604.128
 573  2696.54
 574  2698.324
 575  2675.187
 576  2587.978
 577  2450.633
 578  2281.383
 579  2198.941
 580  2321.873
 581  2548.505
 582  2553.542
 583  2650.984
 584  2637.69
 585  2688.292
 586  2590.743
 587  2368.856
 588  2250.109
 589  2206.776
 590  2499.958
 591  2633.283
 592  2589.618
 593  2487.7
 594  2419.387
 595  2324.542
 596  2284.289
 597  2322.375
 598  2517.287
 599  2476.742
 600  2479.26
 601  2693.039
 602  2710.107
 603  2698.787
 604  2669.425
 605  2911.908
 606  3120.719
 607  3199.233
 608  3259.92
 609  3332.892
 610  3357.557
 611  3537.625
 612  3559.975
 613  3484.248
 614  3359.346
 615  3262.254
 616  3167.002
 617  3164.921
 618  3121.827
 619  3108.867
 620  2987.75
 621  3103.27
 622  2924.979
 623  2895.842
 624  2887.253
 625  3028.866
 626  3131.622
 627  3056.946
 628  3011.941
 629  3107.743
 630  3204.339
 631  3141.808
 632  3151.249
 633  3255.357
 634  3458.934
 635  3530.383
 636  3479.792
 637  3492.731
 638  3407.778
 639  3413.53
 640  3276.369
 641  3069.378
 642  3038.935
 643  3304.107
 644  3258.16
 645  3147.454
 646  2919.836
 647  3154.56
 648  3387.492
 649  3282.521
 650  3089.149
 651  3002.406
 652  3235.399
 653  3365.823
 654  3451.336
 655  3483.669
 656  3383.984
 657  3246.734
 658  3158.872
 659  3179.021
 660  3047.978
 661  2889.482
 662  2958.474
 663  2844.536
 664  2909.021
 665  2900.031
 666  2972.1
 667  2961.127
 668  2962.863
 669  2970.502
 670  3098.039
 671  3088.69
 672  3052.142
 673  2915.628
 674  2919.382
 675  2959.765
 676  3054.313
 677  2883.355
 678  2776.376
 679  2721.612
 680  2774.893
 681  2999.4
 682  3010.945
 683  2972.195
 684  2880.167
 685  2811.692
 686  3002.061
 687  2889.772
 688  2665.062
 689  2411.635
 690  2522.227
 691  2591.989
 692  2518.774
 693  2543.053
 694  2528.734
 695  2529.988
 696  2513.356
 697  2534.222
 698  2586.252
 699  2587.827
 700  2697.112
 701  2931.742
 702  2966.68
 703  2917.355
 704  2778.389
 705  2470.34
 706  2595.678
 707  2740.342
 708  2836.356
 709  2719.008
 710  2628.093
 711  2764.31
 712  2759.155
 713  2675.05
 714  2746.52
 715  2783.307
 716  2856.8
 717  2837.245
 718  2848.449
 719  2844.597
 720  2767.32
 721  2678.19
 722  2690.685
 723  2653.945
 724  2547.208
 725  2595.934
 726  2779.027
 727  2879.861
 728  2876.284
 729  2936.166
 730  2755.364
 731  2625.205
 732  2667.411
 733  2796.404
 734  2730.136
 735  2591.549
 736  2583.96
 737  2701.67
 738  2655.782
 739  2663.921
 740  2657.846
 741  2584.3
 742  2604.768
 743  2773.217
 744  3041.471
 745  3156.811
 746  3243.611
 747  3171.365
 748  3213.612
 749  3193.179
 750  3264.041
 751  3231.102
 752  3200.08
 753  3090.061
 754  3154.941
 755  3115.81
 756  3000.833
 757  2963.273
 758  3099.505
 759  3245.291
 760  3248.571
 761  3185.626
 762  3235.982
 763  3256.063
 764  3318.053
 765  3347.297
 766  3239.619
 767  3281.431
 768  3169.201
 769  3190.431
 770  3089.45
 771  3116.497
 772  3124.472
 773  3317.689
 774  3426.591
 775  3342.144
 776  3286.048
 777  3124.331
 778  3229.435
 779  3229.032
 780  3177.949
 781  3227.212
 782  3382.391
 783  3513.017
 784  3404.14
 785  3205.679
 786  3264.345
 787  3448.982
 788  3506.926
 789  3413.72
 790  3237.088
 791  3230.437
 792  3230.568
 793  3316.855
 794  3215.33
 795  3011.941
 796  3126.376
 797  3222.936
 798  3441.744
 799  3452.754
 800  3587.301
 801  3530.314
 802  3570.373
 803  3558.813
 804  3658.911
 805  3555.293
 806  3552.967
 807  3444.041
 808  3594.304
 809  3487.175
 810  3360.879
 811  3306.508
 812  3532.263
 813  3595.113
 814  3534.633
 815  3465.333
 816  3355.552
 817  3553.403
 818  3620.957
 819  3572.463
 820  3304.148
 821  3172.242
 822  3202.088
 823  3356.207
 824  3223.702
 825  3165.461
 826  3190.93
 827  3245.315
 828  3030.854
 829  3007.339
 830  2969.306
 831  3096.759
 832  3062.217
 833  3195.042
 834  3161.045
 835  3045.588
 836  3075.82
 837  3125.069
 838  2889.729
 839  2705.742
 840  2706.255
 841  2725.985
 842  3065.826
 843  3135.433
 844  3214.78
 845  3030.847
 846  3093.433
 847  3128.771
 848  3078.941
 849  2997.419
 850  3017.442
 851  3061.125
 852  2916.717
 853  2918.802
 854  2971.803
 855  3022.986
 856  2978.563
 857  2885.579
 858  2906.53
 859  2825.351
 860  2798.81
 861  2742.053
 862  2641.729
 863  2702.647
 864  2689.148
 865  2778.551
 866  2812.985
 867  2795.917
 868  2585.783
 869  2519.665
 870  2479.259
 871  2531.624
 872  2675.288
 873  2758.725
 874  2721.536
 875  2721.889
 876  2630.103
 877  2701.138
 878  2648.269
 879  2765.66
 880  2672.898
 881  2678.832
 882  2626.456
 883  2630.594
 884  2590.993
 885  2457.897
 886  2530.553
 887  2758.656
 888  2849.405
 889  2761.804
 890  2803.906
 891  2925.809
 892  2941.786
 893  2903.458
 894  2878.631
 895  2821.408
 896  2795.363
 897  3004.663
 898  3264.036
 899  3495.635
 900  3527.137
 901  3437.817
 902  3367.147
 903  3197.592
 904  3236.412
 905  3221.251
 906  3192.062
 907  3097.1
 908  3123.683
 909  3152.299
 910  3117.756
 911  3280.592
 912  3433.465
 913  3516.053
 914  3440.843
 915  3284.074
 916  3327.978
 917  3330.733
 918  3362.429
 919  3306.26
 920  3378.476
 921  3261.509
 922  3263.78
 923  3158.021
 924  3251.368
 925  3119.544
 926  3178.395
 927  3221.89
 928  3230.425
 929  3087.328
 930  3050.575
 931  3045.619
 932  3036.997
 933  3080.195
 934  3184.539
 935  3154.83
 936  3182.186
 937  3110.1
 938  3122.831
 939  3014.233
 940  2966.893
 941  2937.791
 942  3039.569
 943  2929.124
 944  2760.763
 945  2766.708
 946  2872.09
 947  2967.972
 948  3079.712
 949  3055.992
 950  3067.196
 951  2961.908
 952  2949.774
 953  2910.141
 954  2732.935
 955  2685.695
 956  2640.223
 957  2408.031
 958  2356.201
 959  2394.863
 960  2515.276
 961  2499.599
 962  2489.355
 963  2508.827
 964  2636.986
 965  2726.207
 966  2818.702
 967  2878.36
 968  2874.735
 969  2727.83
 970  2709.252
 971  2756.768
 972  2670.52
 973  2617.339
 974  2702.17
 975  2729.44
 976  2530.535
 977  2574.443
 978  2642.569
 979  2880.469
 980  3064.707
 981  3076.467
 982  3047.076
 983  3034.246
 984  2959.559
 985  2699.186
 986  2504.848
 987  2495.228
 988  2739.358
 989  2744.244
 990  2679.017
 991  2514.342
 992  2778.884
 993  2837.467
 994  2797.28
 995  2660.172
 996  2451.34
 997  2532.402
 998  2494.991
 999  2381.41
1000  2393.296
1001  2574.294
1002  2740.505
1003  2718.611
1004  2869.839
1005  2801.582
1006  2800.216
1007  2804.913
1008  2891.55
1009  2780.844
1010  2761.18
1011  2824.174
1012  3001.214
1013  2966.463
1014  3027.109
1015  3043.321
1016  3136.026
1017  3203.812
1018  2994.537
1019  3019.703
1020  3176.816
1021  3126.499
1022  3164.428
1023  3112.159
