# Input file       =  1203931188.137021-PSRB0329-2ms-sampling-dd.dat
# Candidate        =  PSR_0332+5434
# Telescope        =  AR
# Epoch_topo       =  58178.388971493303
# Epoch_bary       =  N/A
# T_sample         =  0.002
# Data Folded      =  7274496
# Data Avg         =  2.25103831418728e-09
# Data StdDev      =  16.4222628576071 
# Profile Bins     =  512
# Profile Avg      =  -0.00999606838875492
# Profile StdDev   =  1957.48964551861 
# Reduced chi-sqr  =  1.318
# Prob(Noise)      <  1.69e-06   (~4.6 sigma)
# P_topo (ms)      =  714.58045631954   +/- 2.03e-05
# P'_topo (s/s)    =  -0                +/- 1.08e-11
# P''_topo (s/s^2) =  0                 +/- 4.8e-15
# P_bary (ms)      =  N/A
# P'_bary (s/s)    =  N/A
# P''_bary (s/s^2) =  N/A
# P_orb (s)        =  N/A
# asin(i)/c (s)    =  N/A
# eccentricity     =  N/A
# w (rad)          =  N/A
# T_peri           =  N/A
######################################################
   0  1507.378
   1  1136.405
   2  -196.4905
   3  -406.6168
   4  1659.505
   5  3501.095
   6  849.1307
   7  -333.1573
   8  317.8533
   9  633.5324
  10  -1425.899
  11  -3751.134
  12  -1418.374
  13  163.79
  14  -111.3864
  15  -1412.502
  16  -701.7211
  17  1086.558
  18  -206.8141
  19  -747.1506
  20  662.1661
  21  2361.269
  22  2370.61
  23  -6.044545
  24  575.5648
  25  339.6317
  26  -1622.197
  27  -4242.849
  28  -4478.488
  29  -1743.153
  30  600.0837
  31  -255.2595
  32  -1058.59
  33  543.068
  34  856.7894
  35  -1388.059
  36  -1553.067
  37  1589.079
  38  2767.413
  39  1516.065
  40  -726.6964
  41  889.5227
  42  771.0212
  43  -1817.499
  44  -3545.512
  45  -1833.651
  46  -148.1763
  47  -578.7147
  48  -1007.675
  49  -24.39912
  50  1024.547
  51  700.7562
  52  -625.0322
  53  -88.76154
  54  2030.928
  55  1358.281
  56  641.4466
  57  377.958
  58  1861.436
  59  -437.1575
  60  -3117.143
  61  -3274.49
  62  -1898.222
  63  1199.996
  64  576.4876
  65  484.2578
  66  2129.142
  67  1670.099
  68  617.502
  69  -327.4112
  70  1211.27
  71  2604.611
  72  43.15694
  73  -816.7611
  74  885.4088
  75  1726.366
  76  -720.9531
  77  -2438.953
  78  -1558.511
  79  -182.3005
  80  -930.7586
  81  -1577.123
  82  -614.6782
  83  1314.965
  84  1317.734
  85  275.6243
  86  1221.498
  87  2593.318
  88  1955.262
  89  -157.0633
  90  278.5547
  91  533.5297
  92  -495.3902
  93  -2730.595
  94  -3372.259
  95  -154.9198
  96  407.5447
  97  96.17271
  98  -253.1715
  99  497.4598
 100  290.8099
 101  -898.3646
 102  -736.3712
 103  1179.962
 104  3381.13
 105  2870.923
 106  524.6088
 107  1609.26
 108  1285.562
 109  -1661.736
 110  -3807.191
 111  -2500.465
 112  89.65006
 113  176.472
 114  -357.6438
 115  805.1711
 116  1961.235
 117  1742.035
 118  -739.7862
 119  -105.0097
 120  2425.971
 121  2793.638
 122  1339.223
 123  482.9799
 124  1901.36
 125  -215.0145
 126  -3702.647
 127  -4024.637
 128  -1481.356
 129  427.0891
 130  -636.6931
 131  -1758.535
 132  492.9355
 133  1029.026
 134  366.6796
 135  -921.417
 136  897.7882
 137  2554.604
 138  1425.5
 139  1076.894
 140  1265.371
 141  1938.363
 142  -1514.607
 143  -4057.871
 144  -2601.243
 145  -1148.91
 146  -418.8697
 147  -943.7319
 148  253.7628
 149  1956.046
 150  761.9821
 151  -423.2182
 152  -555.4336
 153  1602.596
 154  2133.132
 155  -106.5032
 156  13.86611
 157  919.7075
 158  68.64983
 159  -1809.507
 160  -3127.974
 161  -1383.748
 162  -85.20408
 163  -900.7262
 164  -1472.082
 165  239.7965
 166  1055.701
 167  -203.0811
 168  86.75267
 169  1367.123
 170  2808.441
 171  1839.286
 172  59.83871
 173  835.7246
 174  1060.664
 175  -1017.621
 176  -2811.045
 177  -2196.555
 178  664.5427
 179  808.0345
 180  -162.9089
 181  394.3185
 182  528.3937
 183  476.8538
 184  -634.7472
 185  725.2385
 186  2391.921
 187  2715.797
 188  1429.162
 189  -280.8921
 190  681.6514
 191  -573.4801
 192  -2732.531
 193  -3084.037
 194  -1036.786
 195  898.1327
 196  -567.1664
 197  -692.3967
 198  671.6319
 199  1273.5
 200  -285.4517
 201  -1879.256
 202  147.8743
 203  2600.412
 204  1946.75
 205  770.9933
 206  1466.157
 207  1772.863
 208  -1625.464
 209  -4704.16
 210  -3403.435
 211  -577.5034
 212  1058.012
 213  138.9181
 214  469.5244
 215  1725.89
 216  405.5146
 217  -188.3307
 218  -206.1148
 219  1571.195
 220  2283.709
 221  190.4844
 222  72.8988
 223  992.5075
 224  224.4013
 225  -2971.972
 226  -4070.191
 227  -1596.057
 228  -680.9424
 229  -1207.216
 230  -1235.853
 231  -298.7898
 232  1354.723
 233  176.0889
 234  -370.7472
 235  501.38
 236  2546.016
 237  1361.814
 238  -101.0863
 239  736.3539
 240  1199.1
 241  -614.3793
 242  -4018.25
 243  -2857.722
 244  29.82302
 245  904.7076
 246  -203.6159
 247  -70.23408
 248  1155.652
 249  911.0757
 250  -504.0996
 251  177.3405
 252  1642.426
 253  3172.882
 254  1713.076
 255  -6.113211
 256  1765.215
 257  821.8973
 258  -1913.027
 259  -3291.365
 260  -1567.984
 261  126.0883
 262  -590.5938
 263  -710.6121
 264  897.5392
 265  1399.165
 266  278.0786
 267  -294.5682
 268  1645.967
 269  2666.495
 270  1979.931
 271  369.2832
 272  -164.7678
 273  481.442
 274  -1409.379
 275  -4461.692
 276  -2889.38
 277  457.2544
 278  1393.732
 279  -1058.474
 280  -835.1385
 281  606.2085
 282  23.53242
 283  -873.0077
 284  -689.8199
 285  2068.306
 286  3355.432
 287  733.8383
 288  426.9555
 289  2050.283
 290  200.3803
 291  -3632.512
 292  -4477.051
 293  -2188.425
 294  -847.6377
 295  -353.2097
 296  -164.8843
 297  1390.009
 298  2176.556
 299  305.5421
 300  -1319.459
 301  430.4986
 302  2631.839
 303  2350.834
 304  -651.1262
 305  120.8978
 306  1118.802
 307  -899.6736
 308  -3735.368
 309  -2770.323
 310  1377.018
 311  -222.5759
 312  -1209.271
 313  -868.2279
 314  1098.115
 315  1059.033
 316  -206.8415
 317  -267.9107
 318  660.2677
 319  1686.923
 320  140.595
 321  357.8358
 322  1439.24
 323  728.3878
 324  -2476.455
 325  -4606.562
 326  -2908.71
 327  -1493.872
 328  -506.6942
 329  -297.0541
 330  1527.124
 331  1841.52
 332  -257.6218
 333  -433.7483
 334  1081.072
 335  2290.778
 336  1832.626
 337  196.7992
 338  229.8652
 339  1010.155
 340  -416.9603
 341  -2578.303
 342  -1065.094
 343  238.211
 344  116.965
 345  -980.7756
 346  -875.6172
 347  1937.392
 348  1339.51
 349  -500.9467
 350  -225.6747
 351  2824.884
 352  3425.931
 353  1355.244
 354  625.9422
 355  1644.288
 356  1148.888
 357  -2222.926
 358  -3102.099
 359  -2246.186
 360  -241.7232
 361  610.5516
 362  -9.968949
 363  1400.061
 364  1608.631
 365  487.9919
 366  -37.51127
 367  943.5709
 368  2988.05
 369  1959.68
 370  786.0044
 371  154.64
 372  2084.548
 373  -61.57462
 374  -2939.197
 375  -2576.064
 376  -816.1943
 377  69.45634
 378  -1034.437
 379  1.615021
 380  723.5277
 381  598.3873
 382  -699.044
 383  -672.0005
 384  1987.948
 385  2345.309
 386  781.5242
 387  905.2842
 388  2338.817
 389  359.3426
 390  -2842.453
 391  -4801.729
 392  -2696.08
 393  -151.62
 394  -532.451
 395  242.2347
 396  417.8562
 397  2164.76
 398  658.3935
 399  -505.9307
 400  744.7151
 401  1262.155
 402  2129.47
 403  106.8149
 404  943.5195
 405  1541.411
 406  5.519815
 407  -2698.178
 408  -3160.19
 409  -1080.462
 410  -970.6147
 411  -284.5576
 412  -261.1649
 413  656.9875
 414  912.0374
 415  -27.31468
 416  -56.94582
 417  2376.253
 418  2686.776
 419  1313.414
 420  189.3297
 421  889.3926
 422  225.3327
 423  -2649.121
 424  -4151.384
 425  -1835.318
 426  461.6269
 427  639.4611
 428  -378.6933
 429  205.204
 430  594.1559
 431  -16.16377
 432  235.5904
 433  573.6517
 434  3196.313
 435  2482.396
 436  895.6762
 437  685.6996
 438  1663.836
 439  4.46736
 440  -3380.86
 441  -2224.647
 442  -1069.392
 443  289.5972
 444  -972.7701
 445  -1050.355
 446  1522.491
 447  1839.067
 448  290.3467
 449  -250.321
 450  2643.624
 451  3254.735
 452  2034.286
 453  494.2968
 454  163.7153
 455  171.8617
 456  -2829.766
 457  -3463.658
 458  -2010.051
 459  235.4316
 460  532.0154
 461  27.06962
 462  304.2611
 463  377.4306
 464  -21.60578
 465  -1065.919
 466  882.5786
 467  2528.418
 468  1803.428
 469  2.230014
 470  852.3557
 471  1917.314
 472  -1175.842
 473  -3653.027
 474  -3986.063
 475  -1535.313
 476  -566.1403
 477  -849.6301
 478  -220.5465
 479  901.0774
 480  1231.955
 481  -965.0391
 482  -1274.846
 483  745.0615
 484  1672.849
 485  1059.771
 486  -694.2998
 487  1475.961
 488  690.5264
 489  -2620.427
 490  -4053.071
 491  -1930.674
 492  370.3201
 493  -47.42236
 494  -891.941
 495  -276.211
 496  1042.373
 497  586.4403
 498  -689.0323
 499  593.712
 500  2407.304
 501  1725.45
 502  -410.5629
 503  -79.22144
 504  1144.497
 505  -495.4135
 506  -2821.939
 507  -3047.036
 508  -1113.653
 509  -438.9793
 510  -846.0995
 511  -1105.74
