# Input file       =  1203444197.101021_cleaned.dat
# Candidate        =  PSR_0332+5434
# Telescope        =  AR
# Epoch_topo       =  58172.752501169227
# Epoch_bary       =  N/A
# T_sample         =  0.002
# Data Folded      =  7340032
# Data Avg         =  0.196412418164462
# Data StdDev      =  5.02659471562247 
# Profile Bins     =  512
# Profile Avg      =  2815.89416199649 
# Profile StdDev   =  601.849447936885 
# Reduced chi-sqr  =  0.624
# Prob(Noise)      <  1   (~0.0 sigma)
# P_topo (ms)      =  714.581083806261  +/- 0.000942
# P'_topo (s/s)    =  -0                +/- 4.97e-10
# P''_topo (s/s^2) =  0                 +/- 2.19e-13
# P_bary (ms)      =  N/A
# P'_bary (s/s)    =  N/A
# P''_bary (s/s^2) =  N/A
# P_orb (s)        =  N/A
# asin(i)/c (s)    =  N/A
# eccentricity     =  N/A
# w (rad)          =  N/A
# T_peri           =  N/A
######################################################
   0  2604.424
   1  2894.526
   2  2698.289
   3  2508.508
   4  2775.15
   5  2806.855
   6  2992.615
   7  3051.94
   8  2815.715
   9  2929.736
  10  2872.626
  11  2747.053
  12  3137.508
  13  3579.123
  14  3448.356
  15  3140.486
  16  3093.98
  17  2987.734
  18  3149.512
  19  3213.949
  20  3576.943
  21  3274.28
  22  2941.061
  23  2825.233
  24  3385.097
  25  3041.322
  26  2652.708
  27  2682.197
  28  2964.32
  29  3143.297
  30  3052.527
  31  2899.232
  32  2537.338
  33  2482.167
  34  2535.328
  35  3044.523
  36  2873.504
  37  2755.613
  38  2713.034
  39  2788.8
  40  2828.138
  41  2881.055
  42  2772.544
  43  2449.967
  44  2197.546
  45  2530.207
  46  2885.833
  47  2632.722
  48  2268.183
  49  2372.516
  50  2433.081
  51  2746.346
  52  2870.236
  53  3065.999
  54  2540.877
  55  2361.743
  56  2376.895
  57  2897.379
  58  3206.476
  59  3327.458
  60  3597.239
  61  3449.517
  62  3082.218
  63  3186.675
  64  3205.559
  65  3127.559
  66  3369.048
  67  3190.512
  68  2639.291
  69  2810.956
  70  3043.834
  71  2949.413
  72  2944.095
  73  2838.365
  74  2886.708
  75  2640.57
  76  2759.506
  77  2863.523
  78  3047.35
  79  2873.688
  80  2653.5
  81  2483.366
  82  2338.484
  83  2477.196
  84  2559.729
  85  2409.185
  86  2424.019
  87  2474.043
  88  2656.375
  89  2808.098
  90  2779.784
  91  2497.727
  92  2852.008
  93  3072.681
  94  3058.167
  95  2972.135
  96  3089.157
  97  3249.001
  98  2680.169
  99  2713.747
 100  2903.013
 101  3011.612
 102  2903.512
 103  2882.606
 104  2796.827
 105  3083.492
 106  2865.097
 107  2808.742
 108  2571.196
 109  2789.116
 110  3120.652
 111  2800.66
 112  2415.6
 113  2487.208
 114  2977.256
 115  2873.603
 116  2328.835
 117  2407.884
 118  2283.928
 119  2687.841
 120  3047.098
 121  2835.517
 122  2716.471
 123  2586.847
 124  2460.318
 125  2508.798
 126  2779.96
 127  2962.563
 128  2822.602
 129  3100.592
 130  3192.569
 131  3142.156
 132  3133.272
 133  3245.617
 134  2847.427
 135  2818.295
 136  2901.617
 137  3009.965
 138  2940.524
 139  2831.587
 140  2995.54
 141  2922.056
 142  2878.327
 143  3206.13
 144  2953.317
 145  2910.912
 146  2812.869
 147  2749.069
 148  2989.173
 149  2861.192
 150  2938.732
 151  3196.381
 152  2694.946
 153  2792.732
 154  3008.916
 155  3123.233
 156  3043.1
 157  2602.336
 158  2672.861
 159  2910.831
 160  2995.1
 161  2506.204
 162  2702.762
 163  2742.8
 164  2912.51
 165  2759.642
 166  2636.637
 167  2556.056
 168  2387.355
 169  2458.352
 170  2508.247
 171  2617.322
 172  2980.735
 173  2830.939
 174  2534.38
 175  2767.812
 176  2583.378
 177  2580.424
 178  2536.988
 179  2901.16
 180  3123.328
 181  2680.456
 182  2944.044
 183  2811.883
 184  2790.092
 185  3071.416
 186  3283.404
 187  2948.104
 188  2709.338
 189  2553.047
 190  2714.606
 191  2660.856
 192  2556.41
 193  2709.416
 194  2967.613
 195  2929.761
 196  2728.761
 197  2966.327
 198  3204.67
 199  3478.137
 200  3546.714
 201  3058.662
 202  2791.932
 203  3053.329
 204  2904.857
 205  2662.153
 206  2853.446
 207  2958.751
 208  2805.837
 209  2637.229
 210  2902.751
 211  2682.376
 212  2578.678
 213  2707.191
 214  2659.958
 215  2896.292
 216  3124.645
 217  2820.486
 218  2932.962
 219  3217.59
 220  3621.014
 221  2807.858
 222  2709.951
 223  2780.457
 224  2623.904
 225  3035.106
 226  3054.619
 227  3331.419
 228  3110.403
 229  2812.159
 230  2945.941
 231  3002.016
 232  2776.42
 233  2898.866
 234  2704.348
 235  2636.206
 236  2296.599
 237  2479.221
 238  2219.011
 239  2643.505
 240  2713.503
 241  2821.833
 242  2684.931
 243  2935.159
 244  2986.808
 245  2893.487
 246  2577.383
 247  2746.36
 248  2872.337
 249  2684.495
 250  2674.789
 251  2559.408
 252  2338.337
 253  2907.916
 254  2552.077
 255  2215.633
 256  2354.268
 257  2302.977
 258  2306.957
 259  2456.565
 260  2579.545
 261  2497.787
 262  2251.886
 263  2148.594
 264  2218.461
 265  2454.506
 266  2431.365
 267  2360.316
 268  2676.823
 269  2695.06
 270  2411.008
 271  2102.051
 272  2608.595
 273  3118.597
 274  2974.056
 275  2811.154
 276  2634.112
 277  2253.041
 278  2475.978
 279  2827.087
 280  2949.501
 281  2419.187
 282  2580.51
 283  2747.408
 284  2644.515
 285  2490.138
 286  2628.532
 287  2852.149
 288  2944.821
 289  2936.691
 290  2962.663
 291  2838.535
 292  2628.083
 293  2898.316
 294  3087.034
 295  3115.633
 296  3048.288
 297  3137.314
 298  3287.76
 299  3496.732
 300  3639.24
 301  3571.741
 302  3457.902
 303  3895.977
 304  3983.853
 305  4148.438
 306  4628.472
 307  4174.325
 308  3684.084
 309  3391.646
 310  3118.922
 311  3110.428
 312  3272.485
 313  3555.678
 314  3329.297
 315  3015.392
 316  2863.21
 317  3262.394
 318  3452.156
 319  3223.807
 320  3215.698
 321  3170.701
 322  3164.571
 323  2701.951
 324  2938.671
 325  3336.735
 326  3127.964
 327  3163.416
 328  3064.344
 329  2922.624
 330  3295.513
 331  3119.329
 332  2646.562
 333  2795.008
 334  2816.287
 335  2414.391
 336  2528.322
 337  2977.584
 338  2923.547
 339  2526.375
 340  2266.873
 341  2500.853
 342  2434.55
 343  2979.767
 344  3251.466
 345  2913.717
 346  2478.22
 347  2549.312
 348  3076.281
 349  2954.574
 350  3118.078
 351  2991.235
 352  3086.295
 353  3077.334
 354  2596.242
 355  2518.419
 356  2489.982
 357  2754.492
 358  2954.767
 359  3249.823
 360  2993.402
 361  2834.348
 362  2402.196
 363  2384.642
 364  2566.056
 365  3225.487
 366  3277.628
 367  2550.68
 368  2114.883
 369  2402.563
 370  2716.117
 371  2874.428
 372  2713.488
 373  2574.674
 374  2823.961
 375  2776.495
 376  2734.64
 377  2818.746
 378  2867.301
 379  2878.358
 380  3080.71
 381  3098.299
 382  3156.291
 383  3012.538
 384  2955.484
 385  2992.702
 386  3151.69
 387  3015.898
 388  3110.221
 389  3401.529
 390  3388.906
 391  3030.17
 392  3002.086
 393  2986.619
 394  2855.396
 395  3205.55
 396  3027.695
 397  2735.987
 398  2938.326
 399  3185.998
 400  3304.802
 401  3236.513
 402  2904.291
 403  2842.363
 404  2699.133
 405  2898.089
 406  3223.855
 407  3405.115
 408  3198.961
 409  3005.08
 410  3073.001
 411  2988.308
 412  3073.591
 413  3016.566
 414  2711.133
 415  2958.983
 416  2947.846
 417  2711.27
 418  2599.127
 419  2749.829
 420  3022.769
 421  3058.999
 422  3169.459
 423  3094.964
 424  2904.423
 425  2678.568
 426  2884.016
 427  2575.463
 428  2505.783
 429  2624.961
 430  2915.216
 431  2979.458
 432  3121.608
 433  3090.601
 434  2621.82
 435  2398.703
 436  2666.269
 437  2890.36
 438  2447.903
 439  2639.47
 440  2742.934
 441  2745.439
 442  2776.624
 443  2511.472
 444  2109.502
 445  2441.819
 446  2892.412
 447  2681.856
 448  2652.122
 449  2803.215
 450  2590.158
 451  2407.888
 452  2517.635
 453  2830.573
 454  2745.976
 455  2715.678
 456  2809.971
 457  2894.744
 458  2796.502
 459  2376.951
 460  2526.972
 461  2709.761
 462  2958.658
 463  2941.255
 464  2755.742
 465  2359.742
 466  2364.68
 467  2207.182
 468  2061.221
 469  2066.772
 470  2246.156
 471  2466.94
 472  2014.641
 473  2149.079
 474  1963.222
 475  1989.066
 476  2163.444
 477  2514.831
 478  2338.045
 479  2442.21
 480  2180.555
 481  2309.661
 482  2679.097
 483  2571.216
 484  2436.863
 485  2324.865
 486  2536.501
 487  2352.146
 488  2394.577
 489  2158.935
 490  1972.459
 491  2073.078
 492  2283.822
 493  2376.371
 494  2274.857
 495  2204.098
 496  2271.22
 497  1905.038
 498  2529.82
 499  2719.366
 500  2657.198
 501  2898.177
 502  2889.393
 503  3255.848
 504  2981.765
 505  2871.544
 506  2855.247
 507  2665.495
 508  2586.467
 509  2562.539
 510  2882.218
 511  2636.578
