# Input file       =  1203931188.137021_cleaned.dat
# Candidate        =  PSR_0332+5434
# Telescope        =  AR
# Epoch_topo       =  58178.388971493303
# Epoch_bary       =  N/A
# T_sample         =  0.002
# Data Folded      =  7274496
# Data Avg         =  1.46169192384853 
# Data StdDev      =  16.2615806129788 
# Profile Bins     =  256
# Profile Avg      =  41535.4277964773 
# Profile StdDev   =  2741.22212499915 
# Reduced chi-sqr  =  1.487
# Prob(Noise)      <  6.94e-07   (~4.8 sigma)
# P_topo (ms)      =  714.580456116908  +/- 3.11e-05
# P'_topo (s/s)    =  -0                +/- 1.65e-11
# P''_topo (s/s^2) =  0                 +/- 7.37e-15
# P_bary (ms)      =  N/A
# P'_bary (s/s)    =  N/A
# P''_bary (s/s^2) =  N/A
# P_orb (s)        =  N/A
# asin(i)/c (s)    =  N/A
# eccentricity     =  N/A
# w (rad)          =  N/A
# T_peri           =  N/A
######################################################
   0  41813.68
   1  40513.68
   2  33304.27
   3  41790.89
   4  39507.67
   5  41822.18
   6  39594.82
   7  46069.61
   8  42654.69
   9  44140.38
  10  34120.74
  11  37608.69
  12  40484.89
  13  43776.35
  14  41224.2
  15  43196.05
  16  43971.21
  17  41999.1
  18  37970.69
  19  38481.31
  20  40759.18
  21  40777.79
  22  42861.61
  23  41253.75
  24  43930.48
  25  42713.43
  26  40980.86
  27  33691.98
  28  38992.89
  29  41973.33
  30  43469.49
  31  41038.14
  32  45448.87
  33  41629.93
  34  42199.77
  35  36692.64
  36  41430.9
  37  39736.19
  38  44350.29
  39  40901.24
  40  47101.95
  41  44192.63
  42  44757.51
  43  36557.25
  44  38070.45
  45  42032.97
  46  44259.17
  47  42110.57
  48  44183.31
  49  45049.53
  50  42974.01
  51  40187.56
  52  36959.64
  53  40546.79
  54  41604.1
  55  41732.79
  56  41845.79
  57  45637.64
  58  44132.88
  59  40967.25
  60  32883.91
  61  40647.09
  62  41881.38
  63  44123.68
  64  41249.1
  65  44338.64
  66  42587.72
  67  43526.57
  68  35868.07
  69  39092.69
  70  40554.65
  71  42610.38
  72  41548.96
  73  46312.89
  74  43984.5
  75  42966.59
  76  35442.04
  77  38940.92
  78  41952.99
  79  41983.46
  80  41238.67
  81  44042.51
  82  45608.84
  83  43234.39
  84  39576.4
  85  36906.09
  86  41309.51
  87  40476.08
  88  44105.57
  89  42885
  90  47190.29
  91  42776.05
  92  39909.65
  93  34964.11
  94  42130.52
  95  41760.58
  96  42555.76
  97  40558.16
  98  45865.68
  99  42414.48
 100  43469.58
 101  34231.46
 102  38727.56
 103  40346.25
 104  43951.48
 105  39879.12
 106  43677.13
 107  42917.58
 108  43692.29
 109  35939.75
 110  38708.68
 111  41181.12
 112  41755.18
 113  41859.31
 114  43626.9
 115  43824.7
 116  42573.47
 117  39776.22
 118  36864.37
 119  40897.16
 120  41121.66
 121  43979.26
 122  41919.53
 123  47209.02
 124  42107.85
 125  41678.38
 126  36674.58
 127  42146.39
 128  39795.41
 129  43708.94
 130  41016.19
 131  47162.5
 132  42867.68
 133  41738.23
 134  33766.49
 135  39593.83
 136  41872.58
 137  43652.7
 138  39660.99
 139  45520.64
 140  43825.74
 141  43471.74
 142  37360.44
 143  38611.18
 144  40227.29
 145  41894.35
 146  42187.57
 147  42626.16
 148  44297.83
 149  43547.98
 150  39558.38
 151  35766.44
 152  43296.44
 153  43630.53
 154  44320.39
 155  41747
 156  45489.77
 157  40891.98
 158  43765.78
 159  37305.23
 160  40498.73
 161  39509.27
 162  43956.4
 163  42962.51
 164  46549.14
 165  41751.16
 166  42539.7
 167  35797.76
 168  41472.88
 169  41980.32
 170  42760.26
 171  40406.62
 172  44968.97
 173  46218.22
 174  44777.86
 175  37464.18
 176  38075.08
 177  41490.16
 178  43957.95
 179  43871.46
 180  42956.6
 181  46641.29
 182  43546.45
 183  39801.07
 184  35074.61
 185  42057.96
 186  39986.41
 187  43361.7
 188  41381.34
 189  45759.31
 190  43608
 191  43671.38
 192  34557.01
 193  40017.84
 194  40109.45
 195  44513.43
 196  40844.71
 197  45032.57
 198  42270.88
 199  43194.41
 200  37355.05
 201  39876.83
 202  39420.54
 203  42274.69
 204  41477.52
 205  44413.96
 206  43740.22
 207  42771.92
 208  38221.1
 209  38088.04
 210  41985.34
 211  42072.77
 212  41516.01
 213  43982.8
 214  46346.5
 215  41849.79
 216  39319.12
 217  36451.95
 218  42268.91
 219  40755.3
 220  43488.66
 221  39269.1
 222  45862.06
 223  43446.76
 224  42953.84
 225  33153.79
 226  40964.85
 227  41511.51
 228  44057.86
 229  40937.98
 230  45366.5
 231  42142.45
 232  42578.62
 233  35491.23
 234  38813.27
 235  39414.11
 236  41762.32
 237  41587.87
 238  43687.25
 239  43117.73
 240  42511.48
 241  38049.76
 242  36682.58
 243  42614.8
 244  41677.07
 245  42279.83
 246  42172.88
 247  46233.1
 248  42728.46
 249  41486.37
 250  36013.62
 251  40991.86
 252  40666.59
 253  43622.18
 254  41573.41
 255  45873.79
