# Input file       =  1203185641.098177_cleaned.dat
# Candidate        =  PSR_0332+5434
# Telescope        =  AR
# Epoch_topo       =  58169.759954840010
# Epoch_bary       =  N/A
# T_sample         =  0.002
# Data Folded      =  7340032
# Data Avg         =  0.00543340606444484
# Data StdDev      =  3.82292946621985 
# Profile Bins     =  1024
# Profile Avg      =  39.0412273728172 
# Profile StdDev   =  323.664660715476 
# Reduced chi-sqr  =  0.898
# Prob(Noise)      <  0.991   (~0.0 sigma)
# P_topo (ms)      =  714.580996204361  +/- 0.000426
# P'_topo (s/s)    =  -0                +/- 2.25e-10
# P''_topo (s/s^2) =  0                 +/- 9.93e-14
# P_bary (ms)      =  N/A
# P'_bary (s/s)    =  N/A
# P''_bary (s/s^2) =  N/A
# P_orb (s)        =  N/A
# asin(i)/c (s)    =  N/A
# eccentricity     =  N/A
# w (rad)          =  N/A
# T_peri           =  N/A
######################################################
   0  -61.42009
   1  -47.18555
   2  79.52087
   3  51.99043
   4  111.3805
   5  74.00106
   6  67.63104
   7  -205.1306
   8  -361.1188
   9  -365.2471
  10  -327.9002
  11  -160.8964
  12  -146.4937
  13  74.23663
  14  43.67865
  15  -14.47442
  16  -135.3629
  17  -33.18711
  18  -16.34364
  19  -23.02011
  20  -233.3165
  21  -298.5573
  22  -372.6071
  23  -310.1897
  24  -206.7328
  25  -43.17071
  26  -55.96377
  27  -19.73065
  28  23.92054
  29  211.2418
  30  175.1785
  31  58.22392
  32  42.07036
  33  -9.990816
  34  17.80507
  35  -54.33084
  36  -10.71022
  37  189.587
  38  263.7815
  39  196.3645
  40  87.16692
  41  50.38464
  42  -0.03607541
  43  -8.652472
  44  14.70612
  45  45.498
  46  45.5727
  47  87.47691
  48  133.5019
  49  158.193
  50  254.9063
  51  258.6879
  52  127.2317
  53  -24.68801
  54  -74.05592
  55  -70.57683
  56  -62.92048
  57  -67.77811
  58  29.77788
  59  139.2151
  60  57.2781
  61  -124.5125
  62  -202.2737
  63  -24.84988
  64  47.94213
  65  -21.49591
  66  -105.9802
  67  -74.51435
  68  62.7763
  69  80.42665
  70  71.16278
  71  86.61972
  72  129.7915
  73  222.3908
  74  133.1164
  75  16.02002
  76  -128.1071
  77  -119.8931
  78  -121.7705
  79  -2.918574
  80  20.8066
  81  -21.93926
  82  53.9115
  83  83.73653
  84  41.95988
  85  -104.1401
  86  -187.4312
  87  -218.7167
  88  -136.7174
  89  -16.20529
  90  104.4378
  91  4.921885
  92  -126.7498
  93  -43.02586
  94  53.65687
  95  205.0008
  96  128.3205
  97  108.6378
  98  59.04821
  99  59.25
 100  79.44759
 101  69.09764
 102  44.80581
 103  -32.55406
 104  33.34555
 105  135.2217
 106  169.0162
 107  145.5455
 108  172.9028
 109  233.9259
 110  177.2752
 111  221.0939
 112  210.1409
 113  187.1463
 114  -23.31071
 115  -50.72287
 116  -205.1656
 117  -207.207
 118  -180.5325
 119  -21.59319
 120  105.8238
 121  54.65341
 122  -12.37322
 123  -121.7799
 124  -105.1389
 125  0.5101722
 126  75.3099
 127  33.65404
 128  -87.54378
 129  -257.9974
 130  -165.2538
 131  153.6355
 132  281.8824
 133  228.7582
 134  36.15805
 135  112.6565
 136  32.03859
 137  36.13938
 138  -34.46591
 139  -12.05832
 140  8.353569
 141  105.6702
 142  165.7932
 143  254.1787
 144  237.2623
 145  317.1096
 146  285.3505
 147  224.1764
 148  90.07979
 149  58.53381
 150  37.54635
 151  -55.43732
 152  -117.7681
 153  -72.37758
 154  -33.83902
 155  -66.80887
 156  -30.9513
 157  210.3621
 158  217.5037
 159  192.1034
 160  61.33614
 161  182.5541
 162  270.3
 163  366.8218
 164  417.5862
 165  383.8817
 166  218.451
 167  35.43512
 168  141.58
 169  244.6767
 170  234.4868
 171  214.4845
 172  172.8956
 173  278.5406
 174  343.9638
 175  362.9592
 176  290.4398
 177  129.7719
 178  126.5789
 179  87.93367
 180  146.4698
 181  112.2608
 182  141.6487
 183  90.07595
 184  111.2724
 185  48.6305
 186  72.3838
 187  6.296707
 188  62.61338
 189  -6.689504
 190  24.5789
 191  36.71199
 192  33.03323
 193  -83.641
 194  -146.8308
 195  -161.5195
 196  -183.2504
 197  -161.7567
 198  -60.51025
 199  133.9033
 200  270.0273
 201  355.6169
 202  342.6453
 203  327.6142
 204  337.5384
 205  253.7672
 206  298.1052
 207  288.2983
 208  239.3646
 209  61.99635
 210  -55.4642
 211  51.5007
 212  141.7578
 213  302.23
 214  354.4045
 215  309.1781
 216  129.5443
 217  -38.43896
 218  56.67622
 219  224.0694
 220  212.0328
 221  224.873
 222  171.0216
 223  229.1294
 224  199.2155
 225  70.81843
 226  -33.1979
 227  -119.3536
 228  -40.63752
 229  8.42652
 230  -54.73714
 231  -93.14469
 232  -139.1127
 233  -131.4263
 234  -112.5037
 235  -102.0692
 236  -122.3026
 237  -63.31984
 238  42.61801
 239  110.7101
 240  43.09538
 241  88.87228
 242  84.17739
 243  44.74691
 244  101.1248
 245  193.4644
 246  279.2617
 247  166.6465
 248  78.75407
 249  1.96968
 250  -8.091694
 251  68.86662
 252  150.1761
 253  188.2909
 254  42.1794
 255  -159.0052
 256  -295.107
 257  -188.5476
 258  86.53058
 259  209.4056
 260  106.2544
 261  -13.43043
 262  -172.5631
 263  -155.4723
 264  -3.7562
 265  244.134
 266  237.7438
 267  180.7131
 268  186.191
 269  247.2513
 270  166.3495
 271  196.5976
 272  241.4284
 273  278.9207
 274  67.7106
 275  -15.78118
 276  -69.08202
 277  35.04259
 278  129.4491
 279  99.32043
 280  -97.29406
 281  -45.2076
 282  37.89078
 283  196.3849
 284  133.9358
 285  169.7299
 286  127.7862
 287  -13.74478
 288  -92.28017
 289  43.9207
 290  88.32266
 291  132.0558
 292  -2.490298
 293  -77.42999
 294  -158.6016
 295  -62.71468
 296  74.26132
 297  -15.01373
 298  -51.28134
 299  -92.06087
 300  -103.068
 301  -51.8591
 302  -36.47527
 303  128.8428
 304  98.50349
 305  13.42693
 306  -111.0089
 307  -196.6057
 308  -32.39563
 309  44.53298
 310  111.6295
 311  -3.968671
 312  -28.57164
 313  -126.0316
 314  -113.4921
 315  -101.0637
 316  -54.25059
 317  -28.69031
 318  -130.6655
 319  -120.5378
 320  -174.1572
 321  -56.36642
 322  -4.768902
 323  49.20944
 324  -28.36307
 325  -232.5694
 326  -306.2428
 327  -327.7345
 328  -255.4896
 329  -159.0437
 330  -54.577
 331  23.00151
 332  -66.05545
 333  -88.49631
 334  -60.58865
 335  23.62798
 336  -42.66738
 337  -22.57619
 338  -31.52662
 339  -73.30985
 340  -155.245
 341  -89.37693
 342  122.7371
 343  90.06415
 344  -148.6888
 345  -302.099
 346  -226.7578
 347  -30.89923
 348  12.71599
 349  -1.5949
 350  -43.63988
 351  42.94078
 352  -63.24038
 353  -100.1618
 354  -88.56228
 355  78.91791
 356  56.23358
 357  -67.77717
 358  -182.8048
 359  -132.2865
 360  -196.7729
 361  -250.9861
 362  -364.6876
 363  -52.63965
 364  27.91805
 365  109.7467
 366  -85.8423
 367  -9.196274
 368  7.777994
 369  107.8325
 370  14.31629
 371  21.29624
 372  12.814
 373  -4.916348
 374  -170.0066
 375  -224.6516
 376  -98.54688
 377  -24.11059
 378  43.11536
 379  10.58802
 380  101.4262
 381  48.74527
 382  24.09195
 383  -137.9276
 384  -187.0535
 385  -233.9041
 386  -187.2958
 387  -256.5447
 388  -228.7001
 389  -127.0254
 390  -56.71132
 391  -99.62817
 392  -120.4966
 393  -81.62341
 394  -33.02107
 395  -78.89941
 396  -41.37349
 397  3.37242
 398  -129.206
 399  -146.4013
 400  -206.722
 401  -132.3651
 402  -123.5996
 403  -140.9342
 404  -146.0005
 405  -94.21865
 406  -21.34359
 407  29.97858
 408  -70.77513
 409  -85.7261
 410  -134.1811
 411  -136.9757
 412  -217.0734
 413  -176.6448
 414  -172.6349
 415  -157.337
 416  -91.21423
 417  -65.16109
 418  -50.95274
 419  -68.85181
 420  -131.027
 421  -72.99312
 422  23.35739
 423  81.57603
 424  -24.19893
 425  -34.38098
 426  -57.62476
 427  -23.2965
 428  -132.3031
 429  -70.34933
 430  -94.0776
 431  -35.20654
 432  66.48701
 433  201.9102
 434  142.8762
 435  57.89366
 436  -72.63574
 437  -41.15921
 438  -30.27622
 439  8.183462
 440  -64.91183
 441  -39.16283
 442  -35.17195
 443  -13.39577
 444  -108.6569
 445  -119.6259
 446  -30.58473
 447  -15.80992
 448  -27.01315
 449  -93.18388
 450  -197.0293
 451  -170.8352
 452  -199.6938
 453  -141.4231
 454  -164.5992
 455  -93.52379
 456  -49.04601
 457  2.555976
 458  20.63564
 459  40.12516
 460  -33.10301
 461  -184.6127
 462  -182.7678
 463  -155.171
 464  -92.68783
 465  32.68221
 466  -20.65254
 467  -34.08441
 468  -147.591
 469  -36.07657
 470  -86.8303
 471  -25.8101
 472  30.95403
 473  27.29582
 474  -39.32111
 475  -138.5662
 476  -218.3322
 477  -211.7168
 478  -112.2475
 479  -40.58313
 480  -64.96122
 481  -106.2743
 482  -57.20654
 483  29.13847
 484  93.47787
 485  -28.00877
 486  -31.82104
 487  -21.73403
 488  34.4272
 489  55.70404
 490  135.5161
 491  152.8073
 492  14.56036
 493  -56.39769
 494  65.3466
 495  -36.4485
 496  -122.8466
 497  -229.4017
 498  -86.0236
 499  -132.1092
 500  -116.4273
 501  -112.7075
 502  69.52547
 503  124.5973
 504  111.9164
 505  76.55608
 506  93.84611
 507  224.9324
 508  177.8862
 509  85.77811
 510  -137.1839
 511  -84.99874
 512  -45.30798
 513  -70.95025
 514  -60.32456
 515  -51.84195
 516  50.15974
 517  -22.25534
 518  107.8205
 519  169.3262
 520  195.8169
 521  201.3059
 522  244.6956
 523  245.4898
 524  166.7796
 525  88.19229
 526  -20.47692
 527  -155.3504
 528  -235.3174
 529  -95.01532
 530  76.86104
 531  192.9716
 532  222.7671
 533  85.10037
 534  -32.3119
 535  -8.89695
 536  149.0614
 537  245.6599
 538  207.7926
 539  135.6776
 540  159.1801
 541  147.6208
 542  92.94859
 543  184.1893
 544  269.8316
 545  279.8671
 546  22.19775
 547  10.60142
 548  131.1038
 549  278.4979
 550  287.0553
 551  130.3884
 552  51.43948
 553  69.58875
 554  -42.14601
 555  -129.7389
 556  -134.4937
 557  -78.71985
 558  -26.00631
 559  -24.09782
 560  -28.75985
 561  -7.020417
 562  1.495148
 563  141.1179
 564  37.53646
 565  70.94128
 566  -91.20813
 567  -124.434
 568  -126.6433
 569  -9.647306
 570  -59.99667
 571  -175.4191
 572  -47.04903
 573  132.7896
 574  194.6221
 575  78.13178
 576  -62.3731
 577  -20.40247
 578  98.18933
 579  299.4819
 580  386.474
 581  369.8996
 582  249.9432
 583  195.8632
 584  116.1556
 585  172.0783
 586  128.1907
 587  189.2587
 588  110.7552
 589  36.338
 590  -102.5693
 591  -103.2344
 592  3.843568
 593  136.1198
 594  161.7938
 595  405.1158
 596  540.2019
 597  548.0693
 598  370.0473
 599  290.9719
 600  244.4883
 601  225.1046
 602  229.9373
 603  229.2643
 604  393.2168
 605  495.9677
 606  620.4833
 607  598.1064
 608  719.2096
 609  752.3682
 610  819.1636
 611  869.6948
 612  1053.685
 613  999.6432
 614  692.983
 615  465.5495
 616  353.3996
 617  433.8544
 618  208.6996
 619  -68.23846
 620  -127.1078
 621  -28.98785
 622  89.11288
 623  18.89431
 624  38.89282
 625  75.89223
 626  -1.82967
 627  -39.8577
 628  23.89701
 629  197.9951
 630  243.836
 631  270.9797
 632  219.6081
 633  130.1409
 634  123.3035
 635  255.1821
 636  371.2506
 637  340.5931
 638  275.4653
 639  315.7648
 640  271.3831
 641  259.6701
 642  300.4709
 643  427.1117
 644  529.295
 645  340.5296
 646  204.41
 647  91.71423
 648  89.20086
 649  130.4158
 650  221.2811
 651  146.8191
 652  60.62145
 653  -18.59037
 654  172.7238
 655  223.2958
 656  182.5662
 657  25.38081
 658  34.69038
 659  61.4431
 660  71.80426
 661  107.1151
 662  211.4469
 663  207.0232
 664  81.99989
 665  -16.80168
 666  -58.47387
 667  -17.29846
 668  3.065593
 669  51.52549
 670  14.1674
 671  -30.78918
 672  -47.66609
 673  -133.4797
 674  -92.46904
 675  7.864742
 676  109.0968
 677  184.1573
 678  209.4467
 679  149.1512
 680  86.5024
 681  24.71015
 682  143.6433
 683  111.9904
 684  70.01427
 685  111.8747
 686  126.2206
 687  99.84583
 688  130.5054
 689  144.0396
 690  68.51157
 691  -17.976
 692  -23.01516
 693  -63.48258
 694  -79.7264
 695  -128.8767
 696  -70.49633
 697  -73.0376
 698  46.27365
 699  198.614
 700  164.3935
 701  3.429713
 702  -177.5862
 703  -153.0943
 704  -127.7298
 705  -162.288
 706  -207.584
 707  -161.3295
 708  -130.9184
 709  -150.8706
 710  -126.3603
 711  -102.4881
 712  84.26626
 713  223.9594
 714  402.1245
 715  298.7577
 716  141.9476
 717  19.28659
 718  -14.52475
 719  -19.77398
 720  -137.0355
 721  -180.2511
 722  -274.7109
 723  -229.769
 724  -153.802
 725  68.09335
 726  56.21956
 727  -102.9464
 728  -120.4431
 729  -111.8396
 730  143.3662
 731  48.46753
 732  82.92236
 733  16.61419
 734  34.75608
 735  58.07858
 736  180.5042
 737  227.6786
 738  177.8341
 739  14.20949
 740  99.06906
 741  39.34133
 742  102.6104
 743  215.5771
 744  266.1881
 745  215.8738
 746  254.9608
 747  230.3988
 748  290.5377
 749  135.7861
 750  231.2728
 751  17.73015
 752  18.03952
 753  -25.44775
 754  160.398
 755  206.1355
 756  253.7426
 757  125.8946
 758  117.7305
 759  94.16133
 760  131.2515
 761  200.0621
 762  286.3726
 763  298.9821
 764  240.8679
 765  263.6167
 766  170.8874
 767  43.35328
 768  36.71895
 769  177.0777
 770  265.1723
 771  227.3626
 772  122.8601
 773  97.982
 774  57.24686
 775  35.36063
 776  -13.5659
 777  4.42248
 778  14.51968
 779  54.35488
 780  35.99221
 781  -98.22945
 782  -97.12093
 783  -24.32482
 784  125.7826
 785  45.87917
 786  -3.912628
 787  4.091516
 788  14.83611
 789  67.83154
 790  62.05943
 791  13.45087
 792  -113.2731
 793  -285.589
 794  -197.0103
 795  -45.80156
 796  129.3737
 797  152.3315
 798  80.82517
 799  6.276659
 800  -131.5257
 801  -91.53119
 802  -81.26096
 803  49.04765
 804  138.4855
 805  185.1056
 806  218.3644
 807  243.3799
 808  339.9836
 809  321.3385
 810  311.6278
 811  303.6089
 812  272.4216
 813  252.7423
 814  240.1881
 815  201.5329
 816  205.3565
 817  90.08591
 818  56.83497
 819  301.7942
 820  464.4048
 821  474.1779
 822  226.1456
 823  263.8079
 824  187.2016
 825  151.8867
 826  -23.79419
 827  58.04169
 828  115.4695
 829  61.63101
 830  21.9408
 831  -28.95694
 832  36.0302
 833  -38.32048
 834  28.08611
 835  120.5198
 836  248.8115
 837  347.4049
 838  325.6567
 839  284.2698
 840  181.6924
 841  170.3759
 842  9.243577
 843  -139.1174
 844  -134.9943
 845  -173.111
 846  -236.0932
 847  -280.9862
 848  -196.5722
 849  -121.2513
 850  -15.3465
 851  99.0359
 852  191.7092
 853  167.9911
 854  75.05902
 855  -135.0154
 856  -191.1512
 857  -225.6895
 858  -60.28933
 859  44.00524
 860  64.99859
 861  60.68363
 862  31.23402
 863  155.6921
 864  -136.8129
 865  -272.488
 866  -256.5915
 867  -33.22327
 868  58.35266
 869  118.5164
 870  314.2444
 871  371.4995
 872  349.7442
 873  174.6852
 874  94.26134
 875  59.05157
 876  69.93188
 877  85.0802
 878  63.01772
 879  52.68979
 880  56.60006
 881  43.46054
 882  -31.98952
 883  -63.07976
 884  -78.85162
 885  -70.30409
 886  -95.86592
 887  -46.61245
 888  44.95728
 889  236.4947
 890  345.3041
 891  272.104
 892  -30.4256
 893  -291.2826
 894  -361.6392
 895  -300.3335
 896  -10.4442
 897  86.74957
 898  -3.634734
 899  -102.8413
 900  -176.0437
 901  -213.8459
 902  -235.9262
 903  -240.6514
 904  -210.1894
 905  -211.2398
 906  -183.1191
 907  -121.295
 908  -12.88166
 909  132.7634
 910  134.3221
 911  5.307775
 912  -109.0002
 913  -1.075095
 914  127.918
 915  163.7305
 916  159.7379
 917  20.21373
 918  36.63279
 919  9.173961
 920  80.91428
 921  67.61813
 922  129.3646
 923  91.00703
 924  124.6937
 925  58.79712
 926  98.94289
 927  112.3088
 928  29.41258
 929  -76.4461
 930  -14.48889
 931  94.38631
 932  21.19286
 933  -104.1374
 934  -169.3529
 935  -73.6357
 936  6.485289
 937  181.1566
 938  192.6427
 939  151.0761
 940  27.53232
 941  -123.3845
 942  -348.9493
 943  -382.4272
 944  -206.0038
 945  -68.85334
 946  -80.83791
 947  -126.8764
 948  -230.7371
 949  -274.1005
 950  -200.168
 951  -76.59348
 952  12.48142
 953  -11.86779
 954  65.45283
 955  112.1065
 956  170.0344
 957  211.0367
 958  110.8298
 959  111.6228
 960  15.26096
 961  2.97907
 962  -19.01195
 963  -47.74251
 964  -13.99947
 965  38.73084
 966  101.1064
 967  130.171
 968  17.613
 969  -72.85335
 970  -176.2197
 971  -110.2215
 972  73.98241
 973  176.447
 974  173.512
 975  115.8041
 976  2.194213
 977  -107.6175
 978  -139.3758
 979  -63.39394
 980  34.02987
 981  -98.77373
 982  -166.7658
 983  -207.3221
 984  -53.03493
 985  10.20557
 986  40.639
 987  65.17877
 988  155.5915
 989  114.742
 990  90.28818
 991  149.1424
 992  264.5939
 993  199.447
 994  104.8383
 995  209.9807
 996  201.5113
 997  97.37204
 998  -66.66032
 999  3.347585
1000  62.38637
1001  72.42682
1002  77.10421
1003  57.18464
1004  143.8964
1005  11.67584
1006  -7.809157
1007  -188.0102
1008  -280.3551
1009  -192.699
1010  -142.3707
1011  -133.3847
1012  -276.4594
1013  -303.5381
1014  -262.3032
1015  -125.6268
1016  -43.9513
1017  37.41694
1018  -53.1318
1019  -143.9573
1020  -183.2971
1021  -149.4472
1022  -34.75429
1023  -19.18556
