# Input file       =  1203500530.107594-PSRB0329-2ms-sampling-dd.dat
# Candidate        =  PSR_0332+5434
# Telescope        =  AR
# Epoch_topo       =  58173.404503560116
# Epoch_bary       =  N/A
# T_sample         =  0.002
# Data Folded      =  7340032
# Data Avg         =  1.4842930134291e-10
# Data StdDev      =  8.01621490120667 
# Profile Bins     =  512
# Profile Avg      =  0.568687247445687
# Profile StdDev   =  959.805750370153 
# Reduced chi-sqr  =  0.516
# Prob(Noise)      <  1   (~0.0 sigma)
# P_topo (ms)      =  714.58072137236   +/- 8.51e-05
# P'_topo (s/s)    =  -0                +/- 4.49e-11
# P''_topo (s/s^2) =  0                 +/- 1.98e-14
# P_bary (ms)      =  N/A
# P'_bary (s/s)    =  N/A
# P''_bary (s/s^2) =  N/A
# P_orb (s)        =  N/A
# asin(i)/c (s)    =  N/A
# eccentricity     =  N/A
# w (rad)          =  N/A
# T_peri           =  N/A
######################################################
   0  104.297
   1  -403.5216
   2  -685.2764
   3  -221.0854
   4  202.5654
   5  -38.4454
   6  143.4194
   7  714.0364
   8  13.55981
   9  -123.5093
  10  109.4007
  11  385.3035
  12  257.3391
  13  273.527
  14  -336.1905
  15  -347.8881
  16  45.139
  17  75.4166
  18  85.87788
  19  613.0341
  20  194.9912
  21  173.5306
  22  109.3158
  23  488.1362
  24  208.3599
  25  40.62605
  26  -46.11444
  27  -108.2177
  28  -457.1245
  29  -598.6141
  30  -331.9391
  31  -177.8988
  32  5.311407
  33  464.4753
  34  -224.1319
  35  -340.7709
  36  -409.9585
  37  -483.2559
  38  -310.7245
  39  505.5087
  40  965.89
  41  725.2462
  42  572.3893
  43  362.9728
  44  353.7218
  45  63.23518
  46  -136.6839
  47  -581.9293
  48  486.9663
  49  695.6062
  50  153.5907
  51  130.4187
  52  334.3727
  53  317.6147
  54  -136.5929
  55  -114.2561
  56  82.98819
  57  456.2456
  58  747.9166
  59  740.6608
  60  742.1262
  61  666.7061
  62  31.31017
  63  -210.4406
  64  119.6704
  65  1103.098
  66  532.6193
  67  623.2966
  68  539.9775
  69  416.7767
  70  719.1996
  71  405.0392
  72  593.5386
  73  929.0674
  74  832.6448
  75  871.8572
  76  698.5667
  77  428.6897
  78  327.4619
  79  45.0675
  80  -224.0054
  81  265.7856
  82  375.0203
  83  36.51137
  84  -5.091131
  85  562.7797
  86  417.4987
  87  122.4187
  88  -157.623
  89  164.9531
  90  235.6745
  91  -828.0082
  92  -1037.518
  93  -769.8069
  94  -389.3611
  95  -513.662
  96  -707.1068
  97  -425.6687
  98  -274.139
  99  -612.9238
 100  -927.1629
 101  -542.8343
 102  -339.485
 103  -335.0561
 104  -123.1752
 105  141.4415
 106  417.6271
 107  113.5579
 108  77.36658
 109  -240.8252
 110  -685.3918
 111  -485.0498
 112  -391.3743
 113  -699.903
 114  -300.9968
 115  -163.2844
 116  -68.6545
 117  -496.3297
 118  -346.1642
 119  -377.8685
 120  -802.3325
 121  -125.3454
 122  -122.06
 123  -24.82912
 124  -61.25628
 125  -504.7838
 126  -575.0674
 127  -833.2161
 128  -564.8373
 129  -386.9743
 130  -988.7203
 131  -823.6872
 132  -738.471
 133  -803.2374
 134  -321.8623
 135  90.35548
 136  443.3577
 137  589.0662
 138  1084.628
 139  1072.775
 140  1037.34
 141  575.5871
 142  -272.024
 143  -693.4913
 144  -838.7078
 145  -1022.279
 146  -1055.422
 147  -584.3617
 148  -48.08757
 149  -227.2523
 150  -527.3184
 151  -784.7488
 152  -517.6502
 153  87.56243
 154  345.0173
 155  256.0254
 156  128.4595
 157  -316.3626
 158  -440.7353
 159  -118.5804
 160  104.7481
 161  -11.86118
 162  -321.6646
 163  -427.3402
 164  -549.3862
 165  -800.1697
 166  -902.9102
 167  -548.3466
 168  56.02756
 169  -326.7443
 170  -16.58064
 171  10.79865
 172  -10.50818
 173  -220.1459
 174  -519.0172
 175  -225.3285
 176  -518.6328
 177  -197.9059
 178  -393.1266
 179  -201.3595
 180  125.7814
 181  669.181
 182  -12.49293
 183  -1032.79
 184  -868.7178
 185  -866.5947
 186  -406.4648
 187  63.38778
 188  313.0525
 189  499.0222
 190  -453.9527
 191  -931.4205
 192  -390.5157
 193  -630.3004
 194  -419.9327
 195  -729.5384
 196  -60.73677
 197  285.745
 198  -323.5409
 199  -834.6125
 200  -866.9658
 201  -460.5856
 202  -249.1999
 203  302.9259
 204  466.6293
 205  327.378
 206  -295.5838
 207  -233.1374
 208  -100.0819
 209  -228.7959
 210  -597.1481
 211  -485.3184
 212  -755.0015
 213  -187.2748
 214  341.0443
 215  -164.2118
 216  -490.6146
 217  -786.3601
 218  -559.4066
 219  -812.5471
 220  -725.256
 221  -301.7717
 222  157.6258
 223  57.60751
 224  -197.3757
 225  -369.7114
 226  -282.4913
 227  -1031.706
 228  -1426.598
 229  -527.8103
 230  -183.3077
 231  199.477
 232  17.645
 233  65.97376
 234  520.018
 235  -276.6852
 236  -404.6238
 237  145.6188
 238  404.6981
 239  109.5225
 240  -192.3433
 241  83.65341
 242  -346.3182
 243  -320.7964
 244  224.9074
 245  21.67576
 246  490.6719
 247  110.353
 248  -607.5212
 249  -1162.136
 250  -874.7365
 251  -347.513
 252  -17.55017
 253  381.4417
 254  333.5018
 255  798.2584
 256  94.07101
 257  -620.1509
 258  -700.8765
 259  -395.6719
 260  -602.5217
 261  -220.1094
 262  329.4237
 263  647.7775
 264  443.4756
 265  -92.09459
 266  -172.0864
 267  -144.6358
 268  280.1588
 269  552.5701
 270  563.5545
 271  1065.938
 272  1034.504
 273  859.7785
 274  539.5018
 275  115.1535
 276  268.6829
 277  -16.18218
 278  -31.1557
 279  977.0624
 280  609.7397
 281  196.5041
 282  -68.03429
 283  103.7027
 284  -130.8631
 285  -377.1107
 286  -200.5478
 287  366.9691
 288  361.8179
 289  850.1857
 290  433.6876
 291  44.7225
 292  -204.7692
 293  -434.7246
 294  -338.5916
 295  -60.64726
 296  139.2352
 297  895.6753
 298  791.2806
 299  525.1844
 300  396.92
 301  -289.6103
 302  -609.4163
 303  -436.5856
 304  271.9865
 305  573.2449
 306  602.4117
 307  129.3414
 308  36.85815
 309  -465.7866
 310  -719.5227
 311  -925.3729
 312  -672.0735
 313  -228.3774
 314  43.01451
 315  -53.06657
 316  315.8035
 317  -5.747094
 318  -463.4787
 319  -598.0644
 320  -211.9476
 321  408.658
 322  228.3863
 323  -141.0098
 324  288.4115
 325  137.0382
 326  -236.1828
 327  -294.258
 328  355.15
 329  526.4169
 330  -94.22743
 331  -373.6849
 332  -821.3734
 333  -676.0892
 334  223.1383
 335  156.2134
 336  438.0433
 337  257.7238
 338  715.5356
 339  269.9203
 340  -160.2302
 341  -352.3313
 342  -74.84469
 343  -99.22202
 344  -531.4372
 345  -204.6282
 346  -63.93878
 347  -285.2936
 348  -310.3497
 349  75.17538
 350  153.3413
 351  273.0165
 352  161.9393
 353  383.0453
 354  541.1218
 355  367.1772
 356  729.1362
 357  671.101
 358  263.8711
 359  183.9413
 360  32.59366
 361  433.9987
 362  717.0729
 363  552.1858
 364  342.557
 365  238.3344
 366  50.19735
 367  331.0617
 368  470.8335
 369  780.1661
 370  1832.161
 371  1238.456
 372  747.8373
 373  372.4319
 374  202.041
 375  190.7934
 376  107.7192
 377  137.7985
 378  450.6411
 379  814.0187
 380  768.2549
 381  485.4916
 382  691.806
 383  30.17546
 384  -35.22168
 385  -327.1366
 386  231.6911
 387  980.1203
 388  1296.078
 389  643.7642
 390  736.8412
 391  661.8439
 392  98.63647
 393  -131.6547
 394  463.4363
 395  1190.126
 396  1291.942
 397  933.9562
 398  600.9855
 399  560.0802
 400  105.645
 401  64.3588
 402  1009.627
 403  1347.54
 404  1365.294
 405  1219.131
 406  1066.919
 407  774.3401
 408  250.5077
 409  -351.5749
 410  -290.023
 411  93.47075
 412  529.0826
 413  207.0232
 414  207.7886
 415  259.5249
 416  190.5347
 417  57.87314
 418  -392.6392
 419  -123.4656
 420  126.7157
 421  -41.78618
 422  195.6692
 423  139.2396
 424  -190.5692
 425  -50.52427
 426  -236.5595
 427  -401.7831
 428  355.9333
 429  419.7234
 430  -272.4509
 431  -213.0455
 432  -179.5768
 433  -144.585
 434  -72.32678
 435  138.5301
 436  908.9257
 437  634.8155
 438  338.0603
 439  -13.98622
 440  -273.9131
 441  -138.9192
 442  -262.1808
 443  -405.2459
 444  147.787
 445  321.4728
 446  -174.4642
 447  -353.308
 448  -133.1924
 449  -489.5755
 450  -423.7965
 451  -18.50153
 452  -5.277636
 453  744.7714
 454  583.1599
 455  136.6741
 456  -344.7665
 457  -60.51589
 458  -459.1973
 459  -714.3811
 460  -372.1225
 461  -108.3251
 462  101.2097
 463  -291.7951
 464  37.28059
 465  -69.68694
 466  -220.3958
 467  -935.0055
 468  -584.5806
 469  165.5012
 470  507.5777
 471  409.9713
 472  -345.701
 473  -395.1412
 474  -569.1161
 475  -440.0909
 476  -965.8339
 477  -665.4297
 478  -435.4473
 479  -302.101
 480  -531.7675
 481  -763.8903
 482  -755.0543
 483  -993.3306
 484  -476.6126
 485  -158.2079
 486  384.4379
 487  360.3477
 488  -493.8559
 489  -170.5616
 490  -446.2171
 491  -352.4599
 492  -401.9001
 493  -134.6954
 494  118.3771
 495  282.2216
 496  -65.68719
 497  -37.60967
 498  202.8874
 499  157.0652
 500  -156.0475
 501  -95.46525
 502  561.5266
 503  924.215
 504  318.3779
 505  293.3813
 506  -212.3127
 507  -428.4088
 508  -524.7125
 509  -595.4422
 510  -35.15182
 511  95.28247
