# Input file       =  1203672702.105511_cleaned.dat
# Candidate        =  PSR_0332+5434
# Telescope        =  AR
# Epoch_topo       =  58175.397235017488
# Epoch_bary       =  N/A
# T_sample         =  0.002
# Data Folded      =  7405568
# Data Avg         =  0.506636324398369
# Data StdDev      =  6.60972195734303 
# Profile Bins     =  256
# Profile Avg      =  14656.11963454   
# Profile StdDev   =  1124.19693101104 
# Reduced chi-sqr  =  1.677
# Prob(Noise)      <  6.98e-11   (~6.4 sigma)
# P_topo (ms)      =  714.580667172845  +/- 7.38e-05
# P'_topo (s/s)    =  -0                +/- 3.86e-11
# P''_topo (s/s^2) =  0                 +/- 1.69e-14
# P_bary (ms)      =  N/A
# P'_bary (s/s)    =  N/A
# P''_bary (s/s^2) =  N/A
# P_orb (s)        =  N/A
# asin(i)/c (s)    =  N/A
# eccentricity     =  N/A
# w (rad)          =  N/A
# T_peri           =  N/A
######################################################
   0  14728.95
   1  13421.35
   2  14070.69
   3  15042.58
   4  15930.9
   5  15367.96
   6  14518.5
   7  13952.21
   8  13472.12
   9  13944.94
  10  13221.45
  11  13967.78
  12  15583.33
  13  15583.2
  14  15681.19
  15  14170.66
  16  14085.28
  17  13309.74
  18  13885.83
  19  14409.78
  20  15631.24
  21  14555.49
  22  15335.84
  23  15952.88
  24  15043.82
  25  14977.9
  26  14069.26
  27  15536.48
  28  16504.69
  29  16905.09
  30  16944.4
  31  17353.24
  32  15017.98
  33  15492.73
  34  15300.42
  35  16047.56
  36  15907.7
  37  16330.24
  38  16109.63
  39  16762.13
  40  15966.73
  41  14274.25
  42  13377.66
  43  13570.62
  44  15189.69
  45  15796.29
  46  16785.75
  47  16415.37
  48  15387.52
  49  13367.3
  50  13932.6
  51  14428.02
  52  14170.48
  53  14808.41
  54  14615.4
  55  14963.67
  56  15293.68
  57  14214.85
  58  14450.3
  59  13368.99
  60  13915.1
  61  14220.65
  62  14168.01
  63  14293.92
  64  14176.41
  65  13105.77
  66  12582.04
  67  13514.4
  68  14185.87
  69  14990.78
  70  14365.78
  71  14326.39
  72  14426.37
  73  14262.65
  74  13798.56
  75  12958.51
  76  13233.01
  77  13740.51
  78  14211.01
  79  14177.98
  80  14478.79
  81  14104.03
  82  13094.97
  83  12549.33
  84  12653.37
  85  14007.89
  86  13917.77
  87  14599.89
  88  14915.19
  89  15624.2
  90  14048.17
  91  13349.49
  92  13216.1
  93  15633.52
  94  16318.51
  95  17018.79
  96  15770.03
  97  15577.11
  98  15983.6
  99  15842.65
 100  14382.53
 101  14574.42
 102  15867.98
 103  16297.73
 104  16795.64
 105  16602.34
 106  16493.06
 107  14848.96
 108  14410.74
 109  14784.8
 110  16003.39
 111  16454.96
 112  15480.97
 113  14761.32
 114  15323.01
 115  14405.07
 116  14293.21
 117  14267.32
 118  14732.62
 119  15404.59
 120  16181.66
 121  16688.52
 122  16406.88
 123  15032.25
 124  14728.48
 125  14833.68
 126  15308.56
 127  15134.21
 128  15608.43
 129  15776.24
 130  15425.21
 131  14925.35
 132  14812.64
 133  13272.1
 134  14272.37
 135  15071.44
 136  16282.95
 137  16493.15
 138  16468.67
 139  16243.67
 140  15382.09
 141  14005.05
 142  14520.26
 143  15645.33
 144  16012.6
 145  15688.4
 146  15224.63
 147  15192.61
 148  14097.12
 149  14109.57
 150  13791.73
 151  14983.16
 152  16556.4
 153  17323.4
 154  16945.79
 155  15119.44
 156  14572.77
 157  14343.01
 158  13872.43
 159  14844.15
 160  14889.69
 161  15475.94
 162  15886.92
 163  14888.74
 164  13351.25
 165  13250.16
 166  12208.77
 167  13299.75
 168  14072.63
 169  15500.17
 170  15218.15
 171  14593.35
 172  14280.79
 173  13955.67
 174  13086.98
 175  13288.45
 176  14362.62
 177  13533.71
 178  14256.68
 179  14066.8
 180  14354.88
 181  13138.6
 182  11157.8
 183  11079.64
 184  12538.67
 185  12861.02
 186  12550.01
 187  12656.77
 188  12784.98
 189  12209.96
 190  11446.86
 191  10885.17
 192  11536.51
 193  12009
 194  12628.39
 195  12589.43
 196  13637.69
 197  12898.25
 198  12234.33
 199  11425.86
 200  12812.11
 201  13615.92
 202  13984.04
 203  14408.36
 204  14654.62
 205  14593.99
 206  13902.65
 207  13033.13
 208  14044.73
 209  14544.67
 210  15388.2
 211  15716.5
 212  15966.03
 213  14902.95
 214  13367.62
 215  13498.72
 216  14041.97
 217  14357.12
 218  15372.51
 219  14972.14
 220  14895.21
 221  14944.84
 222  14231.83
 223  13830.21
 224  13370.04
 225  14032.52
 226  14611.52
 227  15075.17
 228  15103.78
 229  14918.2
 230  14455.59
 231  14178.56
 232  13695.17
 233  13838.43
 234  15027.37
 235  14659.16
 236  14689.2
 237  15193.65
 238  16276.9
 239  15216.57
 240  14393.29
 241  13806.14
 242  15226.6
 243  16596.03
 244  17074.05
 245  17153.14
 246  16387.64
 247  16016.28
 248  16098.11
 249  15855.43
 250  15360.7
 251  16364.82
 252  17366.43
 253  16169.72
 254  15585.33
 255  15757.08
