# Input file       =  1203271799.102448_cleaned.dat
# Candidate        =  PSR_0332+5434
# Telescope        =  AR
# Epoch_topo       =  58170.757153963517
# Epoch_bary       =  N/A
# T_sample         =  0.002
# Data Folded      =  7340032
# Data Avg         =  0.144394874318096
# Data StdDev      =  3.59130498693837 
# Profile Bins     =  256
# Profile Avg      =  4140.26360757315 
# Profile StdDev   =  608.108792167999 
# Reduced chi-sqr  =  1.213
# Prob(Noise)      <  0.0114   (~2.3 sigma)
# P_topo (ms)      =  714.581043401254  +/- 0.000318
# P'_topo (s/s)    =  -0                +/- 1.68e-10
# P''_topo (s/s^2) =  0                 +/- 7.4e-14
# P_bary (ms)      =  N/A
# P'_bary (s/s)    =  N/A
# P''_bary (s/s^2) =  N/A
# P_orb (s)        =  N/A
# asin(i)/c (s)    =  N/A
# eccentricity     =  N/A
# w (rad)          =  N/A
# T_peri           =  N/A
######################################################
   0  3955.119
   1  4385.74
   2  4370.502
   3  3833.546
   4  5074.525
   5  4725.082
   6  4198.536
   7  4315.035
   8  3306.866
   9  3883.289
  10  4286.074
  11  3821.823
  12  3287.62
  13  3875.964
  14  4516.462
  15  4732.86
  16  4403.603
  17  5030.124
  18  3826.848
  19  3596.998
  20  3997.404
  21  3737.637
  22  4001.044
  23  3669.149
  24  3727.748
  25  3313.427
  26  4440.768
  27  4091.329
  28  3532.875
  29  4241.499
  30  3781.689
  31  4455.02
  32  3813.8
  33  3959.168
  34  3524.333
  35  4294.491
  36  4085.694
  37  3558.425
  38  3311.983
  39  3917.765
  40  2996.184
  41  3924.447
  42  3857.239
  43  5138.627
  44  4028.019
  45  3419.742
  46  3954.415
  47  4685.496
  48  4082.385
  49  4195.681
  50  4157.048
  51  4390.517
  52  4367.156
  53  4494.648
  54  4466.813
  55  4024.362
  56  4865.75
  57  5077.923
  58  4074.17
  59  3902.351
  60  3954.811
  61  4391.279
  62  5194.404
  63  5022.779
  64  4953.244
  65  4158.181
  66  4496.119
  67  3910.659
  68  3892.853
  69  3998.452
  70  4705.92
  71  4925.073
  72  5164.704
  73  3969.066
  74  4270.665
  75  4556.479
  76  4377.499
  77  3984.383
  78  4057.315
  79  3928.831
  80  4012.634
  81  3806.994
  82  4076.381
  83  3876.607
  84  3166.774
  85  3726.157
  86  3535.338
  87  3592.597
  88  3976.398
  89  2866.245
  90  3710.341
  91  3686.811
  92  4188.401
  93  3881.276
  94  4008.937
  95  3579.585
  96  3773.981
  97  2753.627
  98  3642.441
  99  3167.642
 100  3468.728
 101  3282.188
 102  3619.597
 103  4084.738
 104  3953.91
 105  3475.553
 106  3524.354
 107  4027.679
 108  4284.454
 109  3825.193
 110  3713.857
 111  4184.55
 112  3504.615
 113  4041.023
 114  3727.448
 115  3955.934
 116  4338.252
 117  4752.269
 118  4422.335
 119  5087.833
 120  4605.716
 121  4908.433
 122  4521.168
 123  4428.231
 124  4003.042
 125  4346.105
 126  4083.629
 127  4299.005
 128  3550.913
 129  4173.882
 130  4528.78
 131  4171.642
 132  4048.394
 133  3432.064
 134  3974.04
 135  4059.975
 136  4043.142
 137  4179.303
 138  4635.444
 139  4609.571
 140  4147.933
 141  3360.987
 142  3813.381
 143  4858.482
 144  4211.122
 145  4620.219
 146  4409.882
 147  4576.441
 148  4452.014
 149  4247.7
 150  4976.037
 151  5141.172
 152  6193.8
 153  7296.32
 154  5334.498
 155  3795.181
 156  3299.038
 157  3817.926
 158  3782.938
 159  3559.728
 160  3615.86
 161  4947.996
 162  4078.016
 163  3615.544
 164  5065.94
 165  3713.51
 166  3499.823
 167  3650.161
 168  3506.63
 169  3362.751
 170  3339.662
 171  3089.913
 172  3167.16
 173  4122.188
 174  3928.805
 175  3377.775
 176  3772.902
 177  3575.6
 178  3542.788
 179  3971.59
 180  3501.71
 181  4067.761
 182  3315.814
 183  3189.065
 184  3773.79
 185  3704.001
 186  3056.42
 187  3619.618
 188  3492.085
 189  3875.29
 190  3797.212
 191  4054.145
 192  4698.271
 193  3414.132
 194  3426.388
 195  4413.459
 196  4167.313
 197  4016.41
 198  4001.545
 199  4318.867
 200  4153.627
 201  3902.855
 202  3976.497
 203  3409.251
 204  3572.401
 205  4786.918
 206  4803.692
 207  4009.234
 208  3866.362
 209  4498.86
 210  3646.507
 211  3285.908
 212  4465.632
 213  4718.743
 214  4232.049
 215  4431.274
 216  4605.604
 217  4269.794
 218  4810.675
 219  4420.76
 220  3962.189
 221  4752.529
 222  4562.916
 223  3640.702
 224  4257.697
 225  5046.31
 226  4983.778
 227  4998.149
 228  4833.985
 229  4964.302
 230  5319.239
 231  5182.522
 232  4410.346
 233  4617.288
 234  5216.679
 235  4539.388
 236  4573.246
 237  4113.459
 238  4964.803
 239  4265.625
 240  3983.364
 241  4610.265
 242  4566.619
 243  4362.742
 244  4329.033
 245  3835.88
 246  4445.688
 247  4303.651
 248  4986.793
 249  4897.464
 250  4705.977
 251  4790.155
 252  4118.771
 253  5095.957
 254  4330.353
 255  4926.558
