# Input file       =  1203586598.108145_cleaned.dat
# Candidate        =  PSR_0332+5434
# Telescope        =  AR
# Epoch_topo       =  58174.400660973901
# Epoch_bary       =  N/A
# T_sample         =  0.002
# Data Folded      =  7405568
# Data Avg         =  0.0138241026749678
# Data StdDev      =  1.0001357700125  
# Profile Bins     =  512
# Profile Avg      =  199.947830360544 
# Profile StdDev   =  120.282699593681 
# Reduced chi-sqr  =  1.208
# Prob(Noise)      <  0.000831   (~3.1 sigma)
# P_topo (ms)      =  714.580703100735  +/- 0.000139
# P'_topo (s/s)    =  -0                +/- 7.29e-11
# P''_topo (s/s^2) =  0                 +/- 3.19e-14
# P_bary (ms)      =  N/A
# P'_bary (s/s)    =  N/A
# P''_bary (s/s^2) =  N/A
# P_orb (s)        =  N/A
# asin(i)/c (s)    =  N/A
# eccentricity     =  N/A
# w (rad)          =  N/A
# T_peri           =  N/A
######################################################
   0  241.7348
   1  165.7154
   2  211.5529
   3  152.7701
   4  -32.88923
   5  119.9581
   6  204.1074
   7  163.9895
   8  244.5802
   9  188.3949
  10  257.003
  11  169.6089
  12  218.8509
  13  289.099
  14  327.2162
  15  203.1041
  16  178.9077
  17  269.3524
  18  237.8876
  19  210.5247
  20  93.57535
  21  136.7807
  22  153.9234
  23  156.8762
  24  152.1086
  25  221.5546
  26  273.4553
  27  243.1992
  28  296.3764
  29  257.2789
  30  206.876
  31  285.8908
  32  274.5668
  33  159.3009
  34  169.4706
  35  239.6948
  36  175.1967
  37  201.2865
  38  306.3484
  39  270.0689
  40  128.131
  41  84.08423
  42  191.2608
  43  192.0306
  44  238.828
  45  314.4672
  46  190.555
  47  170.7939
  48  179.2504
  49  153.0765
  50  207.6094
  51  279.5055
  52  163.4775
  53  116.0647
  54  113.2077
  55  191.2502
  56  153.1701
  57  129.8011
  58  2.299966
  59  160.7342
  60  197.9858
  61  242.8287
  62  200.2354
  63  291.702
  64  236.1463
  65  94.13151
  66  94.79768
  67  93.98768
  68  75.27002
  69  112.7368
  70  278.672
  71  240.162
  72  171.5352
  73  182.174
  74  201.7391
  75  195.852
  76  319.5963
  77  194.218
  78  134.9332
  79  134.7876
  80  176.4576
  81  85.25282
  82  60.62941
  83  189.7476
  84  144.3078
  85  155.687
  86  124.5862
  87  96.71404
  88  174.1242
  89  154.8788
  90  -60.59336
  91  50.95641
  92  71.52102
  93  45.16312
  94  74.08743
  95  144.3623
  96  136.7369
  97  91.18874
  98  89.79401
  99  98.50554
 100  50.25743
 101  97.57402
 102  64.06462
 103  51.67213
 104  15.96001
 105  28.57987
 106  -65.52868
 107  72.63779
 108  174.8712
 109  52.16124
 110  -45.37941
 111  29.64488
 112  116.7093
 113  110.6459
 114  52.12199
 115  -40.04214
 116  27.93511
 117  77.78519
 118  122.0462
 119  61.35428
 120  37.48173
 121  136.8782
 122  45.35737
 123  -56.3445
 124  18.1559
 125  52.88734
 126  21.46028
 127  8.289987
 128  103.1076
 129  215.0156
 130  174.5381
 131  120.2027
 132  66.84256
 133  117.2477
 134  130.4393
 135  76.66059
 136  36.79831
 137  21.7991
 138  93.54797
 139  218.0842
 140  297.7277
 141  227.6106
 142  106.1005
 143  125.2445
 144  182.7033
 145  238.9894
 146  265.326
 147  200.7049
 148  71.90697
 149  -10.90905
 150  69.70986
 151  48.11234
 152  183.9688
 153  145.8934
 154  77.7829
 155  34.36809
 156  78.00346
 157  137.9686
 158  151.2573
 159  30.60633
 160  130.4977
 161  190.6239
 162  185.8864
 163  300.6769
 164  159.9733
 165  167.353
 166  103.0385
 167  195.0848
 168  104.7423
 169  -0.5465852
 170  254.9076
 171  269.8889
 172  212.404
 173  232.2815
 174  244.7434
 175  250.8978
 176  166.0326
 177  144.3116
 178  329.9785
 179  265.4539
 180  199.4167
 181  280.2406
 182  204.1367
 183  190.7317
 184  64.3363
 185  140.5374
 186  404.1473
 187  324.6068
 188  228.516
 189  220.6208
 190  306.0702
 191  230.5704
 192  261.4871
 193  308.6964
 194  309.5996
 195  224.7483
 196  124.6994
 197  121.7818
 198  153.764
 199  195.8213
 200  250.1215
 201  223.1473
 202  217.2822
 203  172.3737
 204  160.4443
 205  173.4083
 206  91.85008
 207  307.342
 208  391.1688
 209  349.0746
 210  310.3951
 211  230.0882
 212  217.3074
 213  214.1784
 214  150.7531
 215  165.1667
 216  141.3409
 217  103.4645
 218  188.3656
 219  207.6202
 220  154.0945
 221  168.2475
 222  166.2122
 223  111.1564
 224  215.4994
 225  287.3685
 226  262.5366
 227  262.8853
 228  240.8544
 229  257.0548
 230  111.4164
 231  63.21784
 232  178.3738
 233  322.9588
 234  325.8322
 235  206.3177
 236  187.6255
 237  174.3921
 238  189.5449
 239  212.0518
 240  263.6467
 241  213.644
 242  237.5542
 243  232.963
 244  166.7991
 245  260.3728
 246  292.7052
 247  232.8602
 248  252.2574
 249  264.1107
 250  156.8178
 251  103.9815
 252  166.8123
 253  210.3911
 254  197.2236
 255  231.3249
 256  251.9134
 257  259.3833
 258  225.8027
 259  167.1121
 260  222.5908
 261  317.9784
 262  317.241
 263  269.8552
 264  206.8487
 265  227.388
 266  340.6638
 267  268.0993
 268  184.9861
 269  290.2989
 270  357.6523
 271  234.8481
 272  138.2207
 273  215.2841
 274  198.85
 275  194.6412
 276  371.7871
 277  481.6114
 278  347.007
 279  362.8055
 280  317.6884
 281  221.5495
 282  186.7537
 283  243.3233
 284  308.353
 285  302.3937
 286  328.3243
 287  245.0635
 288  260.4313
 289  167.8571
 290  251.451
 291  280.2178
 292  301.8529
 293  366.9165
 294  308.9668
 295  353.944
 296  347.3925
 297  239.0356
 298  271.8464
 299  297.7027
 300  312.2442
 301  224.9488
 302  251.6222
 303  253.7162
 304  196.0052
 305  225.985
 306  227.0545
 307  229.1186
 308  358.807
 309  309.2894
 310  214.2774
 311  165.862
 312  314.1634
 313  302.291
 314  342.3265
 315  229.3086
 316  159.3497
 317  105.4444
 318  119.154
 319  161.0046
 320  184.8668
 321  159.9479
 322  249.6365
 323  360.4261
 324  363.0625
 325  328.7766
 326  227.1262
 327  317.2924
 328  362.485
 329  236.8504
 330  313.5191
 331  345.2262
 332  220.3105
 333  185.6918
 334  194.5522
 335  251.7636
 336  275.5837
 337  201.6155
 338  179.6852
 339  249.497
 340  223.3481
 341  210.9131
 342  159.6382
 343  204.8479
 344  286.9239
 345  224.3306
 346  168.3095
 347  190.8328
 348  129.0361
 349  145.7974
 350  234.1629
 351  232.3492
 352  85.68798
 353  107.0065
 354  167.2135
 355  132.3364
 356  176.586
 357  262.2712
 358  329.8284
 359  384.6851
 360  278.3429
 361  229.0974
 362  174.4075
 363  124.8929
 364  171.8275
 365  204.281
 366  141.5723
 367  163.8587
 368  193.2629
 369  293.9716
 370  223.1261
 371  232.9194
 372  228.8296
 373  197.0569
 374  155.2654
 375  219.6575
 376  142.6934
 377  234.4656
 378  166.0126
 379  203.676
 380  221.297
 381  66.72664
 382  140.8859
 383  202.6427
 384  270.2027
 385  208.9706
 386  180.1188
 387  154.4574
 388  173.7779
 389  149.5811
 390  178.4675
 391  135.2147
 392  174.8985
 393  240.4008
 394  260.7982
 395  237.0128
 396  245.3992
 397  304.848
 398  155.5338
 399  195.3855
 400  222.7369
 401  171.8593
 402  187.8753
 403  166.963
 404  115.484
 405  224.6811
 406  248.5877
 407  243.4815
 408  105.2119
 409  47.9206
 410  98.34871
 411  150.6855
 412  155.8378
 413  117.4909
 414  90.49917
 415  132.4324
 416  104.6842
 417  60.10477
 418  252.6271
 419  242.7869
 420  149.2046
 421  98.61472
 422  214.6826
 423  223.6021
 424  71.31939
 425  103.9316
 426  238.2209
 427  239.4661
 428  215.1555
 429  144.2756
 430  214.4549
 431  57.97051
 432  57.10295
 433  87.29588
 434  217.9613
 435  263.5863
 436  282.1602
 437  323.9688
 438  378.2436
 439  394.6426
 440  315.3082
 441  365.5288
 442  479.9344
 443  663.5994
 444  673.5002
 445  667.9757
 446  523.7655
 447  412.8143
 448  266.7264
 449  131.3022
 450  303.5684
 451  294.1953
 452  151.8436
 453  235.9317
 454  189.0681
 455  114.2349
 456  139.3103
 457  327.8524
 458  330.5981
 459  195.3952
 460  228.8823
 461  277.7857
 462  340.233
 463  252.5294
 464  206.0643
 465  203.7131
 466  168.5082
 467  169.4251
 468  188.4066
 469  139.4604
 470  228.3124
 471  212.4602
 472  293.9193
 473  239.0826
 474  161.3939
 475  235.5272
 476  213.0123
 477  128.0083
 478  90.63293
 479  190.929
 480  274.6795
 481  198.3008
 482  223.8653
 483  222.2285
 484  255.1168
 485  339.3559
 486  257.2429
 487  169.3421
 488  224.9251
 489  286.9153
 490  289.3537
 491  201.5795
 492  293.5726
 493  316.054
 494  211.7709
 495  217.5314
 496  244.0309
 497  128.9421
 498  136.1334
 499  139.8168
 500  74.15335
 501  207.9773
 502  111.7931
 503  218.2456
 504  259.6616
 505  191.2784
 506  168.4827
 507  341.001
 508  339.8256
 509  350.3796
 510  283.0083
 511  176.2162
