# Input file       =  1203785124.167161-PSRB0329-2ms-sampling-dd.dat
# Candidate        =  PSR_0332+5434
# Telescope        =  AR
# Epoch_topo       =  58176.698416286585
# Epoch_bary       =  N/A
# T_sample         =  0.002
# Data Folded      =  7340032
# Data Avg         =  -1.15497341502584e-08
# Data StdDev      =  252.140484560676 
# Profile Bins     =  512
# Profile Avg      =  -0.0596676554832493
# Profile StdDev   =  30189.5458099589 
# Reduced chi-sqr  =  1.261
# Prob(Noise)      <  5.18e-05   (~3.9 sigma)
# P_topo (ms)      =  714.580853527844  +/- 0.000282
# P'_topo (s/s)    =  -0                +/- 1.49e-10
# P''_topo (s/s^2) =  0                 +/- 6.56e-14
# P_bary (ms)      =  N/A
# P'_bary (s/s)    =  N/A
# P''_bary (s/s^2) =  N/A
# P_orb (s)        =  N/A
# asin(i)/c (s)    =  N/A
# eccentricity     =  N/A
# w (rad)          =  N/A
# T_peri           =  N/A
######################################################
   0  -20997.91
   1  -20884.78
   2  -21025.38
   3  -20086.25
   4  -20055.5
   5  -20244.2
   6  -20456.95
   7  -20265
   8  -20426.89
   9  -20859.67
  10  -20740.26
  11  -20854.57
  12  -20546.36
  13  -20465.81
  14  -20894.61
  15  -21324.73
  16  -21699.08
  17  -21189.79
  18  -20478.84
  19  -20554.59
  20  -20952.13
  21  -21099.08
  22  -20817.61
  23  -20561.96
  24  -20535.24
  25  -20700.29
  26  -20608.43
  27  -21041.93
  28  -21006.47
  29  -19371.67
  30  -17886.79
  31  -17411.99
  32  -17436.41
  33  -18617.83
  34  -20023.27
  35  -21312.32
  36  -19268.02
  37  -17682.31
  38  -16426.65
  39  -16937.51
  40  -19372.13
  41  -20831.55
  42  -21755.11
  43  -20945.47
  44  -20271.53
  45  -20182.55
  46  -19812.57
  47  -20871.61
  48  -20917.54
  49  -20447.32
  50  -20046.47
  51  -19817.11
  52  -19006.39
  53  -19850.73
  54  -21231.37
  55  -19666.09
  56  -20442.45
  57  -20067.86
  58  -19299.01
  59  -20875.53
  60  -20274.74
  61  -20137.78
  62  -22026.13
  63  -19741.26
  64  -19993.06
  65  -23608.72
  66  -7710.059
  67  2221.601
  68  24951.71
  69  50020.51
  70  58308.62
  71  61678.45
  72  37454.71
  73  38701.9
  74  60458.43
  75  62885.49
  76  92339.33
  77  89232.95
  78  43345.59
  79  34237.64
  80  20308.43
  81  25175.99
  82  15092.68
  83  6541.041
  84  -3651.548
  85  -13812.25
  86  -17489.34
  87  -5659.735
  88  40903.95
  89  53545.8
  90  58775.75
  91  59896.63
  92  9979.856
  93  -2978.398
  94  -10334.77
  95  60147.47
  96  60222.47
  97  75072.61
  98  65144.96
  99  28685.71
 100  15378.61
 101  -6905.13
 102  -16297.92
 103  -7245.822
 104  10295.88
 105  13261.26
 106  11557.96
 107  3131.888
 108  -6377.063
 109  -15213.74
 110  -16354.76
 111  -17058.92
 112  -14056.36
 113  -12840.11
 114  -15563.37
 115  -16082.91
 116  -17755.63
 117  -19515.61
 118  -16767.64
 119  -16265.72
 120  -13266
 121  -7583.752
 122  184.9027
 123  -931.1155
 124  16403.97
 125  18108.51
 126  13399.74
 127  19228.83
 128  12031.26
 129  12411.67
 130  11680.18
 131  31414.16
 132  29544.65
 133  18083.95
 134  839.5281
 135  -4674.706
 136  -11130.43
 137  -33.87561
 138  8625.495
 139  11477.32
 140  12919.49
 141  6534.486
 142  -4625.364
 143  7674.663
 144  17661.58
 145  37409.81
 146  37977.35
 147  27679.86
 148  15210.12
 149  30876.26
 150  60068.34
 151  86785.65
 152  95994.63
 153  69449.67
 154  40583.8
 155  2724.281
 156  41264.71
 157  59188.62
 158  95471.57
 159  97744.09
 160  75341.91
 161  52160.93
 162  3991.113
 163  -560.4286
 164  -1184.85
 165  21588.42
 166  38618.96
 167  45611.21
 168  40290.29
 169  29003.39
 170  19710.96
 171  9336.413
 172  7105.493
 173  21333.74
 174  33878.86
 175  34364.83
 176  24208.04
 177  14302.1
 178  2654.469
 179  6362.25
 180  7620.045
 181  11788.16
 182  6280.456
 183  -484.5128
 184  -4741.058
 185  -11545.68
 186  -8153.954
 187  -6646.236
 188  1453.318
 189  1670.827
 190  -3130.786
 191  -6918.674
 192  -13715.39
 193  -15161.01
 194  -15563.25
 195  -12657.6
 196  -12505.25
 197  -11224.57
 198  -9780.294
 199  -14070.29
 200  -13913.34
 201  -9740.152
 202  -10420.59
 203  -9049.476
 204  -7622.919
 205  -8469.008
 206  -11365.88
 207  -13878.5
 208  -12422.19
 209  -11995.83
 210  -10858.27
 211  -6234.134
 212  -8267.103
 213  -8524.696
 214  -7555.267
 215  -8736.002
 216  -5114.232
 217  17787.72
 218  25597.77
 219  21864.69
 220  22775.45
 221  9519.218
 222  -7200.865
 223  -2323.087
 224  13918.03
 225  28151.79
 226  19408.59
 227  17962.78
 228  15731
 229  9588.498
 230  8048.309
 231  6673.415
 232  10252.05
 233  17770.1
 234  30532.61
 235  70232.05
 236  71863.37
 237  59853.41
 238  47095.7
 239  16975.28
 240  17269.49
 241  42998.14
 242  60576.2
 243  59441.83
 244  55573.75
 245  22312.45
 246  11145.29
 247  8311.647
 248  10714.55
 249  24426.89
 250  44999.69
 251  46561.7
 252  36894.12
 253  28122.91
 254  -7226.251
 255  -1942.884
 256  7097.227
 257  23205.62
 258  15717.23
 259  10077.69
 260  1460.393
 261  -13588.94
 262  -15765.12
 263  -16085.62
 264  -19047.08
 265  -19473.11
 266  -16674.52
 267  -3766.155
 268  12204.74
 269  16394.19
 270  15258.22
 271  5176.385
 272  -7780.433
 273  -19579.26
 274  9880.34
 275  16250.81
 276  19320.33
 277  11543.92
 278  -1090.839
 279  -8952.878
 280  -17929.3
 281  -16037.09
 282  -17192.55
 283  -18653.23
 284  -18420.56
 285  -19389
 286  -19518.7
 287  -19922.61
 288  -20661.23
 289  -21205.68
 290  -20909.69
 291  -20655.33
 292  -21122.14
 293  -20329.79
 294  -19770.02
 295  -20846.29
 296  -16761.12
 297  -9037.861
 298  14652.77
 299  24507.59
 300  29026.88
 301  27340.93
 302  2456.079
 303  -2132.15
 304  -2461.648
 305  26453.24
 306  34965.72
 307  37773.44
 308  20558.52
 309  7049.438
 310  -4174.633
 311  -15571.15
 312  -20238.97
 313  -11794.58
 314  -10499.28
 315  -9791.726
 316  -11737.74
 317  -15346.46
 318  -18019.17
 319  -20015.13
 320  -20215.43
 321  -20785.1
 322  -20928.61
 323  -21012.19
 324  -20694.03
 325  -20517.81
 326  -20513.26
 327  -20290.54
 328  -20101.43
 329  -20039.38
 330  -19992.05
 331  -20190.07
 332  -19919.63
 333  -19580.29
 334  -18826.41
 335  -18864.79
 336  -18668.41
 337  -18384.81
 338  -18634.26
 339  -18350.99
 340  -18592.15
 341  -17314.1
 342  -17280.98
 343  -17899.66
 344  -18644.28
 345  -19376.91
 346  -18056.47
 347  -19214.78
 348  -18750.49
 349  -18783.62
 350  -19910.71
 351  -20163.38
 352  -20455.9
 353  -20899.63
 354  -20175.67
 355  -19658.27
 356  -17405.47
 357  2266.563
 358  7301.858
 359  12458.62
 360  15379.92
 361  1733.011
 362  -6471.198
 363  -13916.77
 364  10583.68
 365  13363.53
 366  16403.07
 367  9406.895
 368  -1773.704
 369  -11291.09
 370  -16423.64
 371  -16156.47
 372  -16909.43
 373  -17311.41
 374  -17226.76
 375  -17101.95
 376  -18309.5
 377  -19094.36
 378  -19734.28
 379  -20365.24
 380  -20298.78
 381  -20570.72
 382  -20815.04
 383  -20135.73
 384  -20125.21
 385  -20999.36
 386  -20455.78
 387  -21275.17
 388  -19924.38
 389  -14404.94
 390  -6716.064
 391  -1936.942
 392  4099.247
 393  2590.852
 394  -4973.662
 395  -10242.14
 396  -4044.146
 397  -3250.493
 398  -1743.282
 399  4631.364
 400  -449.9133
 401  -4221.213
 402  -10211.45
 403  -15900.75
 404  -17200.06
 405  -17678.12
 406  -9466.134
 407  -6762.451
 408  -8016.802
 409  -5763.583
 410  -10403.37
 411  -18183.86
 412  -13507.65
 413  -8693.922
 414  -7572.623
 415  -3353.421
 416  1440.011
 417  7604.286
 418  6353.329
 419  4549.565
 420  1421.75
 421  -14594.95
 422  -7761.337
 423  -698.8384
 424  6839.924
 425  6700.596
 426  5450.169
 427  -2900.104
 428  -15307.56
 429  17672.78
 430  30567.49
 431  41889.82
 432  42179.35
 433  28669.81
 434  13582.34
 435  -20153.85
 436  17545.23
 437  35575.77
 438  40718.25
 439  36453.24
 440  21818.96
 441  774.8099
 442  -19989.14
 443  -18642
 444  -17182.44
 445  -18465.81
 446  -17013.2
 447  -17584.05
 448  -13189.33
 449  -5175.505
 450  10877.44
 451  10330.08
 452  38940.77
 453  36186.02
 454  25708.23
 455  27907.62
 456  17621.93
 457  15485.08
 458  15203.83
 459  38460.57
 460  27457.21
 461  17638.52
 462  7864.09
 463  -5263.549
 464  -17383.9
 465  -18559.55
 466  -20016.64
 467  -18835.38
 468  -13006.53
 469  -11292.63
 470  -10082.73
 471  -8517.729
 472  -15018.62
 473  -17102.62
 474  -18082.53
 475  -6308.749
 476  -8582.235
 477  -11104.18
 478  -12232.11
 479  -15772.93
 480  -16997.69
 481  -18015.81
 482  -18179.58
 483  -18286.32
 484  -19162.71
 485  -20095.91
 486  -19983.8
 487  -20440.58
 488  -20610.4
 489  -20586.23
 490  -20737.03
 491  -21064.6
 492  -20849.56
 493  -20996.82
 494  -20926.03
 495  -21053.23
 496  -21207.6
 497  -21251.9
 498  -21369.29
 499  -21687.51
 500  -21285.07
 501  -20810.08
 502  -21414.72
 503  -21455.8
 504  -22045.82
 505  -21429.98
 506  -21026.94
 507  -21232.18
 508  -20785.25
 509  -20923.39
 510  -21494.52
 511  -21367.06
