# Input file       =  1203845432.128768_cleaned.dat
# Candidate        =  PSR_0332+5434
# Telescope        =  AR
# Epoch_topo       =  58177.396425101484
# Epoch_bary       =  N/A
# T_sample         =  0.002
# Data Folded      =  7274496
# Data Avg         =  -0.0374831792265014
# Data StdDev      =  5.84412577566808 
# Profile Bins     =  512
# Profile Avg      =  -532.788433366287
# Profile StdDev   =  696.604103354705 
# Reduced chi-sqr  =  3.655
# Prob(Noise)      <  1.43e-153   (~26.4 sigma)
# P_topo (ms)      =  714.580537711751  +/- 1.3e-05
# P'_topo (s/s)    =  -0                +/- 6.94e-12
# P''_topo (s/s^2) =  0                 +/- 3.09e-15
# P_bary (ms)      =  N/A
# P'_bary (s/s)    =  N/A
# P''_bary (s/s^2) =  N/A
# P_orb (s)        =  N/A
# asin(i)/c (s)    =  N/A
# eccentricity     =  N/A
# w (rad)          =  N/A
# T_peri           =  N/A
######################################################
   0  -456.9006
   1  -517.28
   2  -580.7469
   3  -839.2462
   4  -511.0098
   5  387.8754
   6  540.2979
   7  -80.80768
   8  -1513.576
   9  -1724.021
  10  -1145.32
  11  -1001.446
  12  -492.8801
  13  730.967
  14  1738.677
  15  1041.094
  16  -233.8006
  17  -1311.25
  18  -1496.415
  19  -1182.325
  20  -882.2569
  21  -930.5835
  22  -389.3053
  23  -144.551
  24  -1109.614
  25  -1874.326
  26  -2016.262
  27  -1781.364
  28  -1465.723
  29  -271.1756
  30  1002.941
  31  903.0126
  32  689.42
  33  -693.1867
  34  -988.2518
  35  -1458.582
  36  -1637.012
  37  -1463.457
  38  -945.8211
  39  -22.60697
  40  -666.2635
  41  -1332.368
  42  -2159.017
  43  -1547.686
  44  -1367.364
  45  -1096.274
  46  375.4239
  47  732.2547
  48  248.5525
  49  -866.5695
  50  -1346.786
  51  -1102.658
  52  -1117.26
  53  -1032.447
  54  -300.3355
  55  322.7233
  56  19.20477
  57  -1085.298
  58  -1779.16
  59  -1813.967
  60  -1949.214
  61  -1421.852
  62  -639.6163
  63  593.9639
  64  1241.607
  65  177.2277
  66  -621.5763
  67  -948.3483
  68  -1519.435
  69  -1651.311
  70  -1397.953
  71  -360.6413
  72  -238.872
  73  -157.3368
  74  -1183.735
  75  -2039.166
  76  -1866.551
  77  -1777.096
  78  -674.228
  79  402.2726
  80  1452.908
  81  1230.261
  82  -214.147
  83  -1406.698
  84  -1100.334
  85  -1028.934
  86  -1054.638
  87  -767.7197
  88  191.6976
  89  282.5712
  90  -1006.956
  91  -1815.649
  92  -1361.345
  93  -1470.858
  94  -1202.37
  95  -313.7039
  96  1043.218
  97  1265.367
  98  238.9463
  99  -854.0641
 100  -1135.681
 101  -910.3174
 102  -1437.855
 103  -1220.104
 104  -825.6128
 105  -343.0233
 106  -572.6856
 107  -1728.949
 108  -2147.291
 109  -1905.739
 110  -1341.986
 111  -795.4995
 112  278.0558
 113  1193.238
 114  606.3893
 115  -463.2798
 116  -1352.369
 117  -1636.307
 118  -1396.88
 119  -1695.631
 120  -1038.947
 121  2.415825
 122  -204.7739
 123  -1516.575
 124  -2366.714
 125  -1859.698
 126  -1440.096
 127  -1223.354
 128  -576.408
 129  605.3931
 130  1439.73
 131  331.1095
 132  -903.9078
 133  -1139.137
 134  -1567.686
 135  -1469.118
 136  -1207.766
 137  106.139
 138  5.398099
 139  -828.2712
 140  -1508.102
 141  -2072.991
 142  -1225.246
 143  -997.6766
 144  -590.4725
 145  582.6353
 146  1206.772
 147  1138.134
 148  -290.4626
 149  -1039.041
 150  -981.2314
 151  -913.9203
 152  -992.5925
 153  -442.5326
 154  478.5847
 155  291.7695
 156  -416.0813
 157  -1456.808
 158  -1557.53
 159  -1355.441
 160  -1289.988
 161  -116.9327
 162  1013.378
 163  1333.303
 164  481.4894
 165  -428.1025
 166  -1150.86
 167  -1105.398
 168  -962.114
 169  -1097.546
 170  -352.4581
 171  45.19941
 172  -448.3613
 173  -1831.044
 174  -2246.42
 175  -1936.928
 176  -1545.001
 177  -1093.96
 178  292.1057
 179  1253.217
 180  611.8312
 181  -408.9896
 182  -908.4594
 183  -440.3889
 184  -1019.578
 185  -1676.32
 186  -1199.08
 187  -2.088797
 188  51.37653
 189  -957.3969
 190  -1797.596
 191  -1862.301
 192  -1879.451
 193  -1729.605
 194  -991.5757
 195  1111.917
 196  1504.191
 197  387.5935
 198  -612.7622
 199  -1433.104
 200  -1242.737
 201  -1067.2
 202  -1122.473
 203  -453.2018
 204  225.5582
 205  -259.0672
 206  -1422.261
 207  -1454.493
 208  -1152.916
 209  -1136.253
 210  -653.3051
 211  494.8593
 212  1721.882
 213  1397.141
 214  148.4987
 215  -395.6204
 216  -996.9072
 217  -1065.128
 218  -1178.969
 219  -449.3426
 220  440.0905
 221  -4.846658
 222  -731.1235
 223  -1720.849
 224  -1704.104
 225  -1215.017
 226  -713.0811
 227  6.420636
 228  1211.128
 229  1759.12
 230  762.619
 231  -248.6936
 232  -537.5112
 233  -512.4156
 234  -668.2189
 235  -723.0338
 236  343.6237
 237  787.5987
 238  177.4226
 239  -720.0359
 240  -1631.118
 241  -1276.92
 242  -1170.77
 243  -736.9587
 244  425.9072
 245  1310.337
 246  1067.532
 247  -177.7474
 248  -735.9641
 249  -1161.743
 250  -1402.423
 251  -1319.288
 252  -776.5875
 253  73.71587
 254  555.4507
 255  -394.9926
 256  -1782.794
 257  -2061.538
 258  -1776.495
 259  -1180.018
 260  -295.1967
 261  916.3684
 262  1339.667
 263  706.9462
 264  -135.8339
 265  -822.2263
 266  -863.566
 267  -837.4986
 268  -978.626
 269  -348.1163
 270  120.4095
 271  -68.74934
 272  -1025.377
 273  -1661.234
 274  -1691.927
 275  -1620.928
 276  -1230.989
 277  -0.2831581
 278  1509.35
 279  1337.774
 280  213.2097
 281  -1023.129
 282  -1164.799
 283  -1315.425
 284  -1216.899
 285  -979.9364
 286  541.046
 287  918.7738
 288  -60.42444
 289  -1348.339
 290  -1692.777
 291  -1213.098
 292  -1050.608
 293  -258.1825
 294  1264.287
 295  1635.32
 296  1065.244
 297  135.3237
 298  -531.7625
 299  -904.1364
 300  -1240.186
 301  -1001.633
 302  -88.75742
 303  718.1803
 304  276.3438
 305  -799.0705
 306  -1213.034
 307  -1777.225
 308  -1494.368
 309  -1028.976
 310  28.00091
 311  1326.856
 312  1576.216
 313  332.5696
 314  -572.9004
 315  -1074.655
 316  -1150.338
 317  -1662.671
 318  -925.0877
 319  352.5084
 320  183.7459
 321  -913.7926
 322  -1735.368
 323  -1739.752
 324  -1089.982
 325  -1280.956
 326  -111.4621
 327  799.7332
 328  1475.239
 329  562.88
 330  -903.3026
 331  -1003.533
 332  -1064.943
 333  -1387.93
 334  -1003.276
 335  -55.66992
 336  498.924
 337  -107.614
 338  -1184.44
 339  -1938.603
 340  -2031.441
 341  -1489.541
 342  -1480.518
 343  228.3946
 344  1293.242
 345  1097.295
 346  283.1089
 347  -953.3939
 348  -988.7675
 349  -1042.078
 350  -1255.218
 351  -1110.354
 352  -187.6311
 353  355.3841
 354  -254.1956
 355  -1476.5
 356  -2017.78
 357  -1425.468
 358  -1148.671
 359  -636.5773
 360  757.4268
 361  1781.457
 362  861.7103
 363  -394.3682
 364  -763.7069
 365  -990.3154
 366  -931.7841
 367  -488.0076
 368  90.00713
 369  585.0122
 370  21.62541
 371  -1004.827
 372  -1461.388
 373  -1408.315
 374  -1377.987
 375  -686.5651
 376  900.6356
 377  1835.761
 378  1764.384
 379  772.0919
 380  -553.2163
 381  -1086.162
 382  -895.5359
 383  -1105.973
 384  -1064.888
 385  200.1608
 386  341.4687
 387  -702.7084
 388  -1738.192
 389  -1989.486
 390  -1597.481
 391  -1652.133
 392  -310.3905
 393  811.783
 394  1281.526
 395  747.6558
 396  -882.6028
 397  -1405.702
 398  -1322.425
 399  -1503.175
 400  -1146.517
 401  -649.0262
 402  311.7964
 403  70.40153
 404  -996.193
 405  -1940.444
 406  -1846.193
 407  -1610.371
 408  -668.9688
 409  165.768
 410  1549.035
 411  1243.814
 412  330.1009
 413  -628.6232
 414  -1248.66
 415  -1119.344
 416  -1563.666
 417  -1101.409
 418  -91.98267
 419  298.7817
 420  -358.8558
 421  -1038.49
 422  -1235.524
 423  -1278.089
 424  -1248.364
 425  -613.9752
 426  1154.594
 427  2045.071
 428  942.435
 429  -323.3824
 430  -929.0983
 431  -1082.477
 432  -1480.813
 433  -1465.818
 434  -986.9924
 435  235.2455
 436  182.0213
 437  -1092.875
 438  -1521.613
 439  -1377.226
 440  -1235.975
 441  -1226.055
 442  93.02736
 443  1569.99
 444  1620.989
 445  559.6249
 446  -189.5148
 447  -1194.412
 448  -940.3287
 449  -853.962
 450  -714.6025
 451  -145.4002
 452  694.6755
 453  183.8852
 454  -1028.891
 455  -1848.98
 456  -1865.743
 457  -1907.122
 458  -779.9576
 459  1054.769
 460  1665.534
 461  864.4924
 462  -587.2291
 463  -1077.267
 464  -1019.348
 465  -893.9214
 466  -937.6723
 467  -752.5598
 468  162.3676
 469  141.0777
 470  -845.457
 471  -1624.842
 472  -1399.971
 473  -1280.953
 474  -878.9587
 475  168.6631
 476  1297.747
 477  1097.588
 478  84.58965
 479  -580.1344
 480  -613.9424
 481  -611.3142
 482  -1033.872
 483  -881.2312
 484  512.7276
 485  701.6575
 486  223.5977
 487  -371.9866
 488  -529.1321
 489  -501.6707
 490  -370.7986
 491  471.99
 492  1168.455
 493  1497.599
 494  596.1625
 495  -587.3428
 496  -1263.146
 497  -1263.736
 498  -1488.987
 499  -1801.461
 500  -671.2061
 501  192.8634
 502  -121.5226
 503  -1072.643
 504  -1731.568
 505  -1563.123
 506  -1357.165
 507  -1001.501
 508  -77.87712
 509  1452.663
 510  1831.392
 511  460.5371
