# Input file       =  1203155681.096231_cleaned.dat
# Candidate        =  PSR_0332+5434
# Telescope        =  AR
# Epoch_topo       =  58169.413195558227
# Epoch_bary       =  N/A
# T_sample         =  0.002
# Data Folded      =  7405568
# Data Avg         =  0.279991674846846
# Data StdDev      =  5.31089745435896 
# Profile Bins     =  512
# Profile Avg      =  4049.71508912299 
# Profile StdDev   =  638.722363732196 
# Reduced chi-sqr  =  0.697
# Prob(Noise)      <  1   (~0.0 sigma)
# P_topo (ms)      =  714.580620118388  +/- 8.16e-05
# P'_topo (s/s)    =  -0                +/- 4.27e-11
# P''_topo (s/s^2) =  0                 +/- 1.87e-14
# P_bary (ms)      =  N/A
# P'_bary (s/s)    =  N/A
# P''_bary (s/s^2) =  N/A
# P_orb (s)        =  N/A
# asin(i)/c (s)    =  N/A
# eccentricity     =  N/A
# w (rad)          =  N/A
# T_peri           =  N/A
######################################################
   0  4364.965
   1  4377.2
   2  4158.219
   3  4021.554
   4  3969.238
   5  3848.486
   6  3786.233
   7  3681.185
   8  3199.063
   9  3523.387
  10  3466.486
  11  3653.293
  12  3911.795
  13  4036.969
  14  4334.393
  15  4537.849
  16  4294.262
  17  3929.054
  18  4064.301
  19  4221.867
  20  4120.413
  21  3804.092
  22  3727.722
  23  3606.528
  24  3484.82
  25  3606.007
  26  3525.706
  27  3718.929
  28  4026.543
  29  4042.75
  30  3946.883
  31  4202.999
  32  4252.225
  33  4317.323
  34  4435.289
  35  4496.971
  36  4142.043
  37  3852.625
  38  3866.972
  39  3664.534
  40  3963.623
  41  4152.78
  42  4412.239
  43  4152.771
  44  4401.262
  45  4345.229
  46  4379.753
  47  4851.845
  48  4921.107
  49  4960.339
  50  4645.457
  51  4632.892
  52  4303.54
  53  3906.337
  54  3886.89
  55  3805.958
  56  3539.499
  57  4266.961
  58  4416.762
  59  4210.839
  60  3908.364
  61  3880.106
  62  3816.583
  63  3792.259
  64  3985.587
  65  4085.52
  66  4099.005
  67  4220.35
  68  4356.634
  69  4229.656
  70  4031.459
  71  3840.945
  72  4016.011
  73  3625.584
  74  3520.578
  75  3630.936
  76  4005.154
  77  3892.488
  78  4256.74
  79  4362.899
  80  4648.248
  81  4583.777
  82  4324.44
  83  3881.83
  84  4046.863
  85  4133.41
  86  3795.746
  87  4130.883
  88  3958.68
  89  3571.55
  90  3764.84
  91  3406.445
  92  3417.877
  93  3426.5
  94  3587.773
  95  3632.459
  96  3791.977
  97  4132.839
  98  4098.919
  99  4216.361
 100  4136.283
 101  4201.816
 102  4094.607
 103  3613.863
 104  3386.161
 105  3622.034
 106  3503.601
 107  3471.165
 108  3756.866
 109  3910.951
 110  4049.828
 111  4376.101
 112  4306.205
 113  3800.171
 114  4000.706
 115  4207.116
 116  4215.339
 117  3915.744
 118  4141.05
 119  3879.379
 120  3598.963
 121  3355.651
 122  3576.433
 123  3522.372
 124  3269.843
 125  3328.025
 126  3702.479
 127  3914.758
 128  3589.094
 129  3892.96
 130  4154.57
 131  4202.26
 132  4117.834
 133  3844.965
 134  3613.543
 135  3394.264
 136  3449.515
 137  3843.127
 138  3693.506
 139  3660.214
 140  3595.49
 141  3614.625
 142  3465.066
 143  3536.55
 144  3656.756
 145  3819.056
 146  3798.53
 147  3992.071
 148  4141.378
 149  3821.319
 150  4436.562
 151  4225.439
 152  3890.633
 153  3864.144
 154  3591.408
 155  3213.538
 156  3173.421
 157  3401.102
 158  3602.35
 159  3966.067
 160  3730.755
 161  3801.439
 162  4032.623
 163  4144.934
 164  4174.326
 165  3916.662
 166  3970.732
 167  4034.281
 168  3737.511
 169  3565.119
 170  3349.934
 171  3030.861
 172  3358.299
 173  3498.086
 174  3635.846
 175  3925.516
 176  3788.059
 177  3598.077
 178  3472.627
 179  3982.567
 180  4433.47
 181  4342.99
 182  4506.698
 183  4495.503
 184  4245.613
 185  4181.934
 186  3858.36
 187  3775.216
 188  3816.038
 189  3750.598
 190  3866.797
 191  4001.588
 192  4038.213
 193  4118.961
 194  4334.929
 195  4502.096
 196  4635.285
 197  4775.335
 198  4850.33
 199  4491.054
 200  4179.823
 201  4242.634
 202  4063.54
 203  3993.443
 204  3797.993
 205  3847.282
 206  3768.516
 207  3666.987
 208  4108.575
 209  4190.95
 210  4644.353
 211  4444.111
 212  4440.613
 213  4462.339
 214  4694.832
 215  4413.246
 216  4491.153
 217  4632.102
 218  4262.951
 219  4129.421
 220  4041.22
 221  4075.802
 222  4145.744
 223  3914.841
 224  3893.378
 225  4190.032
 226  4740.994
 227  4697.772
 228  4529.441
 229  4553.241
 230  4689.336
 231  4790.222
 232  4522.617
 233  4488.974
 234  4180.485
 235  4190.801
 236  4175.137
 237  4089.258
 238  3921.58
 239  3828.459
 240  3607.06
 241  3617.688
 242  4121.186
 243  4013.94
 244  4279.3
 245  4192.981
 246  4151.396
 247  4458.791
 248  4231.577
 249  4218.936
 250  4318.194
 251  4163.297
 252  3774.636
 253  3471.495
 254  3684.728
 255  3811.815
 256  3672.542
 257  4043.624
 258  4007.875
 259  4386.875
 260  4187.237
 261  4314.048
 262  4427.646
 263  4436.334
 264  4467.295
 265  4085.698
 266  4587.594
 267  4102.838
 268  3418.62
 269  3547.772
 270  3664.923
 271  3780.1
 272  3725.234
 273  3874.728
 274  3535.003
 275  3409.746
 276  3657.021
 277  3991.732
 278  4186.605
 279  4921.952
 280  4717.236
 281  4426.787
 282  4156.317
 283  3678.81
 284  3934.121
 285  3944.326
 286  4194.167
 287  3841.905
 288  3395.668
 289  3409.035
 290  3524.714
 291  3569.866
 292  4024.292
 293  4374.841
 294  4312.645
 295  4556.702
 296  4754.656
 297  4605.843
 298  4716.934
 299  5112.456
 300  4597.702
 301  4181.797
 302  4181.806
 303  4352.57
 304  4986.732
 305  5099.291
 306  4965.37
 307  4903.958
 308  4811.912
 309  4548.567
 310  4312.699
 311  4609.951
 312  4597.846
 313  4326.85
 314  4333.045
 315  4293.725
 316  4259.272
 317  4166.358
 318  4337.929
 319  4324.8
 320  4313.604
 321  4306.358
 322  4392.042
 323  4122.715
 324  3936.364
 325  4005.349
 326  4054.833
 327  4223.316
 328  4590.245
 329  4640.364
 330  4659.256
 331  4861.498
 332  4655.837
 333  4556.097
 334  3966.795
 335  4304.019
 336  4221.739
 337  3808.869
 338  3915.18
 339  3979.962
 340  4328.779
 341  4394.179
 342  4430.769
 343  4169.807
 344  4361.629
 345  4462.114
 346  4389.862
 347  4519.077
 348  4461.843
 349  4295.354
 350  4370.038
 351  4173.328
 352  3908.397
 353  3490.935
 354  3703.802
 355  3658.366
 356  3291.645
 357  3302.039
 358  3213.156
 359  3541.898
 360  4224.485
 361  4461.556
 362  4690.535
 363  4310.954
 364  4293.338
 365  4383.853
 366  3856.568
 367  3677.754
 368  3889.934
 369  3735.844
 370  3725.019
 371  3700.925
 372  3097.139
 373  3143.001
 374  3417.202
 375  3765.624
 376  3987.793
 377  3807.871
 378  4233.911
 379  3859.855
 380  3643.876
 381  3566.133
 382  3521.866
 383  4030.335
 384  4159.837
 385  3443.29
 386  3158.154
 387  3566.717
 388  3379.967
 389  3387.027
 390  4096.042
 391  4131.921
 392  3798.959
 393  3694.65
 394  3900.576
 395  4229.649
 396  4275.463
 397  4084.906
 398  4039.963
 399  3842.939
 400  3715.881
 401  3629.113
 402  3649.559
 403  3649.244
 404  4201.962
 405  3985.885
 406  3760.177
 407  3907.464
 408  3687.72
 409  3822.986
 410  4175.447
 411  3964.735
 412  4246.497
 413  4267.019
 414  4128.252
 415  4045.014
 416  3480.877
 417  3806.938
 418  3931.4
 419  4022.474
 420  4002.817
 421  4177.666
 422  3601.69
 423  3684.333
 424  4332.646
 425  4100.705
 426  4009.809
 427  4698.898
 428  5046.93
 429  4700.683
 430  4647.283
 431  4332.282
 432  4001.249
 433  3780.192
 434  4064.849
 435  4213.366
 436  3939.254
 437  4010.163
 438  3825.323
 439  3646.562
 440  4111.853
 441  4373.958
 442  4553.829
 443  4410.031
 444  4284.314
 445  4209.705
 446  4206.026
 447  4409.523
 448  4623.698
 449  4404.048
 450  4013.579
 451  4166.583
 452  4098.86
 453  4204.681
 454  3906.464
 455  3784.873
 456  4394.156
 457  4395.262
 458  4204.112
 459  4209.854
 460  4384.453
 461  4697.854
 462  4602.308
 463  4361.102
 464  4263.854
 465  4270.162
 466  4196.285
 467  4178.638
 468  4012.261
 469  3793.286
 470  3642.43
 471  3767.239
 472  4135.077
 473  4200.267
 474  4537.991
 475  4512.415
 476  4200.534
 477  4359.898
 478  4486.848
 479  4166.052
 480  4465.393
 481  4792.546
 482  3978.062
 483  3848.992
 484  4109.293
 485  3532.154
 486  3836.436
 487  3643.888
 488  3670.641
 489  3556.364
 490  3774.211
 491  3810.758
 492  3362.349
 493  4367.901
 494  4860.703
 495  4833.661
 496  4312.014
 497  4226.355
 498  4189.17
 499  3738.181
 500  3430.793
 501  3888.023
 502  4086.348
 503  4280.737
 504  4077.126
 505  4114.804
 506  3920.844
 507  3807.312
 508  3789.467
 509  4007.818
 510  4456.401
 511  4357.368
