# Input file       =  1203328409.099087_cleaned.dat
# Candidate        =  PSR_0332+5434
# Telescope        =  AR
# Epoch_topo       =  58171.412362257950
# Epoch_bary       =  N/A
# T_sample         =  0.002
# Data Folded      =  7208960
# Data Avg         =  0.500752479406286
# Data StdDev      =  5.59201747997119 
# Profile Bins     =  1024
# Profile Avg      =  3525.42268459849 
# Profile StdDev   =  469.196592969275 
# Reduced chi-sqr  =  3.113
# Prob(Noise)      <  6.2e-220   (~31.6 sigma)
# P_topo (ms)      =  714.580703862634  +/- 1.59e-05
# P'_topo (s/s)    =  -0                +/- 8.57e-12
# P''_topo (s/s^2) =  0                 +/- 3.85e-15
# P_bary (ms)      =  N/A
# P'_bary (s/s)    =  N/A
# P''_bary (s/s^2) =  N/A
# P_orb (s)        =  N/A
# asin(i)/c (s)    =  N/A
# eccentricity     =  N/A
# w (rad)          =  N/A
# T_peri           =  N/A
######################################################
   0  3132.244
   1  2925.285
   2  2963.141
   3  2932.819
   4  3126.996
   5  3246.467
   6  3356.733
   7  3418.146
   8  3724.057
   9  3971.582
  10  4313.573
  11  4469.594
  12  4604.632
  13  4531.198
  14  4205.515
  15  3930.062
  16  3560.019
  17  3318.972
  18  3246.64
  19  3265.296
  20  3284.243
  21  3111.268
  22  3105.682
  23  3164.7
  24  3274.568
  25  3292.494
  26  3375.711
  27  3364.37
  28  3569.933
  29  3664.329
  30  3734.679
  31  3454.495
  32  3225.055
  33  2968.26
  34  2811.08
  35  2750.855
  36  2754.774
  37  2849.527
  38  2904.778
  39  3176.315
  40  3339.217
  41  3589.293
  42  3704.424
  43  4086.242
  44  4247.955
  45  4243.271
  46  4152.91
  47  4030.338
  48  3752.902
  49  3357.134
  50  3108.076
  51  3018.708
  52  2899.642
  53  2842.542
  54  2974.338
  55  3022.722
  56  3023.022
  57  3003.481
  58  3037.029
  59  3161.35
  60  3226.516
  61  3428.292
  62  3439.875
  63  3436.815
  64  3203.522
  65  3005.852
  66  2804.751
  67  2737.301
  68  2699.05
  69  2625.538
  70  2541.998
  71  2619.611
  72  2796.532
  73  3037.468
  74  3288.3
  75  3565.947
  76  3866.811
  77  4086.893
  78  4199.536
  79  4108.376
  80  3891.779
  81  3588.612
  82  3384.23
  83  3111.457
  84  2924.433
  85  2830.75
  86  2840.67
  87  2932.736
  88  2879.442
  89  2912.536
  90  2839.214
  91  2976.756
  92  3075.485
  93  3295.148
  94  3392.028
  95  3365.569
  96  3280.776
  97  3210.369
  98  3000.207
  99  2762.668
 100  2536.496
 101  2541.708
 102  2523.797
 103  2623.589
 104  2847.553
 105  3081.932
 106  3081.364
 107  3050.596
 108  3305.767
 109  3663.459
 110  3953.188
 111  4100.469
 112  4013.346
 113  3730.657
 114  3456.13
 115  3339.131
 116  3148.067
 117  2915.53
 118  2800.902
 119  2902.19
 120  2877.171
 121  2835.957
 122  2868.672
 123  2942.139
 124  3077.903
 125  3143.916
 126  3176.109
 127  3292.433
 128  3396.127
 129  3472.15
 130  3252.405
 131  2880.399
 132  2637.646
 133  2496.213
 134  2587.891
 135  2688.204
 136  2810.53
 137  2941.907
 138  3061.499
 139  3244.884
 140  3462.671
 141  3694.618
 142  4065.147
 143  4188.981
 144  4186.648
 145  4181.804
 146  4153.063
 147  3903.87
 148  3477.864
 149  3153.788
 150  3128.789
 151  3032.787
 152  2975.858
 153  2898.138
 154  2893.925
 155  3032.495
 156  3063.764
 157  3215.582
 158  3337.355
 159  3456.243
 160  3678.167
 161  3782.462
 162  3696.055
 163  3489.781
 164  3201.391
 165  3081.81
 166  2938.715
 167  2915.061
 168  2960.387
 169  3021.94
 170  3108.425
 171  3291.148
 172  3529.406
 173  3696.004
 174  3928.625
 175  4089.806
 176  4296.47
 177  4326.27
 178  4464.425
 179  4547.34
 180  4295.394
 181  3796.068
 182  3481.701
 183  3390.332
 184  3311.162
 185  3270.365
 186  3235.141
 187  3306.263
 188  3264.143
 189  3304.124
 190  3346.608
 191  3404.644
 192  3570.753
 193  3779.806
 194  3918.796
 195  3859.333
 196  3789.768
 197  3530.641
 198  3343.869
 199  3040.65
 200  2906.537
 201  3034.26
 202  3305.233
 203  3561.136
 204  3579.025
 205  3563.558
 206  3743.387
 207  4109.768
 208  4477.713
 209  4505.507
 210  4517.838
 211  4569.605
 212  4491.869
 213  4229.961
 214  3938.121
 215  3828.819
 216  3650.772
 217  3662.697
 218  3631.418
 219  3578.962
 220  3591.671
 221  3593.47
 222  3608.744
 223  3481.833
 224  3582.311
 225  3761.625
 226  3885.52
 227  3824.991
 228  3768.248
 229  3619.853
 230  3403.376
 231  3164.904
 232  2998.423
 233  2968.83
 234  3102.794
 235  3356.201
 236  3498.052
 237  3606.847
 238  3692.811
 239  3981.442
 240  4076.188
 241  4325.171
 242  4472.608
 243  4571.618
 244  4465.998
 245  4484.407
 246  4242.97
 247  3982.977
 248  3650.18
 249  3528.791
 250  3509.547
 251  3447.191
 252  3472.077
 253  3567.602
 254  3548.542
 255  3642.299
 256  3602.923
 257  3767.968
 258  3883.605
 259  3898.377
 260  3959.651
 261  3952.905
 262  3853.651
 263  3519.139
 264  3193.325
 265  3076.923
 266  2998.835
 267  3092.461
 268  3182.656
 269  3371.068
 270  3398.202
 271  3447.577
 272  3599.343
 273  3835.636
 274  4112.591
 275  4443.768
 276  4714.993
 277  4739.089
 278  4559.1
 279  4255.216
 280  4053.483
 281  3776.098
 282  3505.369
 283  3261.797
 284  3257.799
 285  3370.331
 286  3473.912
 287  3395.065
 288  3472.211
 289  3361.667
 290  3460.636
 291  3479.86
 292  3763.389
 293  3881.822
 294  3996.162
 295  3895.745
 296  3525.506
 297  3197.232
 298  2961.276
 299  2910.054
 300  2749.452
 301  2773.338
 302  3092.873
 303  3282.708
 304  3480.706
 305  3653.702
 306  4049.476
 307  4266.849
 308  4451.163
 309  4648.222
 310  4633.159
 311  4402.752
 312  4088.312
 313  3828.558
 314  3426.842
 315  3086.387
 316  2993.435
 317  3024.666
 318  3121.61
 319  3148.641
 320  3340.338
 321  3401.199
 322  3355.299
 323  3471.683
 324  3657.226
 325  3871.058
 326  3828.558
 327  3663.066
 328  3498.221
 329  3177.37
 330  2929.24
 331  2819.738
 332  2934.577
 333  3046.804
 334  3260.273
 335  3327.136
 336  3426.325
 337  3485.647
 338  3702.764
 339  3845.298
 340  4021.442
 341  4156.663
 342  4298.023
 343  4331.271
 344  4391.906
 345  4316.505
 346  3974.883
 347  3632.929
 348  3459.604
 349  3311.673
 350  3280.71
 351  3273.751
 352  3373.004
 353  3419.466
 354  3335.098
 355  3379.451
 356  3499.358
 357  3572.364
 358  3503.169
 359  3549.268
 360  3569.182
 361  3567.483
 362  3337.948
 363  3294.388
 364  3143.515
 365  3074.042
 366  3051.484
 367  3076.193
 368  3143.628
 369  3061.328
 370  3179.26
 371  3471.079
 372  3675.954
 373  3861.818
 374  4098.801
 375  4214.447
 376  4209.271
 377  4112.134
 378  4074.015
 379  3681.456
 380  3484.254
 381  3286.718
 382  3341.357
 383  3204.028
 384  3239.43
 385  3267.903
 386  3295.721
 387  3170.46
 388  3263.334
 389  3357.712
 390  3485.741
 391  3602.262
 392  3547.383
 393  3499.752
 394  3240.573
 395  3177.655
 396  3154.318
 397  3105.896
 398  3050.179
 399  3049.746
 400  3102.379
 401  3211.48
 402  3417.853
 403  3587.645
 404  3682.253
 405  3881.147
 406  4185.275
 407  4331.432
 408  4443.625
 409  4300.967
 410  4215.677
 411  4079.778
 412  3889.397
 413  3717.989
 414  3401.02
 415  3350.655
 416  3378.45
 417  3253.241
 418  3247.863
 419  3253.307
 420  3510.748
 421  3543.206
 422  3572.833
 423  3679.243
 424  3917.975
 425  3892.787
 426  3886.198
 427  3639.563
 428  3478.881
 429  3260.353
 430  3148.635
 431  2967.25
 432  2961.295
 433  3036.651
 434  3292.646
 435  3519.296
 436  3708.981
 437  3722.927
 438  3846.511
 439  4071.944
 440  4398.201
 441  4556.24
 442  4572.913
 443  4482.382
 444  4280.08
 445  4081.924
 446  3858.126
 447  3509.823
 448  3253.853
 449  3207.671
 450  3309
 451  3250.496
 452  3198.669
 453  3297.776
 454  3390.478
 455  3585.357
 456  3725.98
 457  3860.944
 458  3888.73
 459  3824.006
 460  3599.155
 461  3439.61
 462  3110.62
 463  2922.499
 464  2749.729
 465  2893.263
 466  3070.005
 467  3235.99
 468  3282.954
 469  3382.519
 470  3695.22
 471  4091.052
 472  4237.533
 473  4372.552
 474  4396.545
 475  4470.564
 476  4329.766
 477  4088.547
 478  3846.188
 479  3663.108
 480  3595.977
 481  3486.18
 482  3282.312
 483  3214.868
 484  3196.101
 485  3363.507
 486  3374.984
 487  3431.445
 488  3480.185
 489  3536.865
 490  3552.251
 491  3678.432
 492  3661.752
 493  3631.27
 494  3527.087
 495  3338.628
 496  3215.435
 497  3179.24
 498  3198.934
 499  3251.602
 500  3288.616
 501  3491.163
 502  3497.128
 503  3673.918
 504  3830.457
 505  4072.297
 506  4265.327
 507  4391.884
 508  4441.522
 509  4281.717
 510  4044.199
 511  3695.896
 512  3513.098
 513  3412.378
 514  3413.881
 515  3471.394
 516  3459.457
 517  3423.15
 518  3442.58
 519  3472.357
 520  3439.111
 521  3507.3
 522  3614.314
 523  3692.986
 524  3738.76
 525  3702.8
 526  3576.627
 527  3310.098
 528  3164.756
 529  3047.693
 530  2966.209
 531  3009.062
 532  3083.912
 533  3176.673
 534  3147.073
 535  3320.218
 536  3547.196
 537  3699.987
 538  3970.374
 539  4257.71
 540  4287.644
 541  4085.519
 542  3842.991
 543  3836.205
 544  3773.617
 545  3622.369
 546  3506.399
 547  3279.072
 548  3168.76
 549  3055.534
 550  3154.532
 551  3338.529
 552  3261.674
 553  3354.984
 554  3429.44
 555  3443.143
 556  3527.077
 557  3541.84
 558  3600.763
 559  3450.544
 560  3289.958
 561  3156.295
 562  3077.498
 563  2968.344
 564  2867.348
 565  2834.932
 566  3065.491
 567  3240.969
 568  3547.279
 569  3725.945
 570  3887.394
 571  3994.709
 572  4157.899
 573  4314.685
 574  4411.011
 575  4369.281
 576  4232.072
 577  3901.727
 578  3824.908
 579  3750.644
 580  3502.245
 581  3234.772
 582  3265.196
 583  3406.486
 584  3404.57
 585  3207.164
 586  3357.697
 587  3365.268
 588  3451.659
 589  3558.504
 590  3714.834
 591  3741.398
 592  3555.361
 593  3402.347
 594  3222.471
 595  3038.342
 596  2972.968
 597  2987.333
 598  3036.804
 599  3059.597
 600  3285.638
 601  3506.552
 602  3740.204
 603  4066.232
 604  4452.939
 605  4699.297
 606  4979.894
 607  5020.735
 608  5080.961
 609  4771.833
 610  4528.711
 611  4378.475
 612  4169.189
 613  3973.177
 614  3703.946
 615  3640.271
 616  3531.09
 617  3503.604
 618  3400.982
 619  3498.646
 620  3520.213
 621  3833.748
 622  3887.492
 623  3829.668
 624  3597.208
 625  3393.777
 626  3253.281
 627  3072.453
 628  2963.333
 629  2874.534
 630  2815.365
 631  2943.321
 632  3226.409
 633  3424.862
 634  3447.403
 635  3415.417
 636  3732.631
 637  3994.026
 638  4309.195
 639  4390.921
 640  4438.076
 641  4350.746
 642  4163.068
 643  3948.693
 644  3704.888
 645  3564.493
 646  3441.559
 647  3379.227
 648  3330.862
 649  3232.344
 650  3256.717
 651  3336.506
 652  3379.813
 653  3353.175
 654  3306.14
 655  3403.251
 656  3567.587
 657  3477.191
 658  3331.386
 659  3096.384
 660  2866.041
 661  2789.83
 662  2689.407
 663  2722.266
 664  2594.712
 665  2741.312
 666  2989.713
 667  3177.254
 668  3426.729
 669  3619.934
 670  3871.935
 671  4100.307
 672  4178.234
 673  4262.145
 674  4116.224
 675  3906.98
 676  3753.924
 677  3463.385
 678  3262.811
 679  3038.085
 680  2967.426
 681  3068.673
 682  3077.17
 683  3267.379
 684  3244.265
 685  3280.461
 686  3386.104
 687  3527.078
 688  3723.889
 689  3752.306
 690  3736.9
 691  3604.335
 692  3245.182
 693  2872.759
 694  2784.835
 695  2746.019
 696  2845.125
 697  2777.61
 698  3081.569
 699  3174.008
 700  3331.502
 701  3319.046
 702  3538.39
 703  3772.22
 704  4098.772
 705  4153.607
 706  4131.635
 707  3819.938
 708  3606.137
 709  3684.245
 710  3615.532
 711  3465.872
 712  3351.207
 713  3277.104
 714  3204.102
 715  3105.334
 716  3065.604
 717  3064.346
 718  3026.641
 719  3269.954
 720  3322.193
 721  3468.338
 722  3464.329
 723  3619.374
 724  3594.111
 725  3532.373
 726  3374.072
 727  3141.275
 728  2902.682
 729  2746.06
 730  2941.394
 731  3136.999
 732  3214.21
 733  3270.84
 734  3515.673
 735  3594.92
 736  3772.212
 737  4063.349
 738  4345.387
 739  4470.692
 740  4291.505
 741  4235.264
 742  3903.758
 743  3554.512
 744  3341.027
 745  3375.565
 746  3409.638
 747  3401.992
 748  3473.534
 749  3479.807
 750  3400.754
 751  3339.879
 752  3339.161
 753  3363.748
 754  3529.274
 755  3662.676
 756  3781.044
 757  3569.91
 758  3263.501
 759  3120.614
 760  2993.583
 761  3001.339
 762  2981.141
 763  3126.139
 764  3195.338
 765  3314.479
 766  3389.35
 767  3547.644
 768  3677.9
 769  3935.977
 770  4171.597
 771  4362.291
 772  4466.15
 773  4447.841
 774  4256.512
 775  3929.817
 776  3684.377
 777  3660.409
 778  3562.465
 779  3314.357
 780  3246.306
 781  3327.423
 782  3443.674
 783  3339.729
 784  3354.036
 785  3331.219
 786  3510.496
 787  3691.349
 788  3726.243
 789  3696.942
 790  3498.051
 791  3438.865
 792  3237.039
 793  3128.956
 794  3021.194
 795  2996.154
 796  3069.152
 797  3229.477
 798  3471.261
 799  3596.733
 800  3595.571
 801  3829.712
 802  4011.367
 803  4118.84
 804  4207.634
 805  4254.996
 806  4191.521
 807  3853.28
 808  3677.023
 809  3351.63
 810  3133.322
 811  3102.75
 812  3168.098
 813  3296.562
 814  3213.084
 815  3215.994
 816  3206.494
 817  3270.559
 818  3308.99
 819  3483.948
 820  3648.094
 821  3739.655
 822  3621.602
 823  3277.108
 824  3140.014
 825  2926.666
 826  2965.253
 827  2832.593
 828  2833.38
 829  2937.949
 830  3083.378
 831  3174.558
 832  3257.554
 833  3480.078
 834  3841.417
 835  4112.958
 836  4432.95
 837  4613.42
 838  4583.008
 839  4312.106
 840  4002.082
 841  3806.16
 842  3453.03
 843  3233.851
 844  3066.35
 845  3088.761
 846  3284.892
 847  3335.864
 848  3307.254
 849  3147.72
 850  3229.775
 851  3552.781
 852  3754.129
 853  3742.356
 854  3818.232
 855  3814.455
 856  3743.104
 857  3539.388
 858  3322.474
 859  2980.162
 860  2805.839
 861  2826.155
 862  2976.027
 863  3037.255
 864  3181.387
 865  3455.515
 866  3782.121
 867  3927.328
 868  3816.074
 869  4019.417
 870  4148.831
 871  4407.406
 872  4496.075
 873  4360.822
 874  4037.81
 875  3606.49
 876  3514.005
 877  3335.121
 878  3240.053
 879  3205.426
 880  3428.934
 881  3503.122
 882  3394.527
 883  3188.699
 884  3297.419
 885  3460.263
 886  3722.323
 887  3733.329
 888  3702.123
 889  3538.856
 890  3314.972
 891  3071.802
 892  2974.326
 893  2906.626
 894  2880.4
 895  2834.378
 896  2908.585
 897  3051.319
 898  3102.188
 899  3384.366
 900  3737.001
 901  4031.386
 902  4170.296
 903  4228.838
 904  4383.195
 905  4252.234
 906  4001.033
 907  3846.672
 908  3683.681
 909  3457.778
 910  3247.372
 911  3239.927
 912  3215.36
 913  3091.919
 914  3016.039
 915  3130.318
 916  3340.172
 917  3584.046
 918  3686.445
 919  3864.964
 920  3875.962
 921  3801.017
 922  3679.26
 923  3491.232
 924  3361.509
 925  3102.627
 926  3072.619
 927  3021.74
 928  3084.514
 929  3154.62
 930  3342.227
 931  3309.611
 932  3476.901
 933  3632.8
 934  4060.748
 935  4247.129
 936  4320.922
 937  4442.734
 938  4391.835
 939  4317.305
 940  4024.448
 941  3787.945
 942  3539.325
 943  3398.367
 944  3349.781
 945  3440.33
 946  3465.962
 947  3431.796
 948  3274.267
 949  3385.366
 950  3458.549
 951  3493.469
 952  3609.672
 953  3721.218
 954  3759.187
 955  3594.185
 956  3444.981
 957  3335.196
 958  3147.415
 959  3110.408
 960  3135.87
 961  3190.151
 962  3242.65
 963  3358.666
 964  3574.793
 965  3695.919
 966  3712.649
 967  3943.029
 968  4102.442
 969  4393.499
 970  4327.726
 971  4385.359
 972  4325.462
 973  4133.941
 974  3858.594
 975  3648.125
 976  3528.402
 977  3398.491
 978  3361.259
 979  3406.029
 980  3410.853
 981  3431.994
 982  3543.781
 983  3563.38
 984  3694.823
 985  3663.209
 986  3785.505
 987  3775.674
 988  3746.035
 989  3450.746
 990  3151.735
 991  2937.197
 992  2885.047
 993  3003.582
 994  3314.942
 995  3563.674
 996  3694.943
 997  3669.618
 998  3740.777
 999  3958.819
1000  4373.382
1001  4534.994
1002  4600.729
1003  4587.931
1004  4558.262
1005  4273.637
1006  3933.547
1007  3788.972
1008  3685.499
1009  3489.82
1010  3338.423
1011  3235.987
1012  3238.382
1013  3234.031
1014  3463.688
1015  3554.541
1016  3549.455
1017  3681.52
1018  3928.594
1019  4072.783
1020  3963.157
1021  3695.795
1022  3503.085
1023  3245.058
