# Input file       =  1204706714.102575_cleaned.dat
# Candidate        =  PSR_0332+5434
# Telescope        =  AR
# Epoch_topo       =  58187.364966464986
# Epoch_bary       =  N/A
# T_sample         =  0.002
# Data Folded      =  7471104
# Data Avg         =  0.0116650303113365
# Data StdDev      =  1.00003464406212 
# Profile Bins     =  512
# Profile Avg      =  170.087407924142 
# Profile StdDev   =  120.801535875262 
# Reduced chi-sqr  =  1.571
# Prob(Noise)      <  2.43e-15   (~7.8 sigma)
# P_topo (ms)      =  714.578924921594  +/- 0.000232
# P'_topo (s/s)    =  -0                +/- 1.2e-10
# P''_topo (s/s^2) =  0                 +/- 5.21e-14
# P_bary (ms)      =  N/A
# P'_bary (s/s)    =  N/A
# P''_bary (s/s^2) =  N/A
# P_orb (s)        =  N/A
# asin(i)/c (s)    =  N/A
# eccentricity     =  N/A
# w (rad)          =  N/A
# T_peri           =  N/A
######################################################
   0  191.8106
   1  192.0253
   2  166.1389
   3  255.0314
   4  358.4936
   5  248.827
   6  373.275
   7  349.401
   8  224.8664
   9  225.1
  10  186.1997
  11  190.2321
  12  121.7581
  13  215.9089
  14  219.5157
  15  96.47273
  16  110.101
  17  277.4615
  18  206.3524
  19  216.0401
  20  159.1378
  21  174.4773
  22  70.95699
  23  111.5856
  24  134.7487
  25  142.5849
  26  142.4763
  27  102.5576
  28  131.2829
  29  63.40992
  30  104.163
  31  287.5838
  32  239.1949
  33  226.1777
  34  306.1282
  35  272.9028
  36  144.1588
  37  238.6633
  38  295.9839
  39  160.5792
  40  60.40952
  41  124.9236
  42  194.6162
  43  292.8907
  44  270.7703
  45  229.202
  46  548.841
  47  906.2822
  48  1173.244
  49  992.7033
  50  689.2642
  51  535.2162
  52  518.3238
  53  275.6257
  54  171.9441
  55  272.6989
  56  207.8935
  57  150.6073
  58  304.952
  59  273.9369
  60  250.2024
  61  275.7898
  62  325.492
  63  291.8371
  64  300.4546
  65  389.462
  66  328.9665
  67  165.2237
  68  105.3325
  69  157.5102
  70  163.0552
  71  117.7017
  72  7.821445
  73  40.96259
  74  96.85109
  75  156.8692
  76  295.2955
  77  154.437
  78  173.6563
  79  239.7213
  80  18.33523
  81  142.7127
  82  289.6254
  83  152.0145
  84  260.1544
  85  320.5631
  86  312.8596
  87  206.5948
  88  156.2688
  89  157.2055
  90  149.8248
  91  94.68842
  92  132.213
  93  80.31929
  94  146.5007
  95  249.0569
  96  230.747
  97  100.2007
  98  95.7712
  99  145.676
 100  219.7626
 101  185.0509
 102  165.3443
 103  219.1381
 104  160.8309
 105  245.4252
 106  196.4835
 107  11.08458
 108  77.96258
 109  148.042
 110  142.9128
 111  153.4043
 112  269.1755
 113  236.0063
 114  265.674
 115  208.682
 116  161.6092
 117  212.5227
 118  206.0822
 119  255.7985
 120  108.3174
 121  91.55021
 122  151.4519
 123  109.8191
 124  220.2131
 125  174.5107
 126  219.0233
 127  210.1901
 128  178.4209
 129  255.9328
 130  192.8443
 131  105.7041
 132  120.5942
 133  107.6029
 134  55.81633
 135  184.4507
 136  177.024
 137  45.06276
 138  54.81167
 139  39.44141
 140  87.59562
 141  168.0669
 142  59.12003
 143  92.64888
 144  181.9871
 145  117.4623
 146  111.7712
 147  188.2625
 148  153.3703
 149  230.3527
 150  170.6273
 151  171.677
 152  166.9533
 153  106.6198
 154  142.3175
 155  90.87778
 156  37.06559
 157  149.4548
 158  178.0389
 159  201.4057
 160  216.087
 161  157.1032
 162  202.5758
 163  201.3641
 164  190.7217
 165  107.7653
 166  40.54458
 167  98.72509
 168  212.8099
 169  316.9512
 170  375.1982
 171  287.703
 172  204.4232
 173  111.2771
 174  137.1631
 175  260.6744
 176  257.3333
 177  89.31918
 178  146.5409
 179  189.7015
 180  184.1986
 181  66.03116
 182  87.17323
 183  118.9035
 184  145.2465
 185  285.2349
 186  166.3879
 187  201.5915
 188  224.2138
 189  153.9978
 190  27.56226
 191  196.2808
 192  222.644
 193  206.2046
 194  197.702
 195  265.1029
 196  291.7367
 197  246.5763
 198  131.4196
 199  85.01598
 200  246.7427
 201  149.1119
 202  36.53263
 203  23.0336
 204  121.9671
 205  98.77888
 206  46.43041
 207  -2.946662
 208  231.8403
 209  266.9088
 210  107.2031
 211  1.640671
 212  43.88971
 213  104.2345
 214  75.94964
 215  143.6549
 216  126.701
 217  75.06178
 218  92.52219
 219  125.5754
 220  121.7612
 221  81.31243
 222  127.202
 223  183.2656
 224  213.2991
 225  201.4765
 226  161.335
 227  222.7981
 228  173.9872
 229  165.2087
 230  54.63359
 231  76.07346
 232  80.09585
 233  168.506
 234  148.2912
 235  124.2355
 236  166.9659
 237  204.675
 238  153.5397
 239  78.38308
 240  221.0931
 241  176.0667
 242  282.1312
 243  130.1631
 244  132.3684
 245  301.0279
 246  262.3029
 247  199.9427
 248  93.08945
 249  88.80334
 250  140.6628
 251  217.3811
 252  212.7648
 253  183.4426
 254  99.66545
 255  111.163
 256  -12.21824
 257  23.56991
 258  230.4046
 259  159.2933
 260  126.6299
 261  67.79242
 262  215.6896
 263  138.4544
 264  39.34248
 265  104.6045
 266  179.5369
 267  294.9159
 268  381.5323
 269  281.4019
 270  153.6291
 271  151.5668
 272  262.3594
 273  246.8045
 274  192.2397
 275  169.9967
 276  266.3316
 277  323.9186
 278  287.5403
 279  338.756
 280  198.699
 281  261.9348
 282  237.3652
 283  214.4204
 284  197.1937
 285  94.74172
 286  47.19094
 287  83.7551
 288  142.8179
 289  110.7596
 290  96.2925
 291  -24.79667
 292  -41.64361
 293  70.82861
 294  49.35426
 295  42.38969
 296  194.0159
 297  261.5185
 298  316.9288
 299  192.7379
 300  72.19305
 301  127.3733
 302  127.3886
 303  -11.61266
 304  127.4116
 305  226.5557
 306  310.0071
 307  278.9532
 308  120.0061
 309  29.88368
 310  212.1241
 311  189.093
 312  170.0704
 313  217.7937
 314  283.7908
 315  134.1961
 316  153.3087
 317  201.1697
 318  223.8718
 319  239.0437
 320  270.0854
 321  262.8266
 322  159.4228
 323  220.1237
 324  144.76
 325  188.3321
 326  277.7581
 327  292.0806
 328  189.2744
 329  304.6909
 330  205.5893
 331  303.1584
 332  135.1576
 333  92.38329
 334  31.60926
 335  79.8993
 336  225.5792
 337  78.34659
 338  93.83395
 339  255.3688
 340  184.8208
 341  221.5666
 342  224.6792
 343  141.5041
 344  35.46706
 345  22.58275
 346  88.97376
 347  124.2828
 348  209.0845
 349  228.4545
 350  239.2608
 351  77.56118
 352  109.2023
 353  227.3788
 354  176.3172
 355  226.5926
 356  145.9396
 357  260.8525
 358  170.4642
 359  74.37502
 360  163.9604
 361  58.8079
 362  140.6167
 363  130.0804
 364  118.8985
 365  118.7524
 366  196.6289
 367  60.59863
 368  91.8064
 369  57.00004
 370  62.88331
 371  17.93639
 372  112.7145
 373  170.9811
 374  159.0386
 375  28.0417
 376  36.74318
 377  181.3247
 378  91.12366
 379  26.99056
 380  198.0244
 381  316.11
 382  239.3523
 383  115.4733
 384  36.47574
 385  157.5967
 386  120.2577
 387  30.0212
 388  142.9998
 389  202.7276
 390  276.5944
 391  111.0359
 392  227.1794
 393  296.2546
 394  278.8913
 395  155.4775
 396  157.3795
 397  173.3897
 398  217.9217
 399  223.8823
 400  69.26246
 401  81.65269
 402  209.2395
 403  172.3318
 404  -7.9038
 405  65.08438
 406  196.6348
 407  154.3327
 408  206.8479
 409  122.6972
 410  -70.19772
 411  70.36343
 412  129.7878
 413  262.0946
 414  187.3439
 415  147.8896
 416  -13.18281
 417  179.7499
 418  310.6381
 419  92.88756
 420  149.3129
 421  70.20217
 422  105.5227
 423  163.2918
 424  206.825
 425  154.4044
 426  202.6825
 427  156.3256
 428  163.7327
 429  120.9654
 430  128.0748
 431  172.898
 432  166.5331
 433  97.25734
 434  173.3504
 435  227.5466
 436  198.3787
 437  129.7803
 438  63.89547
 439  132.1525
 440  43.22276
 441  161.4819
 442  130.3369
 443  193.4982
 444  145.2373
 445  59.49586
 446  84.67034
 447  147.4341
 448  62.73314
 449  125.0965
 450  128.7995
 451  69.60633
 452  141.2816
 453  170.37
 454  -0.5218509
 455  60.70363
 456  165.9018
 457  226.992
 458  331.6219
 459  155.3064
 460  46.53149
 461  51.78318
 462  -17.70984
 463  100.8032
 464  138.5787
 465  194.0673
 466  32.52842
 467  -29.47248
 468  121.9441
 469  171.8133
 470  178.2549
 471  189.0517
 472  188.6068
 473  176.3845
 474  85.59558
 475  114.1514
 476  147.9336
 477  187.0276
 478  162.0101
 479  69.64415
 480  123.5986
 481  186.3013
 482  171.164
 483  244.7965
 484  173.4663
 485  97.29483
 486  157.0221
 487  119.1302
 488  194.0099
 489  91.92957
 490  97.95121
 491  156.9197
 492  194.2081
 493  112.2519
 494  159.8338
 495  211.3395
 496  147.1107
 497  228.7632
 498  253.1422
 499  104.6972
 500  29.45455
 501  53.14926
 502  157.8343
 503  63.16736
 504  56.96069
 505  154.5324
 506  263.9559
 507  205.1402
 508  153.0303
 509  177.1493
 510  151.0609
 511  289.3864
