# Input file       =  1204792879.116628_cleaned.dat
# Candidate        =  PSR_0332+5434
# Telescope        =  AR
# Epoch_topo       =  58188.362246720229
# Epoch_bary       =  N/A
# T_sample         =  0.002
# Data Folded      =  7405568
# Data Avg         =  0.233753767330199
# Data StdDev      =  6.40381580654129 
# Profile Bins     =  512
# Profile Avg      =  3380.95156847136 
# Profile StdDev   =  770.163687777955 
# Reduced chi-sqr  =  5.536
# Prob(Noise)      <  0   (~0.0 sigma)
# P_topo (ms)      =  714.578668922535  +/- 1.47e-05
# P'_topo (s/s)    =  -0                +/- 7.69e-12
# P''_topo (s/s^2) =  0                 +/- 3.37e-15
# P_bary (ms)      =  N/A
# P'_bary (s/s)    =  N/A
# P''_bary (s/s^2) =  N/A
# P_orb (s)        =  N/A
# asin(i)/c (s)    =  N/A
# eccentricity     =  N/A
# w (rad)          =  N/A
# T_peri           =  N/A
######################################################
   0  2918.303
   1  3684.686
   2  3091.938
   3  2456.967
   4  2471.235
   5  2342.741
   6  1905.932
   7  2913.018
   8  4908.737
   9  6031.463
  10  5104.132
  11  3956.086
  12  3509.157
  13  3411.562
  14  2830.366
  15  1939.286
  16  2597.484
  17  3356.145
  18  3243.558
  19  2493.97
  20  2136.923
  21  2450.927
  22  2908.142
  23  3393.504
  24  4546.595
  25  5524.709
  26  5555.709
  27  4817.145
  28  3618.934
  29  2952.832
  30  2989.249
  31  2530.494
  32  2059.946
  33  2812.374
  34  3231.317
  35  2718.167
  36  1855.669
  37  1637.816
  38  2409.755
  39  2956.499
  40  3691.823
  41  5261.768
  42  6520.448
  43  5974.654
  44  4048.445
  45  2732.848
  46  2434.493
  47  2138.942
  48  1933.766
  49  2587.072
  50  3781.998
  51  3912.924
  52  2627.167
  53  1795.449
  54  1862.229
  55  2577.89
  56  3482.938
  57  4648.095
  58  5974.131
  59  6240.125
  60  4914.361
  61  3638.273
  62  3186.637
  63  3076.393
  64  2405.492
  65  2390.469
  66  3230.295
  67  4055.578
  68  3483.469
  69  2419.121
  70  2154.96
  71  2580.86
  72  2962.522
  73  4124.773
  74  5562.035
  75  6664.716
  76  5787.231
  77  4186.99
  78  3472.809
  79  3107.429
  80  2765.707
  81  2176.162
  82  2665.758
  83  3536.535
  84  3639.176
  85  2829.615
  86  2333.664
  87  2429.727
  88  2719.599
  89  3089.005
  90  4037.354
  91  5774.78
  92  6177.906
  93  5066.663
  94  3810.653
  95  2914.38
  96  2863.692
  97  2279.591
  98  1830.071
  99  2316.824
 100  3523.475
 101  3132.23
 102  2339.202
 103  2324.402
 104  3201.954
 105  2793.187
 106  3065.247
 107  5048.222
 108  6216.399
 109  5780.385
 110  4447.934
 111  2844.844
 112  2613.82
 113  2624.851
 114  1906.163
 115  2234.896
 116  3532.479
 117  3599.023
 118  2575.942
 119  1948.423
 120  2203.412
 121  2480.236
 122  3165.161
 123  4101.021
 124  5634.423
 125  6076.154
 126  5193.881
 127  3166.209
 128  2696.066
 129  2569.671
 130  1920.425
 131  2424.001
 132  3467.229
 133  3820.7
 134  3368.502
 135  2431.901
 136  1881.098
 137  2485.316
 138  3049.777
 139  3587.679
 140  5210.557
 141  6249.047
 142  6096.102
 143  4167.399
 144  3305.387
 145  2968.693
 146  2379.965
 147  2024.047
 148  2415.222
 149  3611.753
 150  3209.38
 151  2368.094
 152  1814.823
 153  1613.289
 154  2016.969
 155  2732.738
 156  4536.472
 157  5859.271
 158  6413.634
 159  5479.166
 160  3904.767
 161  2531.002
 162  2222.664
 163  1784.692
 164  1928.551
 165  3146.768
 166  4371.316
 167  3690.088
 168  2511.639
 169  1863.164
 170  1753.591
 171  2533.932
 172  3533.405
 173  4909.87
 174  6349.922
 175  6225.385
 176  4433.065
 177  2817.814
 178  2636.356
 179  2266.918
 180  2003.946
 181  2562.94
 182  3614.669
 183  3969.563
 184  3317.681
 185  1968.283
 186  1842.788
 187  2353.329
 188  2712.578
 189  3896.583
 190  5351.88
 191  6702.322
 192  5446.927
 193  3417.872
 194  2764.155
 195  2409.725
 196  2392.306
 197  2194.719
 198  3148.841
 199  4011.545
 200  3279.488
 201  2476.812
 202  2374.146
 203  2707.698
 204  2871.71
 205  3335.357
 206  4680.686
 207  5930.551
 208  5588.66
 209  4668.338
 210  3293.808
 211  2687.786
 212  2615.566
 213  2220.937
 214  2570.174
 215  3399.845
 216  2926.691
 217  2724.542
 218  2072.064
 219  1594.685
 220  2511.157
 221  3552.386
 222  4463.302
 223  5811.441
 224  6277.641
 225  5034.879
 226  3664.63
 227  2915.79
 228  2799.26
 229  2428.592
 230  2505.434
 231  3127.26
 232  3732.777
 233  3357.877
 234  2094.056
 235  1706.392
 236  2080.8
 237  2514.657
 238  3517.464
 239  4994.24
 240  6658.958
 241  6418.632
 242  4061.677
 243  3045.431
 244  2697.537
 245  2009.723
 246  1564.22
 247  1950.501
 248  3249.152
 249  3722.716
 250  3179.914
 251  2027.576
 252  1632.769
 253  1947.628
 254  2261.113
 255  3524.132
 256  5661.802
 257  6623.082
 258  5643.191
 259  3479.365
 260  2371.283
 261  2205.318
 262  1772.117
 263  1530.851
 264  2506.055
 265  3748.755
 266  3499.654
 267  2022.845
 268  1638.539
 269  2076.056
 270  2260.93
 271  2935.783
 272  4040.255
 273  5545.488
 274  5942.44
 275  4416.901
 276  3326.783
 277  2998.952
 278  2537.083
 279  1409.068
 280  1666.737
 281  2878.828
 282  3261.141
 283  2696.946
 284  2609.496
 285  2975.735
 286  3105.558
 287  3255.035
 288  3675.634
 289  4689.137
 290  5271.379
 291  4679.977
 292  3471.093
 293  2983.249
 294  2791.669
 295  2766.302
 296  2162.635
 297  2838.32
 298  3365.665
 299  3053.832
 300  2269.155
 301  2471.617
 302  3531.56
 303  4490.742
 304  5398.441
 305  6344.312
 306  6959.447
 307  6519.33
 308  4975.065
 309  3259.28
 310  2788.242
 311  2441.943
 312  2041.671
 313  2601.743
 314  3582.066
 315  3576.97
 316  2624.794
 317  1530.071
 318  1910.223
 319  2313.494
 320  2676.563
 321  4119.85
 322  5852.914
 323  6961.46
 324  5623.132
 325  3853.263
 326  2319.374
 327  1974.069
 328  1767.483
 329  1711.882
 330  2847.92
 331  4080.28
 332  3492.463
 333  2107.749
 334  1149.579
 335  1480.773
 336  2262.595
 337  2993.953
 338  4905.81
 339  6250.408
 340  6010.165
 341  4563.273
 342  2974.614
 343  2420.882
 344  2101.388
 345  1989.342
 346  2378.532
 347  3208.46
 348  3618.968
 349  2736.524
 350  1669.323
 351  1830.234
 352  2109.264
 353  2144.007
 354  3550.044
 355  5477.487
 356  6350.291
 357  5587.933
 358  4045.918
 359  2928.803
 360  2719.966
 361  2265.952
 362  1828.682
 363  2148.781
 364  3196.029
 365  2763.661
 366  2568.328
 367  2370.98
 368  2628.62
 369  2833.761
 370  3092.835
 371  4467.981
 372  5842.827
 373  5913.52
 374  4888.149
 375  3584.043
 376  3102.563
 377  2700.41
 378  2276.208
 379  2127.654
 380  3309.36
 381  3593.758
 382  2964.5
 383  2023.55
 384  2638.702
 385  3258.1
 386  2962.521
 387  3923.367
 388  5592.028
 389  6032.212
 390  5535.663
 391  4258.469
 392  3488.115
 393  3151.382
 394  2620.12
 395  2187.005
 396  2739.468
 397  3709.168
 398  3572.334
 399  2646.8
 400  2296.002
 401  2434.542
 402  2945.737
 403  3691.605
 404  5111.252
 405  6442.554
 406  6923.595
 407  5221.213
 408  3401.126
 409  3081.195
 410  2976.612
 411  2394.593
 412  3085.562
 413  4064.498
 414  4251.867
 415  3107.669
 416  1773.211
 417  1582.768
 418  2019.005
 419  2840.849
 420  4704.702
 421  6151.639
 422  6597.415
 423  5242.542
 424  3599.991
 425  2853.254
 426  2542.477
 427  2352.461
 428  2449.702
 429  2960.396
 430  3655.492
 431  3859.152
 432  2638.739
 433  2165.712
 434  2369.857
 435  2615.465
 436  3439.77
 437  4165.452
 438  5881.463
 439  5981.024
 440  4772.015
 441  3659.176
 442  3221.418
 443  3160.361
 444  2224.408
 445  1900.645
 446  2874.323
 447  3658.084
 448  2879.772
 449  2258.692
 450  2071.873
 451  2542.687
 452  2893.532
 453  3430.577
 454  5324.16
 455  5899.415
 456  5230.391
 457  3898.792
 458  2942.848
 459  2717.797
 460  2596.564
 461  2139.753
 462  2255.127
 463  3264.759
 464  2847.676
 465  2172.359
 466  2076.346
 467  2500.138
 468  3048.551
 469  3231.186
 470  4533.075
 471  6095.764
 472  6154.394
 473  4855.327
 474  3322.9
 475  2800.7
 476  2675.511
 477  2147.466
 478  2450
 479  3715.428
 480  4176.104
 481  2980.993
 482  1790.521
 483  1809.926
 484  2265.608
 485  2983.21
 486  4112.244
 487  5364.703
 488  6154.724
 489  5273.048
 490  3447.586
 491  2771.255
 492  3026.213
 493  2459.919
 494  2239.765
 495  3028.519
 496  3764.895
 497  3592.542
 498  2255.679
 499  1433.364
 500  2236.612
 501  2801.346
 502  3169.044
 503  4412.597
 504  5761.993
 505  5684.393
 506  4299.709
 507  3099.277
 508  2929.11
 509  2737.912
 510  1818.508
 511  1505.339
