# Input file       =  1204032628.106903-PSRB0329-2ms-sampling-dd.dat
# Candidate        =  PSR_0332+5434
# Telescope        =  AR
# Epoch_topo       =  58179.563045218783
# Epoch_bary       =  N/A
# T_sample         =  0.002
# Data Folded      =  7340032
# Data Avg         =  1.35018734999794e-09
# Data StdDev      =  154.27919906754  
# Profile Bins     =  512
# Profile Avg      =  -3.67023055908191
# Profile StdDev   =  18472.3169541322 
# Reduced chi-sqr  =  1.176
# Prob(Noise)      <  0.00363   (~2.7 sigma)
# P_topo (ms)      =  714.580354205268  +/- 0.000299
# P'_topo (s/s)    =  -0                +/- 1.58e-10
# P''_topo (s/s^2) =  0                 +/- 6.96e-14
# P_bary (ms)      =  N/A
# P'_bary (s/s)    =  N/A
# P''_bary (s/s^2) =  N/A
# P_orb (s)        =  N/A
# asin(i)/c (s)    =  N/A
# eccentricity     =  N/A
# w (rad)          =  N/A
# T_peri           =  N/A
######################################################
   0  -8188.17
   1  -8831.284
   2  -8804.779
   3  -8491.324
   4  -7504.161
   5  -6524.927
   6  -5871.423
   7  -6552.802
   8  -7519.001
   9  -7987.866
  10  -8782.436
  11  -8565.974
  12  -8078.539
  13  -7305.365
  14  -3602.718
  15  -4475.327
  16  -1694.867
  17  3191.683
  18  726.0235
  19  919.8842
  20  2545.219
  21  10585
  22  7463.315
  23  19107.47
  24  24928.02
  25  19967.71
  26  19804.49
  27  9687.025
  28  957.1702
  29  -10307.4
  30  -8257.651
  31  -8277.334
  32  -8845.713
  33  -8121.288
  34  -7886.735
  35  -8010.186
  36  -7518.134
  37  -7873.191
  38  -8021.837
  39  -7226.185
  40  -7098.491
  41  -6841.836
  42  -6988.351
  43  -7882.379
  44  -8481.348
  45  -8504.538
  46  -8169.792
  47  -7916.709
  48  -5545.932
  49  -3746.759
  50  -2272.438
  51  646.0244
  52  2428.478
  53  3614.224
  54  -7625.942
  55  715.2386
  56  10789.33
  57  23732.54
  58  25477.17
  59  23905.91
  60  4255.895
  61  -6372.366
  62  -8789.358
  63  -6536.665
  64  -8116.477
  65  -7801.405
  66  -7277.474
  67  -8132.832
  68  -6742.978
  69  -6416.805
  70  -7572.33
  71  -7379.961
  72  -5690.511
  73  -4744.944
  74  -3528.678
  75  -2406.043
  76  -5479.525
  77  -6335.429
  78  -7058.211
  79  -6943.092
  80  -6888.324
  81  -7666.581
  82  -7567.486
  83  -6796.363
  84  -7101.41
  85  -6965.729
  86  -7155.871
  87  -7401.159
  88  -7494.479
  89  -7310.182
  90  -7009.197
  91  -7423.97
  92  -7478.271
  93  -7438.254
  94  -7317.666
  95  -6544.934
  96  -6433.927
  97  -6808.812
  98  -7328.324
  99  -6549.328
 100  -5629.298
 101  -4594.229
 102  -4535.158
 103  -5933.995
 104  -5714.636
 105  -8072.962
 106  -8426.502
 107  -6993.793
 108  -3046.671
 109  -423.1801
 110  3067.523
 111  1880.912
 112  -272.5482
 113  -6.359848
 114  -3387.554
 115  -4283.617
 116  -1269.172
 117  9200.449
 118  14450.18
 119  19054.25
 120  13700.95
 121  5860.297
 122  -27.83803
 123  -928.2321
 124  -4866.959
 125  -6049.189
 126  -6221.786
 127  3557.945
 128  7642.864
 129  10162.69
 130  7096.852
 131  -1099.638
 132  -7219.243
 133  -8967.367
 134  -9153.225
 135  -8836.914
 136  -7690.563
 137  -7222.565
 138  -7161.356
 139  -7965.453
 140  -8674.006
 141  -9430.637
 142  -9630.887
 143  -9906.372
 144  -9893.786
 145  -9819.806
 146  -9809.98
 147  -10148.08
 148  -10259.52
 149  -10383.35
 150  -10581.7
 151  -9664.758
 152  -9287.341
 153  -8607.092
 154  -2416.486
 155  96.57237
 156  4276.793
 157  13928.96
 158  -969.9034
 159  -3514.463
 160  -1498.6
 161  34733.07
 162  49722.39
 163  60838.32
 164  47597.34
 165  15186.51
 166  -4560.719
 167  -6360.655
 168  -3319.243
 169  -2859.194
 170  -1952.39
 171  -2662.01
 172  -3367.975
 173  -3687.955
 174  -4693.964
 175  -3281.772
 176  -6358.495
 177  -8260.726
 178  -8360.8
 179  -5441.008
 180  -3996.914
 181  -2150.562
 182  -1890.405
 183  -5005.192
 184  -7121.619
 185  -8803.315
 186  -8515.269
 187  -8171.391
 188  -7469.663
 189  -7300.042
 190  -7699.311
 191  -8216.598
 192  -8687.865
 193  -7759.422
 194  -6814.302
 195  -4091.877
 196  -3462.059
 197  -4214.354
 198  -5461.153
 199  -7174.783
 200  -6981.754
 201  -6502.026
 202  -5015.033
 203  -4524.042
 204  -4735.452
 205  -5993.528
 206  -7157.866
 207  -6817.193
 208  -5577.819
 209  -3326.059
 210  1994.63
 211  6406.835
 212  8246.943
 213  14783.09
 214  15390.82
 215  13896.3
 216  8596.554
 217  17734.87
 218  30851.59
 219  56271.49
 220  64420.86
 221  65954.23
 222  42479.47
 223  29546.33
 224  20845.21
 225  6868.16
 226  761.4432
 227  852.782
 228  3910.531
 229  8092.749
 230  7362.953
 231  5191.317
 232  -3711.032
 233  -4240.311
 234  -5625.392
 235  -9187.076
 236  -7841.896
 237  -6275.43
 238  -4021.569
 239  7.090055
 240  1325.16
 241  1266.321
 242  -626.0812
 243  -4974.535
 244  -5124.703
 245  -2517.228
 246  3299.866
 247  11708.67
 248  12501.3
 249  13053.86
 250  -3399.188
 251  -3291.74
 252  -1151.685
 253  173.9061
 254  4346.616
 255  3961.766
 256  -834.2933
 257  -2302.501
 258  5959.18
 259  11605.54
 260  14160.73
 261  18196.38
 262  988.5502
 263  -1667.637
 264  21852.59
 265  51003.71
 266  65958.59
 267  79025.95
 268  40332.7
 269  14014.96
 270  -9915.092
 271  -6245.207
 272  -8318.135
 273  -8773.701
 274  -6299.054
 275  -7040.192
 276  -6365.486
 277  -4680.397
 278  -5620.533
 279  -6189.344
 280  -6703.945
 281  -7140.275
 282  -6115.178
 283  -6113.909
 284  -5948.305
 285  -6286.18
 286  -7360.367
 287  -8584.422
 288  -8201.252
 289  -8386.246
 290  -8428.937
 291  -8381.568
 292  -8344.285
 293  -8472.771
 294  -8431.425
 295  -8240.918
 296  -8360.567
 297  -8596.054
 298  -8123.542
 299  -8469.504
 300  -8861.656
 301  -8894.898
 302  -8582.148
 303  -8799.44
 304  -8424.297
 305  -8468.425
 306  -8846.396
 307  -8725.725
 308  -7666.537
 309  -5279.727
 310  -1078.956
 311  992.2363
 312  6696.937
 313  13241.61
 314  -5108.818
 315  -3096.325
 316  3681.91
 317  31731.12
 318  44585.48
 319  45774.58
 320  38093.91
 321  1500.584
 322  -4556.125
 323  -4570.202
 324  -6973.1
 325  -6181.694
 326  -6380.619
 327  -7551.918
 328  -7477.324
 329  -6949.868
 330  -6918.787
 331  -6119.368
 332  -5101.757
 333  -5258.707
 334  -6055.474
 335  -8366.814
 336  -7754.638
 337  -3657.9
 338  -1074.125
 339  -418.1346
 340  -582.3954
 341  -5505.854
 342  -7129.349
 343  -8521.957
 344  -7691.873
 345  -6920.211
 346  -5600.616
 347  -2329.733
 348  -773.9059
 349  2846.818
 350  14442.29
 351  7078.002
 352  3392.147
 353  10162.94
 354  23416.21
 355  34325.91
 356  48817.04
 357  36840.52
 358  20725.84
 359  -2020.984
 360  -4304.003
 361  -7521.208
 362  -8507.697
 363  -7396.949
 364  -8410.142
 365  -8764.776
 366  -7849.395
 367  -8115.005
 368  -6980.421
 369  -5665.578
 370  -5059.818
 371  -4097.175
 372  -3503.666
 373  -4405.926
 374  -5533.536
 375  -4473.631
 376  -3611.987
 377  -2830.608
 378  -1463.095
 379  -2157.11
 380  -3278.803
 381  -7018.333
 382  -2562.748
 383  2016.158
 384  7430.167
 385  7646.803
 386  4773.213
 387  -4160.046
 388  -7710.106
 389  -8203.584
 390  -7791.279
 391  -8719.302
 392  -8374.188
 393  -7976.54
 394  -8135.737
 395  -7622.496
 396  -7817.543
 397  -8640.385
 398  -8335.533
 399  -7893.29
 400  -7453.54
 401  -6303.981
 402  -6207.115
 403  -6750.985
 404  -6738.728
 405  -7290.088
 406  -6991.736
 407  -4577.828
 408  -2606.99
 409  -1432.895
 410  3538.67
 411  3371.249
 412  5659.148
 413  15209.12
 414  13171.76
 415  15156.38
 416  24613.83
 417  45704.92
 418  49326.97
 419  62136.98
 420  28436.01
 421  17346.7
 422  8681.035
 423  27998.24
 424  38113.44
 425  37793.64
 426  29247.58
 427  -1615.062
 428  -6289.658
 429  -5118.008
 430  -9284.172
 431  -8562.414
 432  -7831.032
 433  -9700.075
 434  -8445.227
 435  -8224.6
 436  -9606.018
 437  -8729.451
 438  -8836.858
 439  -9872.473
 440  -9531.72
 441  -9858.766
 442  -9923.769
 443  -9566.127
 444  -9352.061
 445  -8969.88
 446  -8434.644
 447  -8703.331
 448  -8944.418
 449  -8618.839
 450  -8497.038
 451  -8698.158
 452  -8662.705
 453  -8884.884
 454  -8599.841
 455  -8773.417
 456  -9424.702
 457  -9858.84
 458  -9589.252
 459  -9181.322
 460  -9000.549
 461  -9198.885
 462  -9526.814
 463  -10025.33
 464  -9668.232
 465  -9721.906
 466  -9579.463
 467  -8914.515
 468  -8730.182
 469  -9005.835
 470  -8890.581
 471  -9472.007
 472  -9525.696
 473  -9198.172
 474  -8190.41
 475  -4136.057
 476  -470.4321
 477  3264.061
 478  11749.9
 479  11023.06
 480  1786.614
 481  4163.863
 482  17316.03
 483  36388.29
 484  64040.86
 485  61620.4
 486  52331.22
 487  14626.18
 488  2691.26
 489  -2992.759
 490  -8617.707
 491  -7562.61
 492  -7164.661
 493  -7718.492
 494  -5780.821
 495  -6669.071
 496  -7334.846
 497  -8205.529
 498  -8855.02
 499  -8660.175
 500  -7727.92
 501  -7262.236
 502  -6055.387
 503  -6988.4
 504  -7722.336
 505  -7869.824
 506  -3122.562
 507  128.6495
 508  2642.004
 509  2628.316
 510  -2583.34
 511  -5407.307
