# Input file       =  1204908475.111136-PSRB0329-2ms-sampling-dd.dat
# Candidate        =  PSR_0332+5434
# Telescope        =  AR
# Epoch_topo       =  58189.700163323330
# Epoch_bary       =  N/A
# T_sample         =  0.002
# Data Folded      =  7340032
# Data Avg         =  1.0060473002065e-09
# Data StdDev      =  7.34296706680144 
# Profile Bins     =  512
# Profile Avg      =  0.198128360076909
# Profile StdDev   =  879.195742922732 
# Reduced chi-sqr  =  0.605
# Prob(Noise)      <  1   (~0.0 sigma)
# P_topo (ms)      =  714.578642688619  +/- 0.000767
# P'_topo (s/s)    =  -0                +/- 4.05e-10
# P''_topo (s/s^2) =  0                 +/- 1.79e-13
# P_bary (ms)      =  N/A
# P'_bary (s/s)    =  N/A
# P''_bary (s/s^2) =  N/A
# P_orb (s)        =  N/A
# asin(i)/c (s)    =  N/A
# eccentricity     =  N/A
# w (rad)          =  N/A
# T_peri           =  N/A
######################################################
   0  -322.7056
   1  -16.61669
   2  272.4941
   3  677.168
   4  577.2763
   5  202.6005
   6  -175.0542
   7  -569.8973
   8  -185.8549
   9  -117.8388
  10  247.382
  11  228.8574
  12  409.1972
  13  422.433
  14  371.3651
  15  352.5414
  16  58.54655
  17  487.3506
  18  317.8788
  19  16.72049
  20  157.5384
  21  291.6423
  22  -144.9964
  23  -120.823
  24  168.6468
  25  124.5447
  26  -322.5877
  27  -468.2576
  28  -567.9058
  29  -690.6838
  30  -151.6432
  31  -166.1795
  32  -643.3188
  33  -387.7337
  34  -518.4005
  35  -276.3173
  36  -175.5997
  37  -390.8317
  38  -574.1861
  39  -795.9394
  40  -629.9362
  41  -69.14635
  42  -195.3412
  43  -126.7603
  44  -68.85809
  45  9.334405
  46  66.89141
  47  -93.98282
  48  -477.8206
  49  -480.97
  50  -330.7133
  51  -361.8476
  52  -403.2927
  53  -577.2902
  54  -671.4905
  55  -822.2032
  56  -583.1498
  57  97.33734
  58  -174.2643
  59  -305.5462
  60  -332.6198
  61  -352.2331
  62  -516.3531
  63  -365.7044
  64  -414.3307
  65  -537.3507
  66  -672.3078
  67  -711.3721
  68  -793.5228
  69  -612.1605
  70  -698.1806
  71  -374.4215
  72  -259.7528
  73  -510.0073
  74  -577.6735
  75  -818.1213
  76  -715.8212
  77  -578.1035
  78  -72.93914
  79  -272.4394
  80  -437.0828
  81  -241.8782
  82  -138.7287
  83  -143.0573
  84  354.231
  85  302.4028
  86  -135.3587
  87  -102.2514
  88  -395.7125
  89  -523.0775
  90  -61.86406
  91  352.7794
  92  -3.242972
  93  -319.9787
  94  -572.7493
  95  -718.374
  96  -245.0643
  97  115.4048
  98  -157.8304
  99  -185.3459
 100  -251.1455
 101  -190.1945
 102  -378.4502
 103  -582.0252
 104  153.6884
 105  417.5053
 106  74.58963
 107  -85.85744
 108  -49.48385
 109  175.981
 110  449.737
 111  424.3513
 112  303.3847
 113  98.00662
 114  311.8073
 115  426.4043
 116  257.8518
 117  29.02649
 118  566.9093
 119  552.5641
 120  -73.30867
 121  -388.6036
 122  -385.8865
 123  -404.4303
 124  75.9803
 125  62.76023
 126  388.4868
 127  3.104492
 128  -318.9645
 129  -225.3648
 130  -39.06703
 131  115.1204
 132  -313.0558
 133  -292.9394
 134  -412.3464
 135  -375.509
 136  -782.8675
 137  -607.6794
 138  -425.5851
 139  -268.9424
 140  -158.2139
 141  -207.1293
 142  -3.231864
 143  14.29266
 144  -283.3691
 145  -134.2061
 146  38.19913
 147  115.8979
 148  173.4024
 149  364.4805
 150  519.8674
 151  486.4069
 152  399.9982
 153  181.8589
 154  720.9661
 155  806.0598
 156  1231.889
 157  1187.171
 158  849.6489
 159  721.461
 160  769.1599
 161  981.4786
 162  799.1182
 163  916.5536
 164  932.1946
 165  867.3297
 166  176.7431
 167  93.26119
 168  277.3594
 169  -366.7988
 170  -156.0046
 171  -388.0194
 172  -13.56653
 173  81.81892
 174  127.5102
 175  -56.79038
 176  -692.5041
 177  -812.4697
 178  -524.5317
 179  -257.4773
 180  -69.5602
 181  -330.1709
 182  -383.8516
 183  -490.8453
 184  -283.5222
 185  -283.3255
 186  -341.032
 187  -272.5789
 188  -109.395
 189  -96.50159
 190  -155.5731
 191  -181.2009
 192  -286.9475
 193  -215.6364
 194  -215.8615
 195  -310.834
 196  -532.1444
 197  42.94165
 198  468.8946
 199  112.4654
 200  213.8979
 201  61.15723
 202  57.28916
 203  -263.7181
 204  -364.3326
 205  -56.24048
 206  -375.8201
 207  -267.3083
 208  -396.1691
 209  -426.3853
 210  -773.7015
 211  -674.9629
 212  -569.5147
 213  -407.6242
 214  115.7713
 215  94.99303
 216  -386.6152
 217  -569.1675
 218  -373.3923
 219  -309.5483
 220  -236.977
 221  546.9867
 222  687.1841
 223  435.7873
 224  312.0273
 225  -152.4401
 226  -157.9814
 227  -716.7392
 228  -630.4837
 229  -612.6318
 230  -506.728
 231  -94.34818
 232  32.76086
 233  -45.57683
 234  -5.417252
 235  -80.32359
 236  -300.694
 237  -501.1799
 238  1.670128
 239  -80.88126
 240  -236.8394
 241  -18.15833
 242  56.90116
 243  84.96892
 244  111.1105
 245  128.3403
 246  202.8792
 247  457.2825
 248  218.192
 249  116.9358
 250  372.0157
 251  126.6062
 252  167.6423
 253  158.5107
 254  125.0317
 255  548.7595
 256  340.684
 257  98.48009
 258  745.686
 259  1337.991
 260  523.7919
 261  188.0144
 262  740.9684
 263  472.6827
 264  97.14594
 265  508.7791
 266  439.2333
 267  229.8353
 268  199.5152
 269  148.9579
 270  278.4106
 271  155.3397
 272  656.3628
 273  860.5117
 274  470.4591
 275  305.9067
 276  344.2226
 277  117.4241
 278  99.46098
 279  512.0159
 280  420.0092
 281  643.1853
 282  365.8781
 283  713.5132
 284  619.3295
 285  336.6622
 286  781.5223
 287  634.8887
 288  1635.413
 289  1627.257
 290  1678.216
 291  1285.662
 292  1329.193
 293  1654.707
 294  2104.213
 295  2332.348
 296  1995.601
 297  1461.913
 298  693.2313
 299  614.8876
 300  817.4363
 301  466.6819
 302  602.1711
 303  431.424
 304  124.9826
 305  113.0141
 306  643.6503
 307  1340.687
 308  1412.367
 309  1765.281
 310  1315.11
 311  838.5854
 312  455.3496
 313  -139.3417
 314  -5.267513
 315  110.6722
 316  254.882
 317  141.6157
 318  169.9691
 319  242.5229
 320  267.0291
 321  116.7832
 322  -108.6598
 323  58.78062
 324  -37.61807
 325  233.5117
 326  37.85064
 327  197.2666
 328  22.59057
 329  180.4403
 330  154.0297
 331  259.736
 332  321.8335
 333  464.2935
 334  380.1257
 335  -127.3715
 336  -225.9227
 337  -421.731
 338  -382.6688
 339  -69.25764
 340  138.9804
 341  -190.6668
 342  -466.7784
 343  -156.1844
 344  122.0327
 345  -149.513
 346  81.8182
 347  -105.2519
 348  -77.56836
 349  -151.6622
 350  277.9398
 351  245.4129
 352  95.8148
 353  277.4668
 354  139.5979
 355  -157.8637
 356  -168.2424
 357  72.63075
 358  -292.3655
 359  -383.291
 360  -180.1674
 361  104.4176
 362  149.5835
 363  -138.6566
 364  -83.1808
 365  -125.866
 366  93.46761
 367  21.23238
 368  -866.1559
 369  -473.9945
 370  -305.9031
 371  -605.6271
 372  -197.6689
 373  -357.3823
 374  72.18768
 375  -162.09
 376  -491.7383
 377  -816.8763
 378  -602.7042
 379  -361.67
 380  -684.6061
 381  -499.1443
 382  -461.6292
 383  -315.9075
 384  -368.9745
 385  -770.0887
 386  -1145.082
 387  -943.9835
 388  -447.2374
 389  -160.5284
 390  -106.4075
 391  -436.0205
 392  -80.54312
 393  -825.9399
 394  -1139.396
 395  -933.7805
 396  -297.7951
 397  -362.0649
 398  -323.8726
 399  124.6559
 400  159.7437
 401  -388.8032
 402  -932.5389
 403  -452.8895
 404  -368.8736
 405  -626.3626
 406  -289.0633
 407  95.84878
 408  24.21799
 409  -141.3362
 410  -157.5272
 411  -342.5434
 412  121.6496
 413  -315.2399
 414  -178.6838
 415  359.0599
 416  114.9707
 417  -142.3048
 418  -401.5518
 419  -460.846
 420  -374.037
 421  -343.4194
 422  176.5719
 423  230.2704
 424  259.9979
 425  207.7539
 426  -515.0031
 427  -510.9933
 428  -677.743
 429  -768.7262
 430  -434.5008
 431  -380.1621
 432  -150.4703
 433  -80.0063
 434  -430.6032
 435  -845.2218
 436  -751.0147
 437  -650.5621
 438  -449.0878
 439  -280.3235
 440  -343.6461
 441  -520.7527
 442  -373.3878
 443  -198.2243
 444  -162.4987
 445  -479.959
 446  -145.6371
 447  -118.1672
 448  168.4697
 449  157.1652
 450  -100.1751
 451  -104.0002
 452  38.39583
 453  -51.6855
 454  29.57695
 455  342.0205
 456  487.6732
 457  1060.926
 458  848.3228
 459  328.032
 460  436.0308
 461  893.6175
 462  527.4287
 463  580.9283
 464  671.4841
 465  632.16
 466  660.9954
 467  -183.9129
 468  -443.4442
 469  -28.74843
 470  321.933
 471  127.9106
 472  127.4746
 473  448.8447
 474  6.855408
 475  5.964387
 476  -465.6841
 477  -189.8162
 478  -86.54412
 479  -212.0131
 480  -418.3967
 481  242.2357
 482  225.2824
 483  26.09541
 484  -123.7434
 485  -532.8123
 486  -824.7686
 487  -621.353
 488  142.2577
 489  279.1671
 490  417.9477
 491  314.7466
 492  -116.4662
 493  -273.1729
 494  57.92487
 495  -187.0776
 496  -461.6604
 497  174.6894
 498  692.4832
 499  767.9643
 500  362.761
 501  278.7589
 502  231.5599
 503  357.7032
 504  -81.31538
 505  56.81144
 506  28.36796
 507  286.2564
 508  208.4052
 509  28.5286
 510  -127.6174
 511  -464.2484
