# Input file       =  1204808031.109151_cleaned.dat
# Candidate        =  PSR_0332+5434
# Telescope        =  AR
# Epoch_topo       =  58188.537617004062
# Epoch_bary       =  N/A
# T_sample         =  0.002
# Data Folded      =  7340032
# Data Avg         =  0.0174524051111356
# Data StdDev      =  1.00007275656913 
# Profile Bins     =  512
# Profile Avg      =  250.090742832531 
# Profile StdDev   =  119.741747741704 
# Reduced chi-sqr  =  1.011
# Prob(Noise)      <  0.419   (~0.2 sigma)
# P_topo (ms)      =  714.578642682803  +/- 0.000887
# P'_topo (s/s)    =  -0                +/- 4.68e-10
# P''_topo (s/s^2) =  0                 +/- 2.07e-13
# P_bary (ms)      =  N/A
# P'_bary (s/s)    =  N/A
# P''_bary (s/s^2) =  N/A
# P_orb (s)        =  N/A
# asin(i)/c (s)    =  N/A
# eccentricity     =  N/A
# w (rad)          =  N/A
# T_peri           =  N/A
######################################################
   0  235.1133
   1  286.6772
   2  252.0861
   3  269.7975
   4  262.7433
   5  292.6668
   6  283.6699
   7  345.002
   8  383.1926
   9  429.0258
  10  431.1709
  11  397.2404
  12  360.0754
  13  402.8931
  14  369.6151
  15  322.8264
  16  350.6145
  17  415.112
  18  327.8607
  19  277.6976
  20  303.167
  21  282.4338
  22  235.9537
  23  196.5059
  24  302.9905
  25  336.5607
  26  315.2597
  27  257.9917
  28  254.0887
  29  316.471
  30  294.5532
  31  273.3025
  32  302.5427
  33  293.4244
  34  243.3081
  35  215.9028
  36  226.2707
  37  263.4568
  38  248.5194
  39  239.5358
  40  237.9088
  41  210.6293
  42  183.9042
  43  205.9148
  44  266.2993
  45  270.6078
  46  233.5501
  47  243.7183
  48  276.3739
  49  256.861
  50  273.6775
  51  241.4177
  52  301.0188
  53  283.7499
  54  198.1996
  55  238.604
  56  240.6734
  57  240.7859
  58  316.0129
  59  323.4508
  60  244.0989
  61  193.3768
  62  198.8697
  63  223.5567
  64  171.3942
  65  253.8552
  66  251.4483
  67  241.1424
  68  243.2623
  69  310.2634
  70  301.0628
  71  272.8014
  72  257.7389
  73  334.2197
  74  391.2324
  75  335.6211
  76  247.877
  77  287.2057
  78  281.0629
  79  305.9303
  80  297.2001
  81  339.9979
  82  271.3073
  83  218.427
  84  205.9707
  85  216.6654
  86  252.4881
  87  241.9931
  88  248.0744
  89  258.2042
  90  199.1007
  91  181.7974
  92  169.8743
  93  211.3986
  94  165.2213
  95  171.7282
  96  136.1379
  97  120.3224
  98  174.2232
  99  257.9654
 100  208.8668
 101  215.599
 102  208.1435
 103  252.2498
 104  174.585
 105  165.8391
 106  132.4993
 107  139.029
 108  130.9904
 109  178.0855
 110  266.4129
 111  182.9174
 112  250.5824
 113  230.08
 114  169.6524
 115  191.1914
 116  205.0381
 117  231.6905
 118  233.4843
 119  255.9666
 120  257.1933
 121  296.3663
 122  314.7073
 123  350.6822
 124  288.444
 125  271.6176
 126  295.929
 127  261.1418
 128  241.9846
 129  279.2358
 130  293.2256
 131  158.5935
 132  114.5372
 133  216.1628
 134  216.8557
 135  182.7502
 136  214.4165
 137  228.1051
 138  148.1369
 139  153.4286
 140  196.7345
 141  187.0246
 142  186.695
 143  219.6969
 144  229.2955
 145  265.5572
 146  202.0244
 147  260.5888
 148  264.1746
 149  237.7628
 150  204.0647
 151  151.8294
 152  159.4325
 153  98.36567
 154  141.4139
 155  213.1977
 156  217.9157
 157  197.5044
 158  104.4246
 159  171.5229
 160  263.0741
 161  198.49
 162  172.5122
 163  156.4416
 164  155.4837
 165  146.5846
 166  158.3974
 167  115.0206
 168  79.07543
 169  145.9397
 170  188.5454
 171  130.4526
 172  122.7793
 173  213.2733
 174  247.5762
 175  210.6984
 176  195.1363
 177  152.4488
 178  164.5732
 179  172.7493
 180  182.0643
 181  231.365
 182  254.0343
 183  181.5316
 184  199.2437
 185  182.6259
 186  134.4176
 187  167.7682
 188  208.1033
 189  249.6482
 190  259.5978
 191  257.1402
 192  199.0497
 193  184.8962
 194  168.4645
 195  207.807
 196  221.2253
 197  252.5093
 198  227.7982
 199  129.1401
 200  114.1312
 201  72.21696
 202  84.40331
 203  107.8658
 204  113.9061
 205  97.36198
 206  93.41373
 207  30.81113
 208  66.35025
 209  91.24135
 210  73.84441
 211  142.9816
 212  92.79323
 213  131.2745
 214  189.456
 215  189.4707
 216  142.6019
 217  150.8682
 218  101.0162
 219  117.5162
 220  125.4601
 221  72.64975
 222  87.16434
 223  128.8018
 224  137.8192
 225  55.27864
 226  65.04805
 227  67.48624
 228  37.54741
 229  55.49801
 230  106.1956
 231  24.81883
 232  -16.86181
 233  68.01414
 234  50.84752
 235  48.57244
 236  62.53816
 237  81.16522
 238  49.67915
 239  63.47789
 240  93.45073
 241  31.14558
 242  46.76985
 243  109.3514
 244  126.8533
 245  112.3743
 246  142.4143
 247  73.48571
 248  101.4564
 249  123.8279
 250  112.6936
 251  172.4211
 252  221.6511
 253  184.2197
 254  170.3043
 255  182.5649
 256  160.1471
 257  219.4375
 258  241.2863
 259  331.4289
 260  479.0091
 261  511.0524
 262  495.7356
 263  445.6885
 264  347.9782
 265  255.778
 266  227.1637
 267  240.6033
 268  183.7371
 269  190.1758
 270  239.5203
 271  236.9187
 272  184.9047
 273  204.3936
 274  236.5036
 275  239.6563
 276  192.1374
 277  194.37
 278  150.6334
 279  165.2325
 280  234.4385
 281  281.2388
 282  255.128
 283  281.2361
 284  320.5631
 285  273.6026
 286  291.7902
 287  257.4539
 288  286.4736
 289  268.3384
 290  262.4012
 291  244.0003
 292  249.6322
 293  220.7793
 294  217.1667
 295  251.4828
 296  311.8639
 297  258.3064
 298  236.7244
 299  252.5467
 300  261.4402
 301  229.4976
 302  250.48
 303  227.0008
 304  243.8351
 305  259.2908
 306  239.6212
 307  185.1442
 308  317.2236
 309  331.5168
 310  317.0836
 311  341.1278
 312  346.7172
 313  361.6428
 314  388.8459
 315  393.9498
 316  398.5477
 317  360.1079
 318  354.0256
 319  425.5492
 320  458.5074
 321  370.8639
 322  364.5471
 323  373.864
 324  395.9485
 325  337.3172
 326  266.9904
 327  283.2687
 328  303.1886
 329  330.2439
 330  293.1294
 331  332.001
 332  342.4849
 333  346.192
 334  305.826
 335  263.6535
 336  249.0988
 337  255.9105
 338  302.6448
 339  314.3985
 340  342.5295
 341  301.5559
 342  265.4839
 343  272.445
 344  247.5573
 345  259.4308
 346  273.8604
 347  235.8875
 348  279.0636
 349  309.0325
 350  314.622
 351  324.6716
 352  314.5069
 353  273.2947
 354  251.211
 355  231.1263
 356  194.5055
 357  275.2113
 358  276.747
 359  265.1599
 360  261.055
 361  295.0138
 362  316.6844
 363  295.5039
 364  198.6176
 365  259.7028
 366  289.9565
 367  238.9266
 368  203.4897
 369  224.0884
 370  249.6621
 371  234.8519
 372  230.3063
 373  265.0582
 374  269.869
 375  252.7007
 376  275.8119
 377  301.7723
 378  303.0603
 379  264.4342
 380  231.5305
 381  163.3608
 382  245.6301
 383  304.6064
 384  316.5249
 385  280.2973
 386  293.0008
 387  298.0094
 388  295.8695
 389  296.5752
 390  260.6301
 391  224.4554
 392  225.62
 393  248.9389
 394  269.0317
 395  297.1467
 396  255.6444
 397  271.3476
 398  234.37
 399  200.4343
 400  254.3533
 401  292.4537
 402  342.5353
 403  283.8229
 404  302.6972
 405  259.6564
 406  279.626
 407  324.8073
 408  287.5397
 409  339.0869
 410  405.0959
 411  441.6299
 412  399.3469
 413  359.8417
 414  422.3098
 415  414.1261
 416  431.7081
 417  414.4296
 418  433.3851
 419  406.4925
 420  420.9305
 421  508.7086
 422  466.0421
 423  443.4047
 424  377.3061
 425  324.9798
 426  293.2094
 427  336.4201
 428  276.0317
 429  262.5953
 430  336.188
 431  325.9869
 432  305.9426
 433  378.2611
 434  348.707
 435  328.6151
 436  315.9097
 437  308.1786
 438  302.069
 439  342.2135
 440  393.2856
 441  360.5195
 442  346.1421
 443  390.0031
 444  385.3264
 445  354.5147
 446  400.5721
 447  405.5183
 448  351.4418
 449  325.6059
 450  343.1016
 451  384.0997
 452  316.016
 453  311.194
 454  301.4905
 455  337.3613
 456  299.1895
 457  271.682
 458  338.596
 459  305.7004
 460  311.7158
 461  371.6915
 462  350.1801
 463  282.7416
 464  253.3345
 465  237.3232
 466  259.7123
 467  249.5248
 468  285.4135
 469  293.5225
 470  317.611
 471  299.1093
 472  289.248
 473  262.1304
 474  284.5425
 475  340.095
 476  295.4343
 477  241.379
 478  281.4655
 479  317.2574
 480  294.3049
 481  245.8024
 482  271.7409
 483  247.6596
 484  258.1219
 485  193.9346
 486  246.5644
 487  235.1572
 488  282.3078
 489  245.7581
 490  241.6518
 491  308.4108
 492  296.5071
 493  319.7687
 494  277.5788
 495  253.9512
 496  286.062
 497  306.3039
 498  266.7736
 499  307.3027
 500  306.1275
 501  318.8676
 502  283.9398
 503  276.7682
 504  251.2983
 505  244.6748
 506  202.8478
 507  220.9412
 508  213.3611
 509  216.0599
 510  196.6932
 511  177.0722
