# Input file       =  1204721893.107728_cleaned.dat
# Candidate        =  PSR_0332+5434
# Telescope        =  AR
# Epoch_topo       =  58187.540649394999
# Epoch_bary       =  N/A
# T_sample         =  0.002
# Data Folded      =  7340032
# Data Avg         =  0.0113196125123047
# Data StdDev      =  1.0000913956546  
# Profile Bins     =  512
# Profile Avg      =  162.210636297708 
# Profile StdDev   =  119.743979456003 
# Reduced chi-sqr  =  0.941
# Prob(Noise)      <  0.828   (~0.0 sigma)
# P_topo (ms)      =  714.578902174409  +/- 0.000448
# P'_topo (s/s)    =  -0                +/- 2.36e-10
# P''_topo (s/s^2) =  0                 +/- 1.04e-13
# P_bary (ms)      =  N/A
# P'_bary (s/s)    =  N/A
# P''_bary (s/s^2) =  N/A
# P_orb (s)        =  N/A
# asin(i)/c (s)    =  N/A
# eccentricity     =  N/A
# w (rad)          =  N/A
# T_peri           =  N/A
######################################################
   0  85.24194
   1  122.3563
   2  155.8122
   3  126.8832
   4  85.40439
   5  154.5259
   6  266.2078
   7  173.5576
   8  145.9864
   9  133.9747
  10  125.0152
  11  182.4785
  12  237.6765
  13  289.152
  14  194.4685
  15  122.9416
  16  166.3958
  17  200.1446
  18  231.1583
  19  211.9892
  20  172.659
  21  208.587
  22  207.4343
  23  250.1176
  24  299.1809
  25  310.5396
  26  286.6729
  27  297.1138
  28  392.8002
  29  343.6385
  30  279.438
  31  301.8566
  32  259.7536
  33  257.0251
  34  196.2268
  35  216.9113
  36  261.8935
  37  192.2427
  38  189.5596
  39  190.6382
  40  236.8942
  41  224.0648
  42  167.1234
  43  143.8676
  44  100.5461
  45  90.42533
  46  117.3557
  47  171.4848
  48  196.5007
  49  151.9929
  50  173.1667
  51  177.1172
  52  210.6381
  53  153.4818
  54  88.26524
  55  22.09008
  56  80.68215
  57  125.945
  58  42.90866
  59  -28.81847
  60  19.40302
  61  61.95811
  62  112.7914
  63  141.0399
  64  134.7309
  65  14.34251
  66  32.49997
  67  68.27837
  68  89.43078
  69  78.08497
  70  7.078402
  71  8.542924
  72  59.3913
  73  46.35479
  74  67.79794
  75  112.2198
  76  47.13613
  77  -19.65387
  78  71.47139
  79  113.9726
  80  46.24797
  81  33.46469
  82  37.23064
  83  43.49273
  84  27.40056
  85  130.372
  86  149.3893
  87  202.7566
  88  155.8783
  89  107.0035
  90  149.8221
  91  168.9595
  92  220.3606
  93  184.7177
  94  109.3991
  95  218.5245
  96  247.508
  97  170.3253
  98  197.9247
  99  279.5984
 100  327.9258
 101  292.3644
 102  315.1694
 103  372.5171
 104  479.1996
 105  471.0306
 106  512.4041
 107  516.0857
 108  311.2035
 109  221.5856
 110  194.5018
 111  112.3539
 112  132.609
 113  234.877
 114  250.8931
 115  188.5043
 116  183.5796
 117  269.8454
 118  278.3703
 119  248.8755
 120  182.6384
 121  170.9428
 122  94.02805
 123  133.8752
 124  187.0742
 125  233.2346
 126  251.1923
 127  226.9562
 128  201.1695
 129  224.0946
 130  193.7579
 131  179.4513
 132  158.8964
 133  175.7562
 134  243.7271
 135  247.7794
 136  246.8133
 137  250.6111
 138  240.4875
 139  285.4195
 140  286.683
 141  283.0376
 142  213.8029
 143  217.3622
 144  264.7704
 145  291.9046
 146  253.1445
 147  173.9773
 148  216.6534
 149  232.0688
 150  259.6862
 151  208.9174
 152  104.5795
 153  127.4754
 154  170.1858
 155  240.9861
 156  209.7667
 157  262.689
 158  306.0212
 159  246.2244
 160  288.6348
 161  245.6008
 162  229.4579
 163  239.2419
 164  216.3044
 165  222.2686
 166  177.4939
 167  221.9003
 168  248.0146
 169  239.4266
 170  144.2973
 171  122.1805
 172  187.526
 173  226.7121
 174  210.4826
 175  217.5581
 176  161.2392
 177  241.5802
 178  290.4297
 179  281.1487
 180  233.9883
 181  257.9054
 182  254.3104
 183  271.7176
 184  264.8708
 185  149.6884
 186  174.5811
 187  195.5401
 188  170.0978
 189  236.425
 190  282.2226
 191  220.9621
 192  177.1455
 193  133.4824
 194  146.2377
 195  218.6538
 196  165.5773
 197  189.7372
 198  156.9623
 199  196.0609
 200  165.2354
 201  127.8326
 202  140.1707
 203  176.4332
 204  195.2447
 205  50.17877
 206  76.91724
 207  55.78446
 208  35.4781
 209  5.775451
 210  14.0595
 211  85.69808
 212  67.28553
 213  91.1178
 214  38.04788
 215  59.77898
 216  92.4511
 217  94.981
 218  116.6625
 219  166.4737
 220  93.078
 221  86.78499
 222  102.6565
 223  95.67065
 224  69.84468
 225  126.3541
 226  171.8502
 227  151.4871
 228  80.51659
 229  127.1333
 230  121.5438
 231  90.12952
 232  44.96231
 233  3.021561
 234  99.04088
 235  138.9505
 236  165.2642
 237  89.52657
 238  110.1295
 239  143.9309
 240  230.5734
 241  239.6592
 242  234.3954
 243  237.4879
 244  220.373
 245  173.9563
 246  195.2111
 247  225.1978
 248  215.6966
 249  267.6345
 250  229.1032
 251  185.9158
 252  213.3754
 253  175.0508
 254  242.4894
 255  220.2667
 256  246.7318
 257  291.4889
 258  328.7464
 259  278.9117
 260  186.2838
 261  186.3946
 262  190.7556
 263  145.5834
 264  264.9851
 265  215.6667
 266  123.874
 267  115.5974
 268  199.0729
 269  144.5673
 270  241.437
 271  230.5709
 272  161.0725
 273  149.2569
 274  135.353
 275  115.4711
 276  129.6437
 277  167.8994
 278  127.7388
 279  -4.0423
 280  -5.974004
 281  138.1487
 282  117.9805
 283  162.0685
 284  148.3911
 285  182.9858
 286  177.9715
 287  193.5863
 288  191.1829
 289  190.8662
 290  92.74083
 291  107.1324
 292  58.49196
 293  43.73283
 294  34.32553
 295  44.74279
 296  119.3816
 297  95.56976
 298  146.8227
 299  211.2826
 300  239.2031
 301  102.7452
 302  110.0213
 303  156.0248
 304  84.62573
 305  152.3985
 306  194.4599
 307  210.1899
 308  247.0352
 309  276.2194
 310  190.5641
 311  196.7667
 312  182.7814
 313  191.7592
 314  209.6938
 315  316.9791
 316  166.6191
 317  167.0157
 318  260.1912
 319  246.0673
 320  267.0627
 321  280.0753
 322  287.2711
 323  365.6346
 324  278.9831
 325  190.8021
 326  214.1738
 327  257.5754
 328  292.7216
 329  229.8644
 330  214.9328
 331  223.9175
 332  215.5379
 333  218.877
 334  197.6172
 335  172.3112
 336  212.8655
 337  264.2509
 338  152.7163
 339  175.0733
 340  197.7525
 341  218.1419
 342  242.4248
 343  193.1645
 344  157.2065
 345  177.022
 346  182.4123
 347  172.8829
 348  242.6268
 349  224.4835
 350  108.5719
 351  75.00562
 352  102.8288
 353  159.2578
 354  134.2302
 355  108.5894
 356  192.7291
 357  177.9368
 358  165.7198
 359  134.6951
 360  152.7898
 361  151.3197
 362  140.2457
 363  155.1185
 364  76.36338
 365  30.47255
 366  99.84798
 367  73.50666
 368  17.58973
 369  63.8412
 370  113.3284
 371  40.79087
 372  -36.15676
 373  10.15
 374  3.637645
 375  -4.337916
 376  -92.71589
 377  -72.6447
 378  -74.79384
 379  -57.83217
 380  -9.098592
 381  50.17712
 382  110.2509
 383  82.59879
 384  95.03419
 385  -19.5539
 386  12.35817
 387  105.4568
 388  205.7543
 389  202.033
 390  169.94
 391  152.3363
 392  84.67966
 393  115.5653
 394  90.54085
 395  153.8041
 396  193.5298
 397  167.1925
 398  216.6847
 399  222.4331
 400  158.5485
 401  98.79438
 402  78.03429
 403  92.28693
 404  125.8537
 405  155.1013
 406  131.6691
 407  189.6194
 408  208.8237
 409  182.6519
 410  103.9165
 411  108.0038
 412  108.9241
 413  53.93755
 414  145.1642
 415  162.6026
 416  127.9162
 417  181.1079
 418  175.4179
 419  262.8724
 420  234.6973
 421  87.09142
 422  165.8689
 423  159.0322
 424  172.6599
 425  158.8747
 426  170.1272
 427  195.6471
 428  244.3524
 429  272.0632
 430  176.946
 431  155.8302
 432  152.3516
 433  138.453
 434  128.8296
 435  179.6212
 436  171.5381
 437  193.5004
 438  171.9943
 439  148.1234
 440  91.09478
 441  91.08191
 442  22.00985
 443  78.67638
 444  134.7152
 445  98.54006
 446  -5.883474
 447  89.83801
 448  10.74048
 449  59.00953
 450  63.577
 451  83.19627
 452  42.34383
 453  -41.77214
 454  23.52496
 455  59.11972
 456  127.5145
 457  169.0843
 458  171.2596
 459  129.9153
 460  98.61184
 461  69.91187
 462  152.6762
 463  188.3567
 464  116.6513
 465  195.0901
 466  193.9057
 467  225.0044
 468  215.1535
 469  131.1623
 470  134.4541
 471  138.0694
 472  161.0952
 473  217.6564
 474  253.4067
 475  250.4934
 476  164.1194
 477  186.2957
 478  122.4894
 479  94.31197
 480  107.5443
 481  181.4582
 482  165.5323
 483  153.0365
 484  153.8622
 485  211.5934
 486  103.6353
 487  126.3096
 488  101.8955
 489  99.81863
 490  95.19943
 491  65.46748
 492  43.44139
 493  44.94423
 494  98.10223
 495  75.22758
 496  53.6842
 497  112.0307
 498  120.2936
 499  80.48661
 500  123.6867
 501  143.3731
 502  157.3884
 503  176.5927
 504  173.1892
 505  165.3887
 506  150.2781
 507  81.39049
 508  163.9545
 509  198.2314
 510  158.8228
 511  120.6896
