# Input file       =  1204878933.116375_cleaned.dat
# Candidate        =  PSR_0332+5434
# Telescope        =  AR
# Epoch_topo       =  58189.358242087670
# Epoch_bary       =  N/A
# T_sample         =  0.002
# Data Folded      =  7208960
# Data Avg         =  0.49500856260261 
# Data StdDev      =  5.79059963086341 
# Profile Bins     =  1024
# Profile Avg      =  3484.69718515831 
# Profile StdDev   =  485.858570324828 
# Reduced chi-sqr  =  1.026
# Prob(Noise)      <  0.278   (~0.6 sigma)
# P_topo (ms)      =  714.578397180726  +/- 5.68e-05
# P'_topo (s/s)    =  -0                +/- 3.05e-11
# P''_topo (s/s^2) =  0                 +/- 1.37e-14
# P_bary (ms)      =  N/A
# P'_bary (s/s)    =  N/A
# P''_bary (s/s^2) =  N/A
# P_orb (s)        =  N/A
# asin(i)/c (s)    =  N/A
# eccentricity     =  N/A
# w (rad)          =  N/A
# T_peri           =  N/A
######################################################
   0  4252.926
   1  4196.905
   2  4084.208
   3  3853.82
   4  3767.459
   5  3613.904
   6  3815.719
   7  3893.806
   8  3802.185
   9  3686.011
  10  3565.854
  11  3505.117
  12  3497.278
  13  3583.062
  14  3656.851
  15  3618.13
  16  3697.062
  17  3748.521
  18  3755.054
  19  3836.403
  20  3767.448
  21  3608.69
  22  3510.401
  23  3398.62
  24  3447.958
  25  3383.934
  26  3615.553
  27  3830.803
  28  3813.045
  29  3754.912
  30  3772.84
  31  4053.564
  32  4160.155
  33  4068.184
  34  4107.654
  35  3974.062
  36  3915.212
  37  3812.807
  38  3757.119
  39  3723.699
  40  3545.125
  41  3660.336
  42  3602.544
  43  3543.559
  44  3548.882
  45  3482.531
  46  3538.889
  47  3535.154
  48  3565.996
  49  3622.273
  50  3508.386
  51  3615.906
  52  3664.621
  53  3657.92
  54  3575.313
  55  3566.268
  56  3697.853
  57  3839.483
  58  3733.6
  59  3855.662
  60  3825.738
  61  3929.986
  62  3804.335
  63  3811.068
  64  3966.249
  65  4069.867
  66  4153.689
  67  4204.968
  68  4127.696
  69  4197.096
  70  4060.23
  71  4089
  72  3993.562
  73  3912.836
  74  3855.691
  75  3748.571
  76  3663.485
  77  3702.955
  78  3841.644
  79  4016.598
  80  3926.075
  81  3908.761
  82  3847.757
  83  3864.574
  84  3873.343
  85  3625.334
  86  3523.79
  87  3363.752
  88  3352.575
  89  3316.77
  90  3427.282
  91  3521.889
  92  3461.693
  93  3521.249
  94  3521.407
  95  3614.571
  96  3718.392
  97  3924.89
  98  3934.4
  99  3890.701
 100  3980.625
 101  3950.251
 102  3914.746
 103  3647.425
 104  3539.849
 105  3546.499
 106  3566.395
 107  3611.651
 108  3574.95
 109  3554.302
 110  3431.133
 111  3465.02
 112  3415.947
 113  3440.049
 114  3448.854
 115  3334.574
 116  3147.506
 117  3136.724
 118  3068.772
 119  3141.349
 120  3192.158
 121  3251.956
 122  3305.721
 123  3280.881
 124  3248.154
 125  3356.828
 126  3484.543
 127  3532.279
 128  3583.625
 129  3826.63
 130  4044.114
 131  3929.439
 132  3878.257
 133  3790.048
 134  3833.411
 135  3763.406
 136  3565.755
 137  3423.658
 138  3227.724
 139  3289.946
 140  3314.346
 141  3213.21
 142  3039.899
 143  3062.291
 144  3076.149
 145  3239.035
 146  3174.745
 147  3285.94
 148  3229.135
 149  3346.389
 150  3496.681
 151  3477.362
 152  3444.433
 153  3231.186
 154  3148.504
 155  3144.232
 156  3154.643
 157  3275.098
 158  3108.968
 159  3140.851
 160  3109.593
 161  3410.272
 162  3587.782
 163  3557.668
 164  3516.044
 165  3762.198
 166  3856.104
 167  4006.29
 168  3715.42
 169  3677.075
 170  3447.723
 171  3276.598
 172  3298.315
 173  3294.575
 174  3359.057
 175  3106.626
 176  3086.399
 177  3143.875
 178  3176.76
 179  3268.672
 180  3289.833
 181  3284.501
 182  3335.041
 183  3132.586
 184  3223.837
 185  3089.217
 186  3175.972
 187  3259.114
 188  3133.727
 189  3160.424
 190  3136.588
 191  3114.739
 192  3175.511
 193  3225.192
 194  3393.486
 195  3363.696
 196  3396.431
 197  3469.021
 198  3476.593
 199  3562.378
 200  3551.9
 201  3476.853
 202  3455.845
 203  3165.183
 204  3318.224
 205  3210.587
 206  3202.644
 207  3160.261
 208  3219.826
 209  3324.68
 210  3210.705
 211  3310.911
 212  3268.623
 213  3276.689
 214  3118.382
 215  3136.501
 216  3125.688
 217  3283.059
 218  3206.627
 219  3269.139
 220  3204.663
 221  3215.414
 222  3288.987
 223  3390.073
 224  3377.887
 225  3180.308
 226  3246.681
 227  3401.378
 228  3610.742
 229  3703.662
 230  3979.96
 231  3994.377
 232  3984.81
 233  3843.13
 234  3910.935
 235  3886.521
 236  3717.332
 237  3517.491
 238  3412.79
 239  3341.849
 240  3184.19
 241  3128.802
 242  3140.734
 243  3207.019
 244  3233.822
 245  3254.448
 246  3230.875
 247  3315.899
 248  3434.35
 249  3549.321
 250  3477.357
 251  3340.119
 252  3397.482
 253  3502.138
 254  3539.622
 255  3507.291
 256  3385.098
 257  3333.03
 258  3286.727
 259  3314.443
 260  3494.234
 261  3559.363
 262  3744.125
 263  3895.674
 264  3943.771
 265  4108.631
 266  3921.936
 267  3951.634
 268  3853.214
 269  3836.152
 270  3758.564
 271  3549.738
 272  3582.418
 273  3444.968
 274  3298.362
 275  3267.94
 276  3287.488
 277  3390.648
 278  3396.783
 279  3355.192
 280  3549.032
 281  3582.841
 282  3724.475
 283  3602.27
 284  3448.778
 285  3457.207
 286  3151.251
 287  3209.496
 288  3251.114
 289  3426.67
 290  3538.682
 291  3597.894
 292  3648.569
 293  3551.492
 294  3725.877
 295  4046.041
 296  4113.178
 297  4084.046
 298  4002
 299  4069.115
 300  4118.574
 301  3760.621
 302  3706.95
 303  3701.376
 304  3817.684
 305  3821.463
 306  3716.831
 307  3766.878
 308  3490.825
 309  3422.226
 310  3546.416
 311  3672.45
 312  3674.215
 313  3580.816
 314  3622.269
 315  3609.111
 316  3585.119
 317  3829.289
 318  3756.623
 319  3632.582
 320  3590.744
 321  3601.226
 322  3571.846
 323  3439.257
 324  3463.275
 325  3595.568
 326  3687.179
 327  3727.926
 328  3602.151
 329  3571.287
 330  3760.748
 331  3958.605
 332  4128.104
 333  4010.839
 334  3811.569
 335  3774.133
 336  3647.259
 337  3699.815
 338  3498.83
 339  3461.975
 340  3333.812
 341  3325.119
 342  3447.486
 343  3355.359
 344  3281.502
 345  3308.77
 346  3399.002
 347  3405.984
 348  3230.664
 349  3292.443
 350  3527.562
 351  3502.928
 352  3573.186
 353  3484.378
 354  3616.056
 355  3510.427
 356  3566.848
 357  3536.154
 358  3469.439
 359  3631.131
 360  3905.805
 361  4002.575
 362  3927.828
 363  3891.664
 364  3950.747
 365  3847.712
 366  3562.999
 367  3515.514
 368  3349.076
 369  3377.39
 370  3333.986
 371  3632.547
 372  3673.598
 373  3593.759
 374  3469.528
 375  3399.796
 376  3370.653
 377  3304.927
 378  3474.148
 379  3511.411
 380  3458.817
 381  3292.623
 382  3448.67
 383  3469.278
 384  3405.56
 385  3387.094
 386  3411.542
 387  3411.723
 388  3263.565
 389  3194.923
 390  3406.979
 391  3582.876
 392  3593.632
 393  3674.17
 394  3649.092
 395  3846.242
 396  3849.056
 397  3866.529
 398  3709.518
 399  3528.48
 400  3580.517
 401  3375.804
 402  3370.741
 403  3335.481
 404  3416.165
 405  3359.397
 406  3267.132
 407  3143.394
 408  3138.535
 409  3068.468
 410  3148.174
 411  3117.272
 412  3184.928
 413  3201.996
 414  3185.522
 415  3181.024
 416  2984.539
 417  2955.354
 418  3129.039
 419  3145.741
 420  3171.071
 421  3058.828
 422  3237.485
 423  3452.946
 424  3573.731
 425  3687.511
 426  3620.832
 427  3535.328
 428  3544.271
 429  3749.136
 430  3987.733
 431  3792.013
 432  3590.162
 433  3675.216
 434  3664.567
 435  3653.266
 436  3486.157
 437  3498.5
 438  3430.994
 439  3317.48
 440  3440.733
 441  3505.583
 442  3499.23
 443  3539.472
 444  3486.134
 445  3542.664
 446  3334.333
 447  3317.601
 448  3331.008
 449  3222.101
 450  3254.022
 451  3165.827
 452  3315.571
 453  3265.889
 454  3135.259
 455  3163.748
 456  3210.079
 457  3355.209
 458  3439.279
 459  3366.814
 460  3406.446
 461  3521.412
 462  3791.877
 463  4003.452
 464  3987.814
 465  3941.923
 466  3607.046
 467  3518.719
 468  3290.497
 469  3297.736
 470  3270.788
 471  3235.547
 472  3130.267
 473  2916.386
 474  2858.973
 475  2998.958
 476  3149.173
 477  3230.122
 478  3254.535
 479  3426.312
 480  3522.805
 481  3424.7
 482  3299.386
 483  3255.17
 484  3207.673
 485  3198.011
 486  3113.13
 487  3310.899
 488  3336.068
 489  3403.55
 490  3415.923
 491  3422.614
 492  3463.89
 493  3527.627
 494  3575.765
 495  3583.273
 496  3644.14
 497  3914.406
 498  3962.678
 499  3626.238
 500  3366.945
 501  3249.233
 502  3452.924
 503  3507.062
 504  3557.124
 505  3428.849
 506  3333.348
 507  3410.86
 508  3496.452
 509  3601.649
 510  3492.603
 511  3377.76
 512  3417.107
 513  3550.565
 514  3501.419
 515  3448.01
 516  3345.939
 517  3332.186
 518  3208.938
 519  3093.904
 520  3155.957
 521  3260.141
 522  3413.679
 523  3533.082
 524  3541.914
 525  3557.203
 526  3504.399
 527  3662.256
 528  3855.205
 529  3858.977
 530  3913.577
 531  3868.78
 532  3727.486
 533  3631.969
 534  3567.895
 535  3541.756
 536  3385.597
 537  3155.1
 538  3193.433
 539  3289.469
 540  3311.001
 541  3329.615
 542  3383.28
 543  3440.738
 544  3397.623
 545  3228.037
 546  3142.95
 547  3033.447
 548  3343.521
 549  3350.952
 550  3527.871
 551  3444.189
 552  3361.879
 553  3322.557
 554  3229.194
 555  3329.169
 556  3350.059
 557  3400.885
 558  3500.287
 559  3486.885
 560  3554.03
 561  3640.788
 562  3761.446
 563  3885.705
 564  3645.366
 565  3689.844
 566  3609.355
 567  3744.105
 568  3692.689
 569  3714.455
 570  3753.133
 571  3695.783
 572  3520.025
 573  3446.932
 574  3392.183
 575  3389.412
 576  3269.839
 577  3344.794
 578  3439.21
 579  3356.004
 580  3428.595
 581  3412.633
 582  3410.835
 583  3611.303
 584  3547.993
 585  3727.519
 586  3526.281
 587  3379.013
 588  3385.328
 589  3364.627
 590  3602.958
 591  3558.73
 592  3757.446
 593  3906.665
 594  3839.944
 595  3835.423
 596  3848.034
 597  4001.116
 598  3982.961
 599  3665.652
 600  3744.888
 601  3756.195
 602  3874.637
 603  3946.203
 604  4015.838
 605  4090.445
 606  3994.867
 607  4033.444
 608  4012.406
 609  4014.859
 610  4026.047
 611  3887.281
 612  3878.296
 613  3767.026
 614  3638.937
 615  3609.659
 616  3352.481
 617  3193.521
 618  3158.333
 619  3228.24
 620  3280.545
 621  3365.643
 622  3609.504
 623  3712.06
 624  3538.665
 625  3554.783
 626  3503.375
 627  3596.531
 628  3593.462
 629  3623.784
 630  3744.75
 631  3620.057
 632  3434.021
 633  3276.903
 634  3270.363
 635  3337.408
 636  3131.996
 637  3185.98
 638  3172.797
 639  3192.239
 640  3154.258
 641  3179.164
 642  3391.779
 643  3307.441
 644  3131.487
 645  3125.057
 646  3063.94
 647  3126.397
 648  3017.695
 649  3079.684
 650  2957.865
 651  2934.555
 652  2949.911
 653  3111.938
 654  3182.149
 655  3302.053
 656  3414.748
 657  3440.365
 658  3552.258
 659  3554.042
 660  3729.758
 661  3752.941
 662  3739.601
 663  3690.198
 664  3484.587
 665  3474.727
 666  3281.874
 667  3415.469
 668  3433.571
 669  3407.927
 670  3288.8
 671  3428.028
 672  3591.688
 673  3533.776
 674  3303.939
 675  3405.299
 676  3559.967
 677  3597.458
 678  3477.187
 679  3354.509
 680  3387.721
 681  3288.565
 682  3143.075
 683  3111.119
 684  3091.733
 685  3263.135
 686  3433.338
 687  3450.088
 688  3338.286
 689  3313.501
 690  3498.394
 691  3860.549
 692  3879.933
 693  4074.26
 694  3958.528
 695  3943.369
 696  3722.356
 697  3560.797
 698  3626.741
 699  3557
 700  3484.817
 701  3335.808
 702  3410.444
 703  3455.515
 704  3445.349
 705  3442.222
 706  3485.024
 707  3437.754
 708  3544.906
 709  3593.18
 710  3641.465
 711  3596.084
 712  3465.845
 713  3520.911
 714  3409.012
 715  3435.546
 716  3434.531
 717  3263.787
 718  3303.327
 719  3287.286
 720  3302.029
 721  3438.033
 722  3507.586
 723  3768.257
 724  3639.48
 725  3854.675
 726  3926.21
 727  4018.621
 728  4030.739
 729  4048.53
 730  4124.998
 731  3882.161
 732  3691.557
 733  3724.332
 734  3575.046
 735  3479.068
 736  3423.388
 737  3590.961
 738  3438.637
 739  3311.074
 740  3300.775
 741  3549.309
 742  3563.266
 743  3611.731
 744  3522.963
 745  3547.776
 746  3476.357
 747  3421.731
 748  3571.321
 749  3474.852
 750  3471.18
 751  3329.844
 752  3336.696
 753  3301.722
 754  3381.068
 755  3575.071
 756  3798.519
 757  3850.515
 758  4016.941
 759  4101.068
 760  4198.785
 761  4135.175
 762  3964.978
 763  3990.704
 764  3693.727
 765  3605.527
 766  3382.911
 767  3532.077
 768  3560.354
 769  3662.403
 770  3627.89
 771  3460.674
 772  3365.765
 773  3327.967
 774  3375.598
 775  3532.853
 776  3592.989
 777  3556.781
 778  3432.25
 779  3463.126
 780  3531.675
 781  3431.198
 782  3242.685
 783  3208.807
 784  3332.878
 785  3380.876
 786  3354.449
 787  3417.081
 788  3474.649
 789  3639.672
 790  3901.367
 791  4022.321
 792  3975.329
 793  3868.229
 794  3958.405
 795  4023.78
 796  3986.537
 797  3859.292
 798  3758.199
 799  3620.867
 800  3640.003
 801  3650.576
 802  3676.359
 803  3359.737
 804  3226.328
 805  3357.2
 806  3633.93
 807  3718.991
 808  3596.16
 809  3491.75
 810  3571.524
 811  3622.911
 812  3714.451
 813  3655.974
 814  3568.777
 815  3359.445
 816  3240.136
 817  3129.572
 818  3248.879
 819  3435.156
 820  3672.156
 821  3628.377
 822  3608.236
 823  3461.18
 824  3585.313
 825  3677.804
 826  3858.798
 827  3770.991
 828  3798.801
 829  3631.689
 830  3383.472
 831  3146.775
 832  3010.15
 833  3104.177
 834  3186.174
 835  3261.58
 836  3214.679
 837  3199.525
 838  3275.359
 839  3382.422
 840  3290.464
 841  3214.503
 842  3261.551
 843  3324.765
 844  3239.851
 845  3151.811
 846  3135.437
 847  3117.571
 848  3122.028
 849  3089.512
 850  2982.753
 851  3080.601
 852  3153.261
 853  3260.482
 854  3309.192
 855  3370.685
 856  3464.724
 857  3451.066
 858  3576.644
 859  3690.159
 860  3657.058
 861  3494.211
 862  3367.489
 863  3424.681
 864  3286.294
 865  3066.783
 866  3026.533
 867  3121.219
 868  3244.964
 869  3330.416
 870  3282.481
 871  3247.776
 872  3191.534
 873  3308.734
 874  3495.774
 875  3541.868
 876  3564.52
 877  3295.609
 878  3292.786
 879  3155.374
 880  3141.021
 881  3121.744
 882  3006.255
 883  3127.278
 884  3115.006
 885  3198.995
 886  3237.334
 887  3404.914
 888  3510.388
 889  3490.436
 890  3498.619
 891  3676.237
 892  3617.809
 893  3686.242
 894  3597.004
 895  3657.774
 896  3551.184
 897  3221.636
 898  3110.666
 899  3117.15
 900  3282.765
 901  3102.109
 902  2958.734
 903  2849.279
 904  2758.843
 905  2779.144
 906  2835.256
 907  2959.402
 908  3196.557
 909  3269.733
 910  3374.245
 911  3280.726
 912  3224.958
 913  3280.728
 914  3197.155
 915  3118.9
 916  2986.634
 917  2987.903
 918  3093.276
 919  3138.847
 920  3288.489
 921  3320.763
 922  3373.898
 923  3408.575
 924  3523.125
 925  3611.064
 926  3584.433
 927  3655.21
 928  3729.317
 929  3486.62
 930  3329.373
 931  3170.88
 932  3118.554
 933  3129.361
 934  3089.633
 935  3247.977
 936  3098.306
 937  3049.44
 938  3099.463
 939  3138.115
 940  3294.008
 941  3191.551
 942  3206.924
 943  3261.991
 944  3132.156
 945  2994.332
 946  2810.021
 947  2850.977
 948  2946.293
 949  3013.888
 950  3066.01
 951  3020.982
 952  3288.581
 953  3492.451
 954  3526.046
 955  3535.271
 956  3642.748
 957  3789.36
 958  3725.488
 959  3648.611
 960  3571.063
 961  3681.683
 962  3588.033
 963  3338.647
 964  3181.295
 965  3253.386
 966  3360.83
 967  3207.164
 968  3206.347
 969  3107.068
 970  3059.834
 971  2967.009
 972  2982.491
 973  3047.089
 974  3092.787
 975  3326.9
 976  3336.721
 977  3345.515
 978  3365.852
 979  3261.132
 980  3148.456
 981  3041.489
 982  3116.473
 983  3205.271
 984  3186.656
 985  3200.837
 986  3308.56
 987  3548.737
 988  3651.587
 989  3726.28
 990  3709.682
 991  3782.393
 992  3708.368
 993  3640.651
 994  3419.913
 995  3292.661
 996  3308.175
 997  3221.097
 998  3223.262
 999  3180.07
1000  3275.122
1001  3355.145
1002  3354.114
1003  3551.022
1004  3571.327
1005  3531.293
1006  3439.932
1007  3387.442
1008  3520.79
1009  3525.033
1010  3458.765
1011  3554.887
1012  3322.235
1013  3372.026
1014  3341.096
1015  3546.332
1016  3675.915
1017  3519.44
1018  3580.5
1019  3624.61
1020  3758.453
1021  3878.615
1022  3900.919
1023  4246.068
