# Input file       =  1204721893.107728_cleaned.dat
# Candidate        =  PSR_0332+5434
# Telescope        =  AR
# Epoch_topo       =  58187.540649394999
# Epoch_bary       =  N/A
# T_sample         =  0.002
# Data Folded      =  7340032
# Data Avg         =  0.0113196125123047
# Data StdDev      =  1.0000913956546  
# Profile Bins     =  512
# Profile Avg      =  162.210616234417 
# Profile StdDev   =  119.743979456003 
# Reduced chi-sqr  =  0.944
# Prob(Noise)      <  0.814   (~0.0 sigma)
# P_topo (ms)      =  714.578901218398  +/- 0.000447
# P'_topo (s/s)    =  -0                +/- 2.36e-10
# P''_topo (s/s^2) =  0                 +/- 1.04e-13
# P_bary (ms)      =  N/A
# P'_bary (s/s)    =  N/A
# P''_bary (s/s^2) =  N/A
# P_orb (s)        =  N/A
# asin(i)/c (s)    =  N/A
# eccentricity     =  N/A
# w (rad)          =  N/A
# T_peri           =  N/A
######################################################
   0  473.5671
   1  549.556
   2  391.5999
   3  236.349
   4  218.8869
   5  135.9044
   6  106.8549
   7  196.8175
   8  268.4806
   9  199.525
  10  179.6294
  11  230.598
  12  280.0512
  13  270.6669
  14  203.9896
  15  177.0087
  16  126.5321
  17  91.4606
  18  169.4432
  19  226.1637
  20  253.2727
  21  244.3112
  22  201.7761
  23  210.859
  24  221.5852
  25  171.918
  26  171.2757
  27  145.509
  28  239.29
  29  248.8822
  30  243.5223
  31  245.1871
  32  236.605
  33  266.597
  34  295.3679
  35  292.0142
  36  241.6769
  37  206.9129
  38  242.8424
  39  294.9821
  40  267.802
  41  198.3468
  42  185.6724
  43  236.203
  44  249.3057
  45  245.0817
  46  137.7788
  47  103.0248
  48  149.1481
  49  221.4373
  50  230.3897
  51  232.6299
  52  310.8283
  53  254.1113
  54  274.2912
  55  274.029
  56  218.1549
  57  243.6399
  58  223.638
  59  226.3736
  60  190.1919
  61  193.3135
  62  248.3495
  63  242.7376
  64  193.5154
  65  111.4773
  66  158.9843
  67  215.0973
  68  216.338
  69  222.9575
  70  174.5665
  71  207.4416
  72  275.9858
  73  288.578
  74  249.5667
  75  251.5926
  76  265.2547
  77  254.6019
  78  276.2069
  79  200.0293
  80  137.8788
  81  206.9614
  82  169.5115
  83  204.0105
  84  281.8672
  85  250.5526
  86  189.4937
  87  148.59
  88  120.6484
  89  207.9061
  90  179.5704
  91  183.551
  92  156.7888
  93  191.1954
  94  193.5628
  95  131.3077
  96  122.8087
  97  165.1156
  98  201.5415
  99  111.6914
 100  41.03953
 101  82.10892
 102  32.55314
 103  27.97769
 104  -9.910618
 105  77.41422
 106  66.49117
 107  87.80995
 108  64.9042
 109  33.55875
 110  88.17597
 111  94.03614
 112  98.40679
 113  159.3234
 114  129.138
 115  75.30303
 116  104.4144
 117  103.215
 118  72.29456
 119  100.2887
 120  158.792
 121  166.441
 122  103.224
 123  102.3627
 124  139.6536
 125  95.94162
 126  69.35102
 127  -1.334061
 128  61.4878
 129  123.3841
 130  169.3017
 131  119.9991
 132  87.44999
 133  132.8019
 134  192.913
 135  250.1786
 136  229.9097
 137  234.5387
 138  233.7689
 139  181.6956
 140  191.1272
 141  216.2484
 142  224.7666
 143  237.0781
 144  266.064
 145  185.4824
 146  210.2986
 147  185.5941
 148  219.6395
 149  232.2008
 150  225.0381
 151  274.538
 152  317.0614
 153  312.3984
 154  219.4292
 155  167.8753
 156  212.5516
 157  144.0072
 158  210.8134
 159  266.4594
 160  142.5554
 161  104.3906
 162  175.0457
 163  172.5423
 164  191.9883
 165  267.7385
 166  156.0167
 167  162.2929
 168  135.5574
 169  129.5825
 170  117.6268
 171  158.526
 172  163.9097
 173  35.63837
 174  -32.88565
 175  84.29298
 176  150.063
 177  137.4199
 178  164.3876
 179  154.1248
 180  188.5951
 181  186.6847
 182  189.8422
 183  195.3113
 184  131.2066
 185  88.95065
 186  100.9712
 187  27.29682
 188  49.75943
 189  20.29036
 190  102.9215
 191  107.3617
 192  121.7066
 193  173.0998
 194  251.6469
 195  154.3296
 196  91.79272
 197  154.4756
 198  112.2128
 199  111.1966
 200  183.8011
 201  198.3477
 202  232.1577
 203  277.1658
 204  228.3476
 205  179.8566
 206  191.7062
 207  195.9299
 208  181.8902
 209  296.4082
 210  229.6371
 211  137.3064
 212  249.1042
 213  242.1239
 214  265.7404
 215  269.7349
 216  284.8261
 217  338.0655
 218  332.3026
 219  203.9245
 220  206.5461
 221  228.9355
 222  287.2628
 223  262.3785
 224  212.5032
 225  233.1563
 226  205.6803
 227  215.9434
 228  213.6486
 229  184.5968
 230  185.7106
 231  258.8714
 232  204.0148
 233  137.2933
 234  203.6765
 235  210.3162
 236  225.4848
 237  234.5036
 238  144.9696
 239  179.083
 240  177.7498
 241  169.6692
 242  228.7372
 243  237.013
 244  158.982
 245  67.37907
 246  93.19748
 247  146.2925
 248  136.1163
 249  121.2766
 250  146.1161
 251  199.3573
 252  159.1162
 253  162.8995
 254  137.4405
 255  162.615
 256  126.2738
 257  167.4379
 258  110.3016
 259  43.21379
 260  62.47211
 261  101.2337
 262  25.00364
 263  34.44635
 264  102.0046
 265  88.84259
 266  -32.74888
 267  2.458476
 268  7.892412
 269  -7.196623
 270  -47.10924
 271  -104.7453
 272  -62.4491
 273  -69.66383
 274  -27.98071
 275  29.71982
 276  101.1839
 277  89.30144
 278  93.31864
 279  27.45423
 280  -23.67021
 281  80.35382
 282  170.7393
 283  217.8589
 284  165.3139
 285  179.7817
 286  91.0638
 287  108.3753
 288  96.38834
 289  126.1112
 290  193.7461
 291  165.9485
 292  190.778
 293  234.464
 294  190.8121
 295  108.5016
 296  87.0858
 297  72.229
 298  125.886
 299  148.7351
 300  140.3959
 301  154.7397
 302  214.8394
 303  201.3867
 304  125.7337
 305  96.10755
 306  113.9818
 307  78.80461
 308  89.35538
 309  185.2138
 310  123.8193
 311  154.1561
 312  181.9377
 313  224.0063
 314  280.2344
 315  129.0015
 316  116.0113
 317  177.2429
 318  160.4814
 319  171.3578
 320  154.4543
 321  191.4496
 322  219.0769
 323  284.3805
 324  201.5055
 325  164.6112
 326  138.9151
 327  164.5249
 328  109.7281
 329  170.9829
 330  173.9269
 331  190.7813
 332  176.6033
 333  169.187
 334  99.13058
 335  105.2279
 336  35.747
 337  51.53865
 338  108.6195
 339  145.5418
 340  6.921647
 341  55.52353
 342  45.21135
 343  33.46415
 344  67.03925
 345  76.32488
 346  76.2597
 347  -15.75359
 348  -20.01312
 349  52.68972
 350  84.44283
 351  168.773
 352  171.378
 353  154.7713
 354  107.0221
 355  80.02614
 356  93.00172
 357  209.3532
 358  129.9528
 359  161.55
 360  205.4515
 361  197.3755
 362  245.7881
 363  155.5486
 364  123.109
 365  135.1737
 366  148.2215
 367  202.7968
 368  243.1832
 369  264.6891
 370  179.5851
 371  177.937
 372  153.2532
 373  99.13085
 374  85.81342
 375  171.3519
 376  172.1294
 377  168.9246
 378  127.3023
 379  217.8763
 380  131.405
 381  116.9356
 382  112.5538
 383  100.7897
 384  105.1394
 385  74.76218
 386  53.24391
 387  29.71906
 388  72.76538
 389  109.1003
 390  40.00895
 391  98.59323
 392  119.0554
 393  82.72643
 394  108.474
 395  146.2052
 396  152.6395
 397  162.0446
 398  183.8167
 399  160.1126
 400  171.0382
 401  96.69968
 402  119.6398
 403  201.3701
 404  172.193
 405  132.0101
 406  101.8362
 407  100.9795
 408  156.5717
 409  135.9012
 410  99.04482
 411  104.7864
 412  247.4756
 413  217.5305
 414  133.7791
 415  155.5542
 416  109.5629
 417  163.4427
 418  216.3112
 419  282.6714
 420  239.3538
 421  146.4024
 422  134.3016
 423  195.8647
 424  214.9328
 425  223.2936
 426  195.6062
 427  181.5646
 428  220.4643
 429  217.5222
 430  294.0354
 431  294.6939
 432  308.8957
 433  273.9988
 434  372.489
 435  380.2319
 436  282.6223
 437  301.1569
 438  265.3458
 439  258.4429
 440  228.0741
 441  200.3737
 442  253.0043
 443  222.1317
 444  182.2914
 445  189.3705
 446  216.2343
 447  245.3514
 448  184.3188
 449  153.785
 450  120.3328
 451  73.69627
 452  110.2445
 453  144.6938
 454  203.3014
 455  157.6617
 456  174.2269
 457  170.0973
 458  208.5858
 459  177.7896
 460  113.3879
 461  36.65225
 462  49.31638
 463  124.577
 464  84.75292
 465  -20.09871
 466  -2.088161
 467  40.28655
 468  97.38985
 469  124.311
 470  160.4483
 471  53.37823
 472  8.060236
 473  59.3721
 474  95.65656
 475  79.87462
 476  48.56374
 477  -30.23203
 478  66.6826
 479  36.89745
 480  68.9069
 481  90.27379
 482  79.64573
 483  -9.239991
 484  36.31042
 485  109.7309
 486  78.10692
 487  24.76529
 488  38.2468
 489  42.07883
 490  23.19975
 491  79.40229
 492  170.593
 493  172.159
 494  198.2418
 495  103.104
 496  136.1171
 497  160.0229
 498  204.1783
 499  206.8784
 500  123.786
 501  169.7343
 502  252.9656
 503  201.6093
 504  169.9245
 505  255.0473
 506  316.8619
 507  314.2724
 508  282.9258
 509  354.3228
 510  439.7877
 511  489.7769
