# Input file       =  1204822943.102232_cleaned.dat
# Candidate        =  PSR_0332+5434
# Telescope        =  AR
# Epoch_topo       =  58188.710209516576
# Epoch_bary       =  N/A
# T_sample         =  0.002
# Data Folded      =  7340032
# Data Avg         =  0.162570005499999
# Data StdDev      =  4.73444853637361 
# Profile Bins     =  256
# Profile Avg      =  4661.34434506869 
# Profile StdDev   =  801.675099025812 
# Reduced chi-sqr  =  1.493
# Prob(Noise)      <  5.41e-07   (~4.9 sigma)
# P_topo (ms)      =  714.578936682896  +/- 0.00062
# P'_topo (s/s)    =  -0                +/- 3.27e-10
# P''_topo (s/s^2) =  0                 +/- 1.45e-13
# P_bary (ms)      =  N/A
# P'_bary (s/s)    =  N/A
# P''_bary (s/s^2) =  N/A
# P_orb (s)        =  N/A
# asin(i)/c (s)    =  N/A
# eccentricity     =  N/A
# w (rad)          =  N/A
# T_peri           =  N/A
######################################################
   0  5547.67
   1  4068.135
   2  4628.967
   3  4814.787
   4  4764.586
   5  3687.863
   6  4775.781
   7  5018.725
   8  3360.85
   9  4153.063
  10  4768.938
  11  5607.984
  12  5172.423
  13  5529.138
  14  4338.995
  15  3891.868
  16  3690.295
  17  3495.868
  18  4205.115
  19  3085.795
  20  3830.775
  21  4129.024
  22  3890.699
  23  3099.003
  24  3776.97
  25  3418.957
  26  3241.51
  27  3430.996
  28  4287.565
  29  4326.364
  30  3424.334
  31  3444.348
  32  4143.859
  33  3589.795
  34  4454.934
  35  4845.847
  36  4392.356
  37  3838.052
  38  4778.559
  39  4422.856
  40  4686.958
  41  3916.683
  42  4044.426
  43  4325.812
  44  5479.202
  45  3823.254
  46  3920.353
  47  4966.346
  48  4105.539
  49  4042.885
  50  3886.736
  51  4015.366
  52  3896.352
  53  4191.167
  54  4511.688
  55  4406.652
  56  4198.637
  57  4636.308
  58  3939.187
  59  4730.451
  60  4995.47
  61  4963.283
  62  3834.44
  63  4219.825
  64  3791.627
  65  3361.026
  66  4528.292
  67  4792.35
  68  5378.578
  69  5655.762
  70  5542.329
  71  5934.899
  72  6008.328
  73  4895.399
  74  4153.165
  75  3995.488
  76  4172.575
  77  3386.086
  78  4312.977
  79  4254.464
  80  3870.946
  81  3975.323
  82  4654.304
  83  4737.583
  84  5124.668
  85  5210.828
  86  4654.487
  87  4337.244
  88  5190.267
  89  4748.853
  90  5630.947
  91  4637.062
  92  5164.618
  93  5466.904
  94  6200.836
  95  6090.008
  96  5634.927
  97  6801.203
  98  6388.678
  99  5185.871
 100  5044.079
 101  4319.075
 102  4525.352
 103  5198.264
 104  5237.803
 105  4881.053
 106  5375.958
 107  5453.237
 108  5687.704
 109  4817.662
 110  5701.013
 111  5705.744
 112  5928.07
 113  5260.599
 114  4777.286
 115  4792.13
 116  4926.006
 117  5148.586
 118  5290.24
 119  4975.148
 120  4975.769
 121  4965.954
 122  4850.511
 123  4985.526
 124  4929.613
 125  4595.46
 126  4727.154
 127  5887.378
 128  5123.662
 129  4717.106
 130  5824.633
 131  5493.348
 132  5088.7
 133  5913.348
 134  5193.948
 135  4210.44
 136  4071.729
 137  5769.01
 138  4482.479
 139  4781.78
 140  4638.644
 141  4806.332
 142  5629.943
 143  5544.647
 144  5214.343
 145  5821.902
 146  5313.179
 147  5184.331
 148  5313.187
 149  5430.765
 150  7002.994
 151  7991.955
 152  8572.152
 153  7451.84
 154  5515.016
 155  5879.06
 156  5377.216
 157  5399.612
 158  5097.067
 159  5714.535
 160  5484.371
 161  5142.175
 162  4775.433
 163  3815.937
 164  4558.03
 165  4182.617
 166  4796.662
 167  4815.624
 168  4349.102
 169  4486.223
 170  5750.078
 171  5598.869
 172  5337.898
 173  5051.156
 174  6112.802
 175  5503.752
 176  5383.622
 177  5602.542
 178  5684.806
 179  5758
 180  5511.049
 181  4870.794
 182  5193.146
 183  5284.555
 184  5365.812
 185  4260.885
 186  4134.074
 187  4130.754
 188  3923.652
 189  3969.653
 190  4102.19
 191  3815.314
 192  4951.368
 193  4355.613
 194  4346.901
 195  5312.924
 196  5466.22
 197  4370.532
 198  4411.045
 199  4195.141
 200  4857.608
 201  4826.967
 202  4486.711
 203  4469.014
 204  3989.602
 205  4095.326
 206  3916.461
 207  3994.561
 208  3079.556
 209  3880.91
 210  4325.156
 211  3953.694
 212  4119.531
 213  4589.643
 214  4328.296
 215  4566.071
 216  4988.402
 217  4445.169
 218  4785.559
 219  4205.599
 220  4160.759
 221  3989.844
 222  3808.729
 223  4073.695
 224  3555.831
 225  3503.188
 226  3652.403
 227  3817.732
 228  3621.907
 229  3001.93
 230  2964.57
 231  2958.112
 232  2700.99
 233  2711.587
 234  3451.543
 235  3562.404
 236  3512.942
 237  4150.436
 238  3401.422
 239  4250.41
 240  3933.086
 241  4288.207
 242  4023.831
 243  4173.866
 244  4625.111
 245  4933.619
 246  4260.449
 247  4427.733
 248  4939.718
 249  4815.555
 250  4544.246
 251  4530.929
 252  5394.886
 253  4410.678
 254  4422.387
 255  5153.407
