# Input file       =  1204305439.103577_cleaned.dat
# Candidate        =  PSR_0332+5434
# Telescope        =  AR
# Epoch_topo       =  58182.720579902511
# Epoch_bary       =  N/A
# T_sample         =  0.002
# Data Folded      =  7340032
# Data Avg         =  0.0268852296562598
# Data StdDev      =  1.00000470335946 
# Profile Bins     =  512
# Profile Avg      =  385.436329979704 
# Profile StdDev   =  119.733599524275 
# Reduced chi-sqr  =  1.204
# Prob(Noise)      <  0.001   (~3.1 sigma)
# P_topo (ms)      =  714.580234790785  +/- 0.000253
# P'_topo (s/s)    =  -0                +/- 1.34e-10
# P''_topo (s/s^2) =  0                 +/- 5.89e-14
# P_bary (ms)      =  N/A
# P'_bary (s/s)    =  N/A
# P''_bary (s/s^2) =  N/A
# P_orb (s)        =  N/A
# asin(i)/c (s)    =  N/A
# eccentricity     =  N/A
# w (rad)          =  N/A
# T_peri           =  N/A
######################################################
   0  858.794
   1  793.0392
   2  620.2163
   3  480.1601
   4  476.0502
   5  297.1759
   6  289.8986
   7  319.6976
   8  495.162
   9  393.2411
  10  296.3456
  11  487.8169
  12  464.6383
  13  397.8578
  14  459.6697
  15  449.3569
  16  309.4948
  17  365.3116
  18  425.1614
  19  471.5895
  20  439.7424
  21  501.0728
  22  509.75
  23  430.0937
  24  344.5934
  25  281.07
  26  366.5712
  27  438.2997
  28  368.668
  29  417.5581
  30  430.0235
  31  280.2326
  32  401.9644
  33  327.4859
  34  178.9954
  35  308.2862
  36  362.9558
  37  271.0683
  38  266.5945
  39  444.6075
  40  478.8884
  41  409.6741
  42  393.535
  43  412.9931
  44  476.4221
  45  542.381
  46  497.7599
  47  513.8885
  48  463.3261
  49  430.1642
  50  387.3195
  51  493.7878
  52  409.2516
  53  379.4702
  54  436.7866
  55  488.2057
  56  480.6667
  57  399.1052
  58  360.4908
  59  400.5063
  60  537.4916
  61  584.2026
  62  419.9114
  63  333.2986
  64  363.7065
  65  395.4172
  66  333.7553
  67  369.019
  68  288.5808
  69  234.4634
  70  290.3134
  71  304.2553
  72  249.8925
  73  275.0571
  74  264.8387
  75  293.5653
  76  401.5423
  77  407.0281
  78  434.554
  79  433.1275
  80  365.2395
  81  350.1272
  82  462.7468
  83  561.7872
  84  543.0066
  85  511.007
  86  455.3484
  87  439.9477
  88  413.4081
  89  458.0726
  90  415.2363
  91  506.1281
  92  498.6424
  93  358.2057
  94  394.2487
  95  356.5721
  96  302.291
  97  306.4337
  98  346.9751
  99  306.7922
 100  366.893
 101  336.2317
 102  360.3282
 103  476.0917
 104  438.7562
 105  382.3164
 106  393.5986
 107  409.5203
 108  326.303
 109  528.1554
 110  489.3464
 111  470.665
 112  368.9545
 113  413.5878
 114  477.46
 115  483.3276
 116  490.9252
 117  410.1667
 118  436.459
 119  334.3376
 120  287.1275
 121  427.4276
 122  437.6807
 123  430.8048
 124  435.0092
 125  411.9564
 126  373.9163
 127  331.9461
 128  364.7266
 129  450.8849
 130  548.6953
 131  569.5875
 132  360.556
 133  384.5233
 134  343.799
 135  340.8756
 136  384.7764
 137  391.1098
 138  223.3811
 139  351.8551
 140  426.8955
 141  344.7005
 142  392.4561
 143  471.6406
 144  400.8844
 145  422.4056
 146  433.1088
 147  469.6553
 148  461.7658
 149  432.8796
 150  440.7669
 151  491.2087
 152  553.7513
 153  445.3973
 154  298.1325
 155  337.9052
 156  444.5822
 157  434.3412
 158  483.5389
 159  473.6381
 160  458.0358
 161  347.2075
 162  342.8162
 163  421.7881
 164  364.3882
 165  370.7762
 166  313.3539
 167  274.0481
 168  385.2957
 169  454.505
 170  379.601
 171  342.0544
 172  291.0558
 173  344.6506
 174  270.0533
 175  301.7289
 176  369.6479
 177  362.7708
 178  360.1432
 179  414.5693
 180  343.8095
 181  309.8761
 182  350.568
 183  418.9415
 184  514.8497
 185  332.5421
 186  358.0419
 187  335.0829
 188  380.3283
 189  308.6584
 190  344.7808
 191  420.3263
 192  392.0215
 193  376.1096
 194  240.2662
 195  373.7711
 196  413.0639
 197  388.8337
 198  457.7688
 199  340.6429
 200  340.7479
 201  350.3904
 202  312.9009
 203  380.9475
 204  424.9513
 205  389.2848
 206  393.0896
 207  402.2681
 208  492.7665
 209  406.6837
 210  372.3656
 211  411.6854
 212  342.3993
 213  306.9704
 214  388.9172
 215  430.0938
 216  498.7514
 217  689.8528
 218  550.4832
 219  317.4008
 220  298.0606
 221  336.0637
 222  273.5262
 223  285.234
 224  312.3297
 225  368.1477
 226  368.8671
 227  290.4331
 228  298.1987
 229  320.052
 230  314.5532
 231  285.0518
 232  393.9474
 233  320.7291
 234  242.6644
 235  307.5005
 236  375.2486
 237  249.5834
 238  225.8178
 239  357.2946
 240  435.1442
 241  280.9916
 242  199.7585
 243  282.2693
 244  232.3194
 245  282.6383
 246  375.6563
 247  346.9444
 248  361.5895
 249  364.4771
 250  281.4794
 251  202.6117
 252  190.2132
 253  140.3018
 254  187.8142
 255  197.7805
 256  185.8255
 257  383.7589
 258  437.3067
 259  320.3778
 260  219.0814
 261  263.1997
 262  266.4741
 263  309.1145
 264  497.6244
 265  418.7848
 266  333.4371
 267  284.8413
 268  355.578
 269  256.934
 270  337.345
 271  349.5046
 272  333.8908
 273  384.3889
 274  285
 275  288.6995
 276  256.8665
 277  250.965
 278  370.4174
 279  502.8937
 280  474.3539
 281  388.5687
 282  338.7346
 283  434.3254
 284  309.3301
 285  278.5802
 286  441.6742
 287  327.6841
 288  356.1823
 289  381.4543
 290  236.2175
 291  253.8565
 292  322.5856
 293  414.2611
 294  416.3727
 295  344.2318
 296  275.7662
 297  205.5837
 298  360.8109
 299  436.7018
 300  228.7337
 301  345.7053
 302  377.5131
 303  304.2039
 304  371.9501
 305  504.1514
 306  470.6884
 307  356.4317
 308  265.7341
 309  332.0132
 310  299.1556
 311  453.5916
 312  409.4946
 313  303.215
 314  535.1548
 315  503.5973
 316  500.0855
 317  537.524
 318  433.8196
 319  414.8494
 320  433.4485
 321  523.7108
 322  583.1767
 323  556.6286
 324  531.8894
 325  423.5338
 326  412.5839
 327  408.5211
 328  326.2496
 329  339.3531
 330  365.1458
 331  440.2097
 332  379.1665
 333  361.1361
 334  357.8977
 335  339.246
 336  392.0162
 337  474.6626
 338  596.5691
 339  509.2441
 340  483.8618
 341  506.6082
 342  399.7945
 343  392.0523
 344  371.8308
 345  402.2878
 346  362.0137
 347  330.2186
 348  458.8445
 349  430.3962
 350  216.9352
 351  369.0766
 352  483.5284
 353  473.1427
 354  479.83
 355  474.7222
 356  513.2956
 357  453.8096
 358  478.606
 359  433.9272
 360  452.5845
 361  516.6408
 362  436.7289
 363  349.6305
 364  453.2033
 365  443.7433
 366  436.8264
 367  549.4838
 368  440.4395
 369  395.0854
 370  439.1884
 371  522.964
 372  513.2114
 373  260.9173
 374  240.39
 375  304.6749
 376  286.8453
 377  332.654
 378  242.7057
 379  289.0675
 380  350.5837
 381  269.9363
 382  216.6798
 383  233.1577
 384  326.7817
 385  348.4323
 386  336.5788
 387  332.5543
 388  310.6625
 389  401.424
 390  467.5905
 391  406.4963
 392  294.7331
 393  296.296
 394  279.9068
 395  339.6064
 396  464.07
 397  462.5515
 398  343.9085
 399  360.8647
 400  372.0569
 401  368.4973
 402  280.8365
 403  283.025
 404  264.3676
 405  353.2082
 406  352.6321
 407  251.7204
 408  345.9322
 409  429.466
 410  415.8431
 411  372.4361
 412  330.497
 413  436.3335
 414  373.5363
 415  459.8805
 416  363.2876
 417  141.6124
 418  236.1885
 419  403.7185
 420  411.9257
 421  442.8426
 422  498.613
 423  419.3631
 424  446.6481
 425  423.5167
 426  398.4804
 427  398.5237
 428  356.1822
 429  481.0721
 430  463.9265
 431  416.63
 432  441.6628
 433  415.7769
 434  364.4457
 435  337.306
 436  392.3024
 437  369.4657
 438  495.0666
 439  497.5292
 440  431.0327
 441  307.3159
 442  312.1141
 443  347.0798
 444  355.9645
 445  341.2362
 446  264.3968
 447  220.6545
 448  297.1894
 449  402.5709
 450  388.0955
 451  434.2286
 452  471.0352
 453  431.5221
 454  444.1645
 455  278.2617
 456  298.4407
 457  354.7529
 458  343.4304
 459  497.2976
 460  372.7477
 461  300.2132
 462  432.1183
 463  495.2654
 464  421.3453
 465  392.1666
 466  387.8719
 467  362.8791
 468  405.8528
 469  482.3181
 470  346.8664
 471  351.0251
 472  375.7369
 473  365.379
 474  238.2356
 475  268.5595
 476  132.1287
 477  231.0087
 478  334.4095
 479  325.2892
 480  381.9877
 481  391.2729
 482  314.0998
 483  205.655
 484  401.0205
 485  398.0063
 486  396.1162
 487  324.0272
 488  353.0186
 489  404.9776
 490  400.5803
 491  459.8273
 492  380.8979
 493  556.976
 494  515.9751
 495  434.8383
 496  403.8595
 497  377.3856
 498  316.2054
 499  230.9682
 500  233.5898
 501  322.5767
 502  286.4214
 503  337.0706
 504  439.5339
 505  538.9041
 506  531.0895
 507  524.2274
 508  510.7947
 509  630.0787
 510  831.2634
 511  903.5245
