# Input file       =  1204448258.101844_cleaned.dat
# Candidate        =  PSR_0332+5434
# Telescope        =  AR
# Epoch_topo       =  58184.373577567640
# Epoch_bary       =  N/A
# T_sample         =  0.002
# Data Folded      =  7143424
# Data Avg         =  0.201505300598517
# Data StdDev      =  6.73169602975892 
# Profile Bins     =  512
# Profile Avg      =  2811.52451810676 
# Profile StdDev   =  795.13840619733  
# Reduced chi-sqr  =  4.787
# Prob(Noise)      <  2.45e-249   (~33.7 sigma)
# P_topo (ms)      =  714.57958776876   +/- 1.5e-05
# P'_topo (s/s)    =  -0                +/- 8.12e-12
# P''_topo (s/s^2) =  0                 +/- 3.68e-15
# P_bary (ms)      =  N/A
# P'_bary (s/s)    =  N/A
# P''_bary (s/s^2) =  N/A
# P_orb (s)        =  N/A
# asin(i)/c (s)    =  N/A
# eccentricity     =  N/A
# w (rad)          =  N/A
# T_peri           =  N/A
######################################################
   0  1745.965
   1  2292.407
   2  2615.277
   3  2887.571
   4  3179.808
   5  2608.407
   6  1564.459
   7  955.0478
   8  962.6339
   9  2005.337
  10  3736.315
  11  5056.796
  12  5525.428
  13  5215.941
  14  4239.569
  15  2958.866
  16  2378.483
  17  1370.413
  18  1630.666
  19  2531.847
  20  2874.778
  21  3194.162
  22  2677.033
  23  1625.887
  24  1167.776
  25  1118.899
  26  2248.103
  27  3609.629
  28  5136.129
  29  5402.489
  30  4730.185
  31  3141.683
  32  2031.839
  33  1726.378
  34  2032.34
  35  2783.216
  36  2727.789
  37  2427.841
  38  2313.737
  39  1284.862
  40  1173
  41  1528.886
  42  2344.041
  43  3821.332
  44  4913.245
  45  5265.336
  46  4542.036
  47  3393.148
  48  2881.248
  49  2300.611
  50  2132.562
  51  2251.99
  52  2690.33
  53  2769.091
  54  2721.837
  55  2162.421
  56  1390.311
  57  1068.368
  58  1931.857
  59  2677.086
  60  4478.206
  61  5099.51
  62  5207.371
  63  3968.167
  64  3026.023
  65  2690.162
  66  2384.083
  67  2700.117
  68  2960.476
  69  2937.842
  70  2459.863
  71  1929.21
  72  1674.8
  73  938.6982
  74  1439.94
  75  2557.008
  76  3696.833
  77  4646.775
  78  5343.912
  79  4835.756
  80  4038.122
  81  2448.384
  82  1846.305
  83  1987.002
  84  2211.554
  85  2529.19
  86  2978.392
  87  2794.253
  88  2327.123
  89  931.7063
  90  684.4796
  91  881.4772
  92  2633.027
  93  4017.861
  94  5549.256
  95  5613.947
  96  4796.058
  97  3410.449
  98  1950.093
  99  1500.557
 100  1774.292
 101  1949.487
 102  2506.601
 103  2881.798
 104  2739.734
 105  2030.203
 106  1258.738
 107  822.3498
 108  1616.388
 109  3285.746
 110  4478.873
 111  5394.322
 112  5226.782
 113  4024.695
 114  2176.567
 115  1806.141
 116  1888.89
 117  2209.617
 118  2637.028
 119  2671.1
 120  2934.555
 121  2269.548
 122  1395.565
 123  670.9719
 124  1570.775
 125  3016.965
 126  4369.251
 127  5413.263
 128  5221.498
 129  4609.773
 130  3607.925
 131  2491.724
 132  2189.199
 133  2158.236
 134  2705.443
 135  2582.08
 136  2834.706
 137  2353.714
 138  1870.784
 139  1007.604
 140  987.9691
 141  2395.161
 142  3353.072
 143  4440.572
 144  4980.75
 145  4855.898
 146  3772.012
 147  2717.022
 148  1935.441
 149  2197.029
 150  2729.831
 151  2500.721
 152  2832.052
 153  2505.091
 154  2197.726
 155  1299.132
 156  705.5025
 157  1414.374
 158  2663.911
 159  4113.903
 160  4797.282
 161  5204.702
 162  4302.128
 163  3521.953
 164  2639.611
 165  1923.848
 166  2193.35
 167  2279.82
 168  2717.087
 169  2732.366
 170  2893.326
 171  2294.015
 172  938.3293
 173  1192.84
 174  2332.17
 175  3557.592
 176  4732.726
 177  5536.485
 178  5434.073
 179  4684.985
 180  3513.056
 181  2118.439
 182  2015.048
 183  2371.501
 184  2931.364
 185  3141.1
 186  3330.864
 187  2269.487
 188  1080.224
 189  1082.734
 190  1694.001
 191  3418.613
 192  4433.354
 193  5034.933
 194  5517.534
 195  4842.852
 196  3135.503
 197  2693.876
 198  2587.915
 199  2417.924
 200  2429.607
 201  3075.171
 202  3015.176
 203  2639.549
 204  1803.06
 205  1469.242
 206  1975.319
 207  2413.927
 208  3394.904
 209  4844.154
 210  5523.149
 211  4945.369
 212  4383.134
 213  3279.124
 214  2361.323
 215  2332.187
 216  2645.413
 217  2986.692
 218  3072.669
 219  2737.682
 220  2037.211
 221  1262.156
 222  873.9872
 223  2011.565
 224  3493.244
 225  3900.444
 226  4751.147
 227  5344.445
 228  4649.552
 229  3262.457
 230  2322.659
 231  1810.772
 232  2131.725
 233  2584.976
 234  2328.056
 235  2327.736
 236  1928.204
 237  1827.302
 238  1062.12
 239  901.7812
 240  2044.333
 241  3224.419
 242  4445.932
 243  5267.341
 244  4934.94
 245  3645.235
 246  2747.94
 247  2273.865
 248  2119.748
 249  2361.215
 250  2373.59
 251  2758.421
 252  2708.353
 253  2138.311
 254  1394.113
 255  886.9437
 256  1070.531
 257  2449.715
 258  4044.627
 259  4839.675
 260  5980.411
 261  5136.227
 262  3833.682
 263  2481.303
 264  1663.687
 265  1723.816
 266  1845.054
 267  2449.726
 268  3174.05
 269  2910.404
 270  1894.224
 271  839.8158
 272  684.8765
 273  1567.545
 274  2931.823
 275  4311.582
 276  5237.016
 277  4792.72
 278  3595.536
 279  2443.492
 280  2408.17
 281  2383.073
 282  2058.634
 283  2807.379
 284  2976.678
 285  2637.677
 286  1745.102
 287  1147.055
 288  1140.236
 289  1243.942
 290  2886.056
 291  3570.959
 292  4306.929
 293  4688.455
 294  4055.925
 295  3515.234
 296  2895.664
 297  2216.179
 298  2149.299
 299  2261.808
 300  2716.342
 301  2507.111
 302  3028.629
 303  2746.73
 304  2579.12
 305  2345.496
 306  2991.208
 307  3600.481
 308  4268.553
 309  4725.227
 310  4991.474
 311  3968.747
 312  2818.968
 313  2288.867
 314  1866.493
 315  2278.436
 316  2552.011
 317  3030.149
 318  2816.616
 319  1774.195
 320  1356.036
 321  976.9618
 322  1424.418
 323  2488.167
 324  3602.827
 325  5401.165
 326  5565.564
 327  4926.345
 328  3310.612
 329  2043.608
 330  2042.102
 331  1967.838
 332  2354.585
 333  3067.591
 334  3365.813
 335  2852.703
 336  1915.433
 337  800.6663
 338  778.0892
 339  1625.222
 340  2994.457
 341  4245.305
 342  5314.69
 343  5266.957
 344  4140.071
 345  2851.788
 346  1909.923
 347  2061.068
 348  2057.881
 349  2568.87
 350  3062.111
 351  2480.158
 352  1921.545
 353  1547.516
 354  1295.212
 355  1551.943
 356  2173.036
 357  3607.5
 358  4624.482
 359  5113.14
 360  4490.324
 361  3703.618
 362  2423.688
 363  1848.347
 364  2058.82
 365  2183.431
 366  2496.309
 367  2451.786
 368  2046.245
 369  1387.331
 370  879.5511
 371  1031.414
 372  1706.525
 373  2688.385
 374  4244.083
 375  4861.038
 376  5321.035
 377  4184.977
 378  2641.793
 379  2077.124
 380  1834.342
 381  1657.224
 382  1973.265
 383  2539.455
 384  2621.905
 385  2032.376
 386  1539.82
 387  974.4555
 388  1569.572
 389  2146.298
 390  3227.455
 391  4674.42
 392  5271.229
 393  4277.961
 394  3186.652
 395  2491.639
 396  1878.432
 397  2233.329
 398  2753.731
 399  3192.208
 400  3004.825
 401  2789.025
 402  1166.372
 403  627.126
 404  1044.622
 405  2027.985
 406  3501.893
 407  4429.01
 408  5248.549
 409  5029.932
 410  3185.132
 411  2461.345
 412  1569.392
 413  1489.758
 414  2239.977
 415  3005.505
 416  3553.162
 417  3030.565
 418  2267.697
 419  1376.462
 420  893.9127
 421  1444.94
 422  2708.931
 423  3937.062
 424  5190.706
 425  5383.271
 426  4428.5
 427  3447.098
 428  2241.435
 429  1713.313
 430  1862.641
 431  2199.49
 432  2139.833
 433  2902.989
 434  3165.423
 435  2047.621
 436  839.0957
 437  440.5559
 438  1374.473
 439  2735.72
 440  3619.68
 441  4864.965
 442  5255.576
 443  4324.748
 444  3190.905
 445  2138.842
 446  1712.027
 447  1702.317
 448  2334.977
 449  2681.868
 450  2930.384
 451  2478.811
 452  1760.393
 453  1004.2
 454  832.3183
 455  1826.729
 456  3059.191
 457  4232.115
 458  5190.273
 459  5379.937
 460  4135.736
 461  2873.422
 462  2164.779
 463  1529.14
 464  1734.945
 465  1956.633
 466  2178.557
 467  1974.073
 468  2070.371
 469  1424.805
 470  938.2153
 471  1892.97
 472  2713.486
 473  4142.154
 474  5164.484
 475  4904.808
 476  3826.232
 477  2593.243
 478  1531.304
 479  1538.82
 480  2368.246
 481  2452.569
 482  2688.541
 483  3207.242
 484  2411.134
 485  885.6953
 486  379.6281
 487  799.0987
 488  2596.608
 489  4048.759
 490  4536.204
 491  5097.509
 492  4731.202
 493  3427.083
 494  2641.564
 495  1985.322
 496  1887.531
 497  2190.674
 498  2936.353
 499  3056.15
 500  2290.396
 501  1875.083
 502  1177.513
 503  1182.183
 504  1996.217
 505  3269.399
 506  4423.235
 507  5107.979
 508  5150.771
 509  3822.604
 510  2760.311
 511  1787.216
