# Input file       =  1204448258.101844_cleaned.dat
# Candidate        =  PSR_0332+5434
# Telescope        =  AR
# Epoch_topo       =  58184.373577567640
# Epoch_bary       =  N/A
# T_sample         =  0.002
# Data Folded      =  7143424
# Data Avg         =  0.201505300598517
# Data StdDev      =  6.73169602975892 
# Profile Bins     =  256
# Profile Avg      =  5623.04903621353 
# Profile StdDev   =  1124.49551800799 
# Reduced chi-sqr  =  6.094
# Prob(Noise)      <  6.91e-185   (~29.0 sigma)
# P_topo (ms)      =  714.57958776876   +/- 1.63e-05
# P'_topo (s/s)    =  -0                +/- 8.85e-12
# P''_topo (s/s^2) =  0                 +/- 4.02e-15
# P_bary (ms)      =  N/A
# P'_bary (s/s)    =  N/A
# P''_bary (s/s^2) =  N/A
# P_orb (s)        =  N/A
# asin(i)/c (s)    =  N/A
# eccentricity     =  N/A
# w (rad)          =  N/A
# T_peri           =  N/A
######################################################
   0  4038.372
   1  5502.848
   2  5788.215
   3  2519.507
   4  2967.971
   5  8793.111
   6  10741.37
   7  7198.435
   8  3748.896
   9  4162.513
  10  6068.94
  11  4302.919
  12  2286.675
  13  5857.731
  14  10538.62
  15  7871.868
  16  3758.218
  17  4815.556
  18  5155.63
  19  3598.599
  20  2701.886
  21  6165.373
  22  10178.58
  23  7935.184
  24  5181.859
  25  4384.551
  26  5459.42
  27  4884.258
  28  2458.679
  29  4608.943
  30  9577.716
  31  9175.538
  32  5716.185
  33  5084.199
  34  5898.318
  35  4389.073
  36  2613.499
  37  3996.948
  38  8343.608
  39  10179.67
  40  6486.506
  41  3833.307
  42  4740.745
  43  5772.646
  44  3258.829
  45  1565.957
  46  6650.888
  47  11163.2
  48  8206.508
  49  3450.649
  50  3723.778
  51  5388.399
  52  4769.937
  53  2081.088
  54  4902.134
  55  9873.194
  56  9251.478
  57  3982.708
  58  4098.507
  59  5308.127
  60  5204.103
  61  2066.537
  62  4587.739
  63  9782.514
  64  9831.271
  65  6099.648
  66  4347.436
  67  5287.523
  68  5188.42
  69  2878.388
  70  3383.13
  71  7793.645
  72  9836.648
  73  6489.034
  74  4132.47
  75  5230.551
  76  5337.144
  77  3496.859
  78  2119.877
  79  6777.814
  80  10001.98
  81  7824.082
  82  4563.459
  83  4473.169
  84  5449.453
  85  5187.341
  86  2131.169
  87  5889.762
  88  10269.21
  89  10119.06
  90  5631.495
  91  4386.548
  92  6072.464
  93  5600.351
  94  2162.958
  95  5112.614
  96  9468.287
  97  10360.39
  98  5829.379
  99  5005.839
 100  5504.778
 101  5654.725
 102  3272.302
 103  4389.247
 104  8239.059
 105  10468.52
 106  7662.258
 107  4693.51
 108  5632.104
 109  5810.351
 110  3299.367
 111  2885.552
 112  7393.688
 113  10095.59
 114  7912.009
 115  4133.431
 116  4716.701
 117  4655.793
 118  3755.506
 119  1963.901
 120  5268.751
 121  9713.273
 122  8580.175
 123  5021.806
 124  4480.963
 125  5132.011
 126  4846.665
 127  2281.056
 128  3520.246
 129  8884.302
 130  11116.64
 131  6314.985
 132  3387.503
 133  4294.78
 134  6084.453
 135  2734.04
 136  2252.422
 137  7243.405
 138  10029.74
 139  6039.028
 140  4791.244
 141  4866.013
 142  5614.355
 143  2892.157
 144  2384.178
 145  6457.015
 146  8995.384
 147  7571.159
 148  5111.843
 149  4411.106
 150  5223.453
 151  5775.359
 152  4924.616
 153  6591.689
 154  8993.78
 155  8960.221
 156  5107.835
 157  4144.929
 158  5582.16
 159  4590.812
 160  2332.998
 161  3912.585
 162  9003.991
 163  10491.91
 164  5354.219
 165  4009.939
 166  5422.176
 167  6218.516
 168  2716.099
 169  2403.311
 170  7239.762
 171  10581.65
 172  6991.858
 173  3970.991
 174  4626.751
 175  5542.269
 176  3469.06
 177  2847.155
 178  5780.536
 179  9737.622
 180  8193.942
 181  4272.036
 182  4242.251
 183  4948.096
 184  3433.576
 185  1910.965
 186  4394.91
 187  9105.121
 188  9506.012
 189  4718.917
 190  3491.566
 191  4512.719
 192  4654.281
 193  2514.275
 194  3715.87
 195  7901.875
 196  9549.19
 197  5678.291
 198  4111.761
 199  5945.938
 200  5793.85
 201  1793.498
 202  3072.607
 203  7930.903
 204  10278.48
 205  5646.478
 206  3059.149
 207  5245.482
 208  6583.728
 209  3644.159
 210  2338.853
 211  6645.993
 212  10573.98
 213  7875.599
 214  3954.749
 215  4062.131
 216  5042.822
 217  5213.044
 218  1279.652
 219  4110.193
 220  8484.645
 221  9580.324
 222  5329.747
 223  3414.344
 224  5016.845
 225  5409.194
 226  2764.592
 227  2659.047
 228  7291.306
 229  10570.21
 230  7009.157
 231  3693.919
 232  3691.579
 233  4152.631
 234  3495.176
 235  2831.185
 236  6855.64
 237  10069.29
 238  6419.475
 239  3070.124
 240  4820.815
 241  5895.784
 242  3296.829
 243  1178.727
 244  6645.367
 245  9633.713
 246  8158.284
 247  4626.887
 248  4078.204
 249  5992.502
 250  4165.479
 251  2359.697
 252  5265.617
 253  9531.215
 254  8973.375
 255  4547.527
