# Input file       =  1204219305.114126_cleaned.dat
# Candidate        =  PSR_0332+5434
# Telescope        =  AR
# Epoch_topo       =  58181.723658728311
# Epoch_bary       =  N/A
# T_sample         =  0.002
# Data Folded      =  7340032
# Data Avg         =  0.0299717564960626
# Data StdDev      =  1.00004256884569 
# Profile Bins     =  512
# Profile Avg      =  429.485453462087 
# Profile StdDev   =  119.738133273915 
# Reduced chi-sqr  =  1.190
# Prob(Noise)      <  0.00194   (~2.9 sigma)
# P_topo (ms)      =  714.580393951334  +/- 0.000348
# P'_topo (s/s)    =  -0                +/- 1.84e-10
# P''_topo (s/s^2) =  0                 +/- 8.11e-14
# P_bary (ms)      =  N/A
# P'_bary (s/s)    =  N/A
# P''_bary (s/s^2) =  N/A
# P_orb (s)        =  N/A
# asin(i)/c (s)    =  N/A
# eccentricity     =  N/A
# w (rad)          =  N/A
# T_peri           =  N/A
######################################################
   0  867.9874
   1  890.1252
   2  575.6424
   3  366.8891
   4  380.3148
   5  530.5399
   6  400.513
   7  310.2291
   8  443.4537
   9  507.7486
  10  396.7438
  11  379.5967
  12  422.9859
  13  453.4703
  14  444.5772
  15  429.6571
  16  446.0133
  17  415.6309
  18  316.1585
  19  345.6405
  20  371.687
  21  377.462
  22  380.5138
  23  305.0949
  24  345.8971
  25  399.9294
  26  335.7391
  27  326.6981
  28  395.3058
  29  366.1594
  30  319.9768
  31  353.4565
  32  392.5663
  33  435.8321
  34  459.8544
  35  463.7769
  36  381.0487
  37  360.3841
  38  427.7957
  39  449.2971
  40  546.1375
  41  431.3464
  42  326.9406
  43  272.0323
  44  231.2913
  45  333.0594
  46  335.9037
  47  260.9296
  48  267.224
  49  301.3399
  50  305.0726
  51  427.9742
  52  520.6573
  53  522.5783
  54  498.3609
  55  402.9769
  56  416.9894
  57  302.6405
  58  360.5974
  59  487.5012
  60  457.1151
  61  351.1269
  62  447.2393
  63  336.4612
  64  389.2685
  65  338.6809
  66  357.6717
  67  265.5262
  68  279.5569
  69  465.4181
  70  351.8764
  71  265.5068
  72  287.8572
  73  352.4754
  74  427.3284
  75  424.6334
  76  348.6587
  77  473.0787
  78  596.591
  79  485.6255
  80  434.4409
  81  425.6058
  82  384.4161
  83  415.8622
  84  419.0105
  85  416.3308
  86  445.7442
  87  398.4218
  88  457.966
  89  455.7558
  90  430.9192
  91  473.2793
  92  524.7861
  93  496.9265
  94  480.7325
  95  369.2813
  96  374.2939
  97  276.5042
  98  270.4873
  99  322.5727
 100  332.0363
 101  317.9496
 102  314.0204
 103  245.6169
 104  255.2996
 105  354.55
 106  352.6959
 107  334.5769
 108  466.3694
 109  448.2528
 110  369.8804
 111  287.6852
 112  247.8085
 113  269.3184
 114  399.3846
 115  329.5665
 116  361.6655
 117  352.237
 118  408.8674
 119  435.8171
 120  372.3279
 121  338.0806
 122  423.5498
 123  470.9942
 124  448.5958
 125  479.0372
 126  461.6098
 127  472.9886
 128  471.655
 129  463.7753
 130  449.0547
 131  432.0597
 132  394.0333
 133  467.4518
 134  464.4084
 135  404.6485
 136  416.1578
 137  441.184
 138  615.9658
 139  618.5526
 140  498.7175
 141  429.49
 142  415.1297
 143  477.6908
 144  416.253
 145  476.3839
 146  400.4953
 147  395.2763
 148  486.7039
 149  496.0615
 150  382.7861
 151  435.0285
 152  555.1813
 153  480.0601
 154  507.5772
 155  553.6968
 156  404.4605
 157  394.0624
 158  544.6312
 159  462.3044
 160  494.801
 161  428.3378
 162  377.8387
 163  386.2381
 164  463.4697
 165  431.858
 166  419.452
 167  396.6846
 168  403.9591
 169  453.104
 170  429.8795
 171  479.6998
 172  491.0941
 173  443.4269
 174  444.1454
 175  404.0125
 176  497.2293
 177  494.7265
 178  512.7144
 179  611.4849
 180  448.0983
 181  383.6515
 182  350.9983
 183  279.6502
 184  359.4329
 185  448.8591
 186  388.1779
 187  302.6495
 188  343.1613
 189  291.7718
 190  383.9343
 191  474.6372
 192  448.7776
 193  468.0699
 194  449.2109
 195  513.2473
 196  415.5454
 197  367.8156
 198  469.8441
 199  395.7627
 200  331.6581
 201  398.3555
 202  522.7698
 203  407.4539
 204  407.3228
 205  480.3903
 206  388.3846
 207  396.8509
 208  565.0424
 209  574.9556
 210  568.097
 211  492.1704
 212  544.7538
 213  434.4001
 214  427.4035
 215  459.8242
 216  454.2169
 217  456.4882
 218  434.6504
 219  432.5292
 220  527.236
 221  491.4156
 222  394.317
 223  472.8506
 224  580.5178
 225  610.0033
 226  558.6321
 227  525.0398
 228  506.3419
 229  500.2401
 230  588.4899
 231  481.6949
 232  455.3445
 233  508.1334
 234  439.4594
 235  399.749
 236  586.6982
 237  590.9913
 238  483.3969
 239  491.054
 240  572.7462
 241  425.3389
 242  355.6585
 243  339.9812
 244  420.4254
 245  466.276
 246  484.7504
 247  350.4208
 248  484.8956
 249  466.9528
 250  491.4446
 251  447.118
 252  374.9812
 253  442.1197
 254  565.4749
 255  429.764
 256  450.7309
 257  492.1078
 258  491.0495
 259  426.0199
 260  491.1331
 261  537.2001
 262  484.7731
 263  499.2193
 264  459.4387
 265  419.154
 266  408.8048
 267  486.8629
 268  516.3432
 269  472.0596
 270  411.2476
 271  413.4988
 272  486.576
 273  496.4962
 274  467.4383
 275  338.9717
 276  307.2393
 277  381.204
 278  423.597
 279  546.2723
 280  525.7827
 281  384.4351
 282  372.5658
 283  486.9105
 284  601.0817
 285  660.6097
 286  527.6204
 287  437.2348
 288  397.3085
 289  428.5806
 290  503.7526
 291  501.6432
 292  517.8474
 293  418.0058
 294  419.3371
 295  496.5647
 296  584.8517
 297  596.6897
 298  536.7762
 299  518.0023
 300  554.7602
 301  509.0865
 302  421.7844
 303  338.8097
 304  371.9211
 305  514.7988
 306  500.0282
 307  480.9527
 308  534.7348
 309  510.6646
 310  476.7442
 311  473.4992
 312  526.7974
 313  565.9359
 314  490.4766
 315  454.5915
 316  553.8109
 317  572.4014
 318  492.3031
 319  523.7802
 320  564.3594
 321  573.1813
 322  463.8197
 323  360.0972
 324  488.9362
 325  529.6657
 326  444.1415
 327  439.7614
 328  469.213
 329  404.8486
 330  466.2463
 331  477.9549
 332  404.6551
 333  521.5121
 334  472.6945
 335  475.2726
 336  591.3738
 337  558.7593
 338  537.4654
 339  522.9164
 340  529.9841
 341  581.6015
 342  535.4106
 343  429.1856
 344  462.0964
 345  394.1953
 346  439.0743
 347  461.4035
 348  441.9434
 349  389.312
 350  465.9279
 351  556.39
 352  530.2934
 353  505.3357
 354  502.829
 355  510.7691
 356  482.0727
 357  631.5057
 358  534.1235
 359  546.0216
 360  646.9834
 361  571.6061
 362  499.2422
 363  502.6146
 364  476.714
 365  556.4913
 366  566.7864
 367  603.3782
 368  429.3325
 369  456.6923
 370  542.0422
 371  382.6915
 372  433.682
 373  499.7939
 374  456.1407
 375  523.2335
 376  471.3466
 377  439.8839
 378  375.2498
 379  471.971
 380  551.4632
 381  477.7201
 382  462.9201
 383  481.1107
 384  324.9945
 385  392.1296
 386  511.5359
 387  404.314
 388  288.5258
 389  339.8978
 390  341.2504
 391  437.3712
 392  530.2927
 393  450.9658
 394  376.212
 395  446.8976
 396  519.3699
 397  530.9962
 398  459.5286
 399  434.2056
 400  433.3837
 401  492.7358
 402  479.8101
 403  367.4127
 404  337.5169
 405  412.897
 406  287.8257
 407  421.6775
 408  424.8097
 409  402.8659
 410  396.017
 411  418.1119
 412  434.4254
 413  444.8432
 414  393.4014
 415  345.2801
 416  256.0194
 417  396.5047
 418  437.38
 419  484.1777
 420  474.0186
 421  503.0228
 422  440.1991
 423  454.0816
 424  466.1446
 425  434.8741
 426  378.9714
 427  411.8635
 428  454.0018
 429  342.6892
 430  289.6647
 431  388.6878
 432  340.2141
 433  325.2337
 434  291.3459
 435  274.5317
 436  249.991
 437  370.1114
 438  413.0935
 439  413.5653
 440  320.2228
 441  362.8415
 442  285.9044
 443  361.5714
 444  411.9258
 445  310.0524
 446  380.0852
 447  389.519
 448  355.7433
 449  310.394
 450  298.7299
 451  372.9179
 452  311.4306
 453  366.0017
 454  471.9549
 455  345.3938
 456  248.6959
 457  182.7716
 458  246.1544
 459  383.5504
 460  401.5861
 461  311.1531
 462  346.7954
 463  459.7635
 464  335.1057
 465  307.3779
 466  347.5869
 467  322.4801
 468  289.6774
 469  258.0495
 470  200.6467
 471  364.6263
 472  336.4284
 473  274.8427
 474  378.0942
 475  337.9978
 476  273.412
 477  252.0152
 478  342.4219
 479  440.5772
 480  446.1212
 481  335.2418
 482  338.514
 483  350.5405
 484  332.1565
 485  324.652
 486  264.4559
 487  320.1383
 488  303.415
 489  222.6213
 490  215.2227
 491  204.2489
 492  197.6548
 493  380.598
 494  403.9647
 495  463.8732
 496  364.1259
 497  282.7729
 498  248.5
 499  342.6682
 500  434.7548
 501  373.3861
 502  350.2466
 503  435.2647
 504  407.8777
 505  403.157
 506  451.8641
 507  480.45
 508  469.5301
 509  691.482
 510  849.3898
 511  837.0921
