# Input file       =  1204721893.107728_cleaned.dat
# Candidate        =  PSR_0332+5434
# Telescope        =  AR
# Epoch_topo       =  58187.540649394999
# Epoch_bary       =  N/A
# T_sample         =  0.002
# Data Folded      =  7340032
# Data Avg         =  0.176048709686646
# Data StdDev      =  10.668936768853  
# Profile Bins     =  256
# Profile Avg      =  5046.94134337884 
# Profile StdDev   =  1806.55062040691 
# Reduced chi-sqr  =  0.827
# Prob(Noise)      <  0.98   (~0.0 sigma)
# P_topo (ms)      =  714.578902249522  +/- 0.000568
# P'_topo (s/s)    =  -0                +/- 3e-10
# P''_topo (s/s^2) =  0                 +/- 1.32e-13
# P_bary (ms)      =  N/A
# P'_bary (s/s)    =  N/A
# P''_bary (s/s^2) =  N/A
# P_orb (s)        =  N/A
# asin(i)/c (s)    =  N/A
# eccentricity     =  N/A
# w (rad)          =  N/A
# T_peri           =  N/A
######################################################
   0  4921.283
   1  6104.971
   2  5577.121
   3  6278.896
   4  8073.604
   5  7634.239
   6  6205.861
   7  5996.751
   8  5283.98
   9  6357.975
  10  5638.831
  11  5540.561
  12  4891.082
  13  5780.725
  14  5326.018
  15  4460.041
  16  5291.354
  17  6042.907
  18  5743.248
  19  5922.232
  20  5928.671
  21  5786.452
  22  5359.001
  23  3665.733
  24  4359.159
  25  5609.822
  26  4382.976
  27  3771.671
  28  6326.872
  29  4863.838
  30  4997.215
  31  4698.181
  32  6068.98
  33  6035.557
  34  4575.994
  35  6098.437
  36  4152.913
  37  4079.824
  38  5743.182
  39  5479.946
  40  5266.573
  41  4160.14
  42  5999.319
  43  6897.997
  44  4868.483
  45  5790.456
  46  6466.312
  47  7014.788
  48  5314.418
  49  5576.614
  50  6533.165
  51  6599.385
  52  8078.744
  53  7625.21
  54  5591.355
  55  4908.154
  56  4229.213
  57  5549.191
  58  4940.027
  59  3543.695
  60  4211.344
  61  4741.141
  62  4754.375
  63  4527.38
  64  3856.983
  65  4586.259
  66  4161.264
  67  4215.644
  68  3858.972
  69  4415.96
  70  3819.827
  71  4471.146
  72  4313.523
  73  4121.602
  74  4279.782
  75  2973.283
  76  4402.249
  77  4695.365
  78  3513.06
  79  4917.81
  80  7255.402
  81  7135.73
  82  6673.969
  83  4343.813
  84  5502.038
  85  5519.638
  86  5869.345
  87  5117.487
  88  3692.049
  89  2570.755
  90  3564.755
  91  3674.258
  92  5540.677
  93  4651.69
  94  5575.768
  95  6372.102
  96  6321.013
  97  6396.132
  98  6720.288
  99  6414.983
 100  4993.421
 101  5057.457
 102  7149.154
 103  5669.587
 104  4363.184
 105  4213.037
 106  6412.598
 107  5173.127
 108  5778.558
 109  4629.236
 110  5585.058
 111  7209.488
 112  7496.315
 113  7717.734
 114  8008.984
 115  6275.245
 116  6477.979
 117  5551.033
 118  5395.653
 119  3613.56
 120  5734.578
 121  6971.573
 122  6157.058
 123  5828.349
 124  5235.522
 125  6098.694
 126  5614.506
 127  1946.819
 128  4819.151
 129  3691.61
 130  3320.789
 131  5602.111
 132  6255.525
 133  3190.207
 134  2320.334
 135  4601.972
 136  2015.279
 137  1136.609
 138  884.3583
 139  2663.474
 140  1397.721
 141  1058.68
 142  4209.923
 143  4368.774
 144  3229.654
 145  4349.615
 146  5370.429
 147  5617.427
 148  3750.342
 149  4219.995
 150  4840.125
 151  6945.722
 152  6597.341
 153  7122.904
 154  5471.035
 155  3898.692
 156  4559.341
 157  4052.252
 158  4639.652
 159  2926.064
 160  1933.099
 161  3344.593
 162  4126.759
 163  4699.001
 164  4456.562
 165  4726.942
 166  5525.542
 167  6807.851
 168  5433.367
 169  4830.604
 170  5748.069
 171  4867.832
 172  4370.74
 173  2412.042
 174  3940.041
 175  3861.086
 176  4722.311
 177  4179.152
 178  6137.292
 179  6420.496
 180  5369.461
 181  4922.581
 182  6758.411
 183  7922.516
 184  6807.165
 185  6055.12
 186  7407.397
 187  7285.233
 188  6299.712
 189  5887.422
 190  6496.315
 191  5652.356
 192  5026.804
 193  6640.651
 194  5423.138
 195  4559.499
 196  4225.552
 197  4752.659
 198  3996.241
 199  4197.357
 200  2097.166
 201  2700.167
 202  2913.876
 203  2770.577
 204  2396.083
 205  3038.9
 206  3111.704
 207  2065.776
 208  3115.931
 209  3900.007
 210  4474.185
 211  4760.83
 212  5896.812
 213  5481.802
 214  5453.158
 215  4120.208
 216  5225.04
 217  6067.839
 218  3849.005
 219  6335.61
 220  7616.938
 221  7276.548
 222  5605.164
 223  7219.036
 224  8517.767
 225  7296.203
 226  5045.199
 227  6040.693
 228  7862.994
 229  7316.398
 230  5944.264
 231  6277.796
 232  5610.549
 233  4347.471
 234  4804.152
 235  6480.478
 236  5155.761
 237  4883.671
 238  5361.496
 239  3474.781
 240  2593.939
 241  5142.01
 242  5176.203
 243  4245.924
 244  5743.334
 245  4577.604
 246  2964.052
 247  3106.339
 248  4175.108
 249  4872.591
 250  3509.836
 251  3861.996
 252  3885.638
 253  3885.821
 254  3548.333
 255  3344.434
