# Input file       =  1204620467.112361_cleaned.dat
# Candidate        =  PSR_0332+5434
# Telescope        =  AR
# Epoch_topo       =  58186.366737411583
# Epoch_bary       =  N/A
# T_sample         =  0.002
# Data Folded      =  7208960
# Data Avg         =  0.0228657190892089
# Data StdDev      =  0.999946611237192
# Profile Bins     =  512
# Profile Avg      =  321.998383528828 
# Profile StdDev   =  118.652840726939 
# Reduced chi-sqr  =  1.821
# Prob(Noise)      <  7.99e-27   (~10.7 sigma)
# P_topo (ms)      =  714.57916371604   +/- 7.16e-05
# P'_topo (s/s)    =  -0                +/- 3.85e-11
# P''_topo (s/s^2) =  0                 +/- 1.73e-14
# P_bary (ms)      =  N/A
# P'_bary (s/s)    =  N/A
# P''_bary (s/s^2) =  N/A
# P_orb (s)        =  N/A
# asin(i)/c (s)    =  N/A
# eccentricity     =  N/A
# w (rad)          =  N/A
# T_peri           =  N/A
######################################################
   0  948.1639
   1  846.6548
   2  806.7322
   3  538.1332
   4  522.3581
   5  532.7583
   6  513.0651
   7  351.8092
   8  279.1129
   9  390.0319
  10  511.8772
  11  489.6412
  12  425.2952
  13  417.8269
  14  467.9296
  15  399.9995
  16  316.3241
  17  296.6071
  18  326.5746
  19  402.5809
  20  489.9705
  21  450.467
  22  445.1599
  23  321.8143
  24  389.8068
  25  448.3504
  26  517.4042
  27  470.4476
  28  366.4051
  29  576.8104
  30  525.2892
  31  412.6577
  32  352.7587
  33  320.1671
  34  377.7854
  35  390.062
  36  319.4517
  37  415.1876
  38  563.147
  39  463.4257
  40  392.3386
  41  252.3832
  42  213.8622
  43  289.4168
  44  313.5626
  45  399.1045
  46  460.4926
  47  473.8378
  48  228.2614
  49  162.2875
  50  272.4236
  51  325.4514
  52  361.938
  53  422.091
  54  471.7331
  55  525.972
  56  382.5113
  57  388.6348
  58  388.902
  59  417.5955
  60  344.727
  61  392.3161
  62  368.9304
  63  463.7286
  64  576.0479
  65  441.2193
  66  238.6053
  67  257.2497
  68  359.6754
  69  358.1243
  70  341.7997
  71  492.9828
  72  455.9064
  73  282.3724
  74  329.625
  75  503.7498
  76  425.5449
  77  358.342
  78  312.0754
  79  316.7522
  80  329.6882
  81  303.8166
  82  274.6073
  83  288.7393
  84  357.0392
  85  398.0854
  86  297.2679
  87  201.1066
  88  222.9967
  89  348.3156
  90  305.2273
  91  349.9091
  92  353.3024
  93  354.531
  94  407.6641
  95  385.4252
  96  363.493
  97  416.9953
  98  363.8685
  99  182.694
 100  193.5248
 101  229.5523
 102  292.85
 103  361.3702
 104  386.8157
 105  399.1562
 106  290.336
 107  321.9499
 108  278.5234
 109  316.6514
 110  400.2487
 111  371.8857
 112  386.9432
 113  325.6148
 114  167.4077
 115  221.8919
 116  274.0099
 117  317.6593
 118  345.8105
 119  339.6111
 120  367.7781
 121  385.3657
 122  494.8026
 123  344.4849
 124  249.3594
 125  286.3917
 126  316.6298
 127  401.6196
 128  366.4973
 129  343.8799
 130  325.8424
 131  304.7432
 132  229.5035
 133  203.3965
 134  404.1796
 135  479.5953
 136  474.8155
 137  383.0771
 138  393.7334
 139  301.3326
 140  371.101
 141  394.8146
 142  294.5007
 143  350.9237
 144  277.8774
 145  247.438
 146  214.7442
 147  296.6488
 148  331.29
 149  257.7655
 150  293.6335
 151  426.5825
 152  460.3628
 153  338.7162
 154  403.4432
 155  464.1302
 156  310.7718
 157  307.2157
 158  307.3905
 159  368.1689
 160  369.5402
 161  316.023
 162  337.1306
 163  405.2815
 164  228.1567
 165  307.7708
 166  213.2814
 167  325.0207
 168  417.4792
 169  512.0421
 170  410.0698
 171  332.3425
 172  352.8061
 173  385.4377
 174  374.5785
 175  364.2624
 176  233.197
 177  354.4325
 178  222.4937
 179  275.8299
 180  152.5005
 181  196.212
 182  136.6912
 183  251.9201
 184  293.4572
 185  320.0623
 186  344.7144
 187  394.0342
 188  240.7569
 189  332.8445
 190  387.4667
 191  252.1337
 192  230.8498
 193  194.6682
 194  284.6426
 195  365.7101
 196  330.8596
 197  222.5259
 198  18.67429
 199  129.1469
 200  280.4973
 201  329.481
 202  352.533
 203  396.7032
 204  352.2466
 205  229.0047
 206  201.578
 207  356.2791
 208  388.4293
 209  293.3743
 210  306.0057
 211  381.0411
 212  434.6497
 213  351.7297
 214  375.9445
 215  293.3738
 216  147.0848
 217  201.5999
 218  299.1487
 219  344.7603
 220  443.1327
 221  347.7205
 222  274.8362
 223  215.1752
 224  232.3019
 225  247.3411
 226  141.4497
 227  135.3253
 228  255.0689
 229  299.9704
 230  236.7581
 231  154.1705
 232  97.47746
 233  230.1209
 234  280.6072
 235  349.7132
 236  475.3217
 237  280.9924
 238  166.2043
 239  255.7317
 240  169.7853
 241  187.5321
 242  263.386
 243  291.6251
 244  240.0401
 245  263.2112
 246  270.4454
 247  157.2673
 248  172.0841
 249  220.8186
 250  188.488
 251  238.2822
 252  400.6373
 253  341.2705
 254  217.3414
 255  206.1319
 256  260.8904
 257  240.4232
 258  350.7724
 259  228.9237
 260  293.5725
 261  257.3398
 262  224.729
 263  255.8169
 264  327.9164
 265  193.8045
 266  154.0559
 267  239.6654
 268  351.7281
 269  342.8635
 270  231.8087
 271  145.008
 272  152.7261
 273  284.0869
 274  229.5009
 275  135.4617
 276  164.8396
 277  249.7032
 278  225.6038
 279  173.3292
 280  148.9155
 281  193.5104
 282  209.2578
 283  270.2089
 284  281.0451
 285  302.5365
 286  295.1714
 287  334.5794
 288  318.89
 289  221.9158
 290  153.1347
 291  188.3135
 292  276.8129
 293  351.9785
 294  315.3169
 295  388.3191
 296  353.3457
 297  285.2408
 298  108.0633
 299  393.272
 300  456.5709
 301  302.4147
 302  372.1786
 303  242.8018
 304  151.3966
 305  196.4124
 306  254.5659
 307  225.1077
 308  288.1021
 309  245.6143
 310  194.5563
 311  334.3909
 312  318.6638
 313  227.6152
 314  263.4944
 315  343.8396
 316  239.7687
 317  233.0557
 318  361.5098
 319  305.9962
 320  206.1565
 321  201.0774
 322  271.5226
 323  261.2921
 324  321.2072
 325  275.2363
 326  207.427
 327  226.0628
 328  95.30397
 329  151.5831
 330  121.5891
 331  153.6082
 332  320.5035
 333  288.1625
 334  179.2035
 335  334.5197
 336  467.2852
 337  209.1803
 338  165.2545
 339  264.0181
 340  358.6496
 341  297.2859
 342  218.3531
 343  173.106
 344  252.6584
 345  210.8113
 346  181.5474
 347  101.7672
 348  85.38707
 349  74.50573
 350  163.6625
 351  262.3884
 352  273.3459
 353  173.8139
 354  170.7641
 355  240.1759
 356  292.2862
 357  221.7075
 358  221.4028
 359  181.6001
 360  283.6804
 361  214.9902
 362  99.29849
 363  239.2482
 364  380.4051
 365  184.5078
 366  203.865
 367  370.8429
 368  401.2773
 369  456.5092
 370  435.7666
 371  352.209
 372  480.3813
 373  365.8089
 374  355.1712
 375  226.9124
 376  221.7251
 377  370.1129
 378  340.6892
 379  223.811
 380  236.9225
 381  239.1318
 382  213.0611
 383  251.9184
 384  270.7594
 385  347.059
 386  307.1541
 387  234.7013
 388  255.7189
 389  345.923
 390  274.675
 391  274.0355
 392  365.1217
 393  314.3896
 394  247.7173
 395  97.03282
 396  218.7493
 397  349.8674
 398  309.2381
 399  281.5506
 400  381.5076
 401  559.0248
 402  519.314
 403  410.4999
 404  376.1727
 405  316.2338
 406  470.9759
 407  309.8477
 408  273.3204
 409  180.2903
 410  356.0752
 411  209.427
 412  217.3728
 413  332.8672
 414  197.3957
 415  241.5122
 416  315.7982
 417  342.4711
 418  469.6062
 419  461.4742
 420  357.8442
 421  207.4551
 422  221.9255
 423  338.3543
 424  270.1571
 425  383.0758
 426  407.4883
 427  306.2435
 428  256.6431
 429  99.90237
 430  213.2126
 431  368.9596
 432  309.2247
 433  273.656
 434  325.6758
 435  401.2483
 436  386.3066
 437  334.469
 438  349.6448
 439  438.2789
 440  352.2162
 441  171.3973
 442  242.0601
 443  430.2686
 444  405.4658
 445  291.5047
 446  236.3813
 447  390.7002
 448  276.9229
 449  293.0944
 450  293.56
 451  385.4378
 452  367.8923
 453  346.4612
 454  385.3296
 455  336.2986
 456  473.7959
 457  447.0936
 458  351.3831
 459  375.687
 460  529.1193
 461  359.6605
 462  233.929
 463  244.1441
 464  305.7616
 465  322.7734
 466  340.0646
 467  474.4606
 468  374.1305
 469  303.9678
 470  243.0555
 471  375.4682
 472  275.4049
 473  250.9465
 474  232.3439
 475  450.7513
 476  540.4896
 477  463.4309
 478  275.4667
 479  224.7537
 480  322.9672
 481  268.8364
 482  248.7286
 483  423.8824
 484  454.1009
 485  302.0113
 486  311.4629
 487  258.307
 488  309.9756
 489  404.9546
 490  278.5705
 491  368.7605
 492  543.3188
 493  493.4052
 494  161.6541
 495  227.3585
 496  376.2085
 497  409.6348
 498  495.9839
 499  477.6615
 500  533.3364
 501  452.1514
 502  381.4662
 503  383.6631
 504  479.9636
 505  633.8932
 506  501.3252
 507  453.4404
 508  625.6045
 509  712.4299
 510  794.5195
 511  985.7353
