# Input file       =  1204133086.102360-PSRB0329-2ms-sampling-dd.dat
# Candidate        =  PSR_0332+5434
# Telescope        =  AR
# Epoch_topo       =  58180.725753499537
# Epoch_bary       =  N/A
# T_sample         =  0.002
# Data Folded      =  7340032
# Data Avg         =  -1.46344801062928e-09
# Data StdDev      =  8.13715557071769 
# Profile Bins     =  512
# Profile Avg      =  0.100845911599677
# Profile StdDev   =  974.286343952147 
# Reduced chi-sqr  =  0.345
# Prob(Noise)      <  1   (~0.0 sigma)
# P_topo (ms)      =  714.580535213464  +/- 0.000967
# P'_topo (s/s)    =  -0                +/- 5.1e-10
# P''_topo (s/s^2) =  0                 +/- 2.25e-13
# P_bary (ms)      =  N/A
# P'_bary (s/s)    =  N/A
# P''_bary (s/s^2) =  N/A
# P_orb (s)        =  N/A
# asin(i)/c (s)    =  N/A
# eccentricity     =  N/A
# w (rad)          =  N/A
# T_peri           =  N/A
######################################################
   0  -177.8813
   1  124.2781
   2  -5.559284
   3  -350.8026
   4  -387.9835
   5  -590.8432
   6  -331.8363
   7  -204.9847
   8  372.8988
   9  398.6674
  10  434.1097
  11  37.471
  12  -99.7143
  13  32.96076
  14  -161.4081
  15  -13.11432
  16  -22.43453
  17  -47.66714
  18  362.2681
  19  -55.44139
  20  -180.6074
  21  181.5782
  22  -46.02475
  23  3.421955
  24  9.271735
  25  185.789
  26  251.2861
  27  -146.9079
  28  178.5553
  29  -72.35461
  30  -105.9967
  31  -165.082
  32  -3.17729
  33  120.7647
  34  188.0516
  35  77.21738
  36  -587.7007
  37  -673.9106
  38  -97.81498
  39  -148.9469
  40  128.906
  41  394.1924
  42  84.56325
  43  75.74094
  44  -459.3622
  45  -190.5913
  46  -103.0616
  47  -422.1851
  48  -392.5155
  49  -357.1262
  50  -260.7344
  51  266.7471
  52  264.1365
  53  -158.445
  54  42.79588
  55  133.2948
  56  82.52155
  57  130.8058
  58  -12.31771
  59  -182.1626
  60  30.84393
  61  502.5624
  62  416.4567
  63  -322.6567
  64  -68.79653
  65  415.8599
  66  18.55798
  67  -176.3537
  68  -542.3
  69  -654.7127
  70  -413.9455
  71  -395.722
  72  -472.4464
  73  -979.1493
  74  -888.7346
  75  -468.9533
  76  -808.8503
  77  -739.8709
  78  -813.9854
  79  -592.2824
  80  -861.8637
  81  -1190.391
  82  -764.0745
  83  -377.5473
  84  -413.7313
  85  -489.9028
  86  -590.0194
  87  -1030.445
  88  -666.0948
  89  -732.0818
  90  -494.8312
  91  112.143
  92  -177.1816
  93  66.01147
  94  -222.1524
  95  -595.1869
  96  -880.9382
  97  -713.8989
  98  -386.3197
  99  2.465991
 100  138.6823
 101  -68.35623
 102  -393.7441
 103  -290.6627
 104  -162.8759
 105  91.85315
 106  326.3641
 107  263.8367
 108  217.9615
 109  789.0621
 110  516.233
 111  -18.51905
 112  182.3477
 113  601.7862
 114  424.6452
 115  695.6683
 116  1037.487
 117  549.917
 118  -0.1947427
 119  3.821184
 120  174.4616
 121  384.9243
 122  1206.858
 123  893.0323
 124  503.8449
 125  236.2651
 126  -352.8251
 127  -96.37839
 128  -111.3371
 129  -122.0577
 130  25.80247
 131  112.0406
 132  -192.2365
 133  -569.3797
 134  -475.0538
 135  -338.3707
 136  -511.2943
 137  253.9619
 138  625.8026
 139  553.2212
 140  -38.45095
 141  -74.14821
 142  -193.0488
 143  -220.5916
 144  89.09937
 145  49.4665
 146  514.8958
 147  195.6542
 148  -228.0138
 149  -54.72129
 150  212.2477
 151  538.2819
 152  734.1011
 153  676.5397
 154  483.4905
 155  -181.3408
 156  -290.449
 157  158.1489
 158  367.8089
 159  230.0236
 160  -165.7703
 161  -279.1933
 162  -704.2407
 163  -384.463
 164  -47.86839
 165  331.3076
 166  313.9177
 167  227.2862
 168  80.3496
 169  -124.9876
 170  -175.0755
 171  -501.0114
 172  -62.04813
 173  54.94024
 174  91.78494
 175  291.9446
 176  200.1152
 177  -219.4086
 178  -26.40072
 179  -1.733764
 180  74.12306
 181  -131.2446
 182  89.6972
 183  124.8419
 184  157.0805
 185  228.2379
 186  110.4046
 187  -56.68802
 188  -13.13846
 189  -25.41754
 190  -180.062
 191  -403.2863
 192  -348.4688
 193  -354.3563
 194  -79.88883
 195  212.0349
 196  69.7291
 197  -171.2426
 198  -384.6177
 199  -658.829
 200  -347.9008
 201  -153.9543
 202  -4.117031
 203  -54.63837
 204  283.0544
 205  169.2898
 206  -567.7239
 207  -712.0767
 208  -979.3003
 209  -624.11
 210  -690.135
 211  -308.7068
 212  -516.5876
 213  -532.1351
 214  -530.2697
 215  -992.8307
 216  -784.1159
 217  -482.4683
 218  -562.5215
 219  -436.3655
 220  -466.6154
 221  -409.154
 222  -483.203
 223  -1010.319
 224  -676.4761
 225  -648.2812
 226  -509.8801
 227  -689.483
 228  -1134.104
 229  -522.2245
 230  -722.3579
 231  -767.8295
 232  -217.8212
 233  -202.3756
 234  -267.0569
 235  -565.8412
 236  -690.1252
 237  -241.7238
 238  -230.8172
 239  369.2205
 240  361.7964
 241  163.4836
 242  14.83676
 243  -41.92161
 244  -198.3713
 245  -15.38133
 246  109.8584
 247  505.3618
 248  -141.23
 249  274.2794
 250  132.8745
 251  88.72018
 252  20.86049
 253  110.8684
 254  266.6449
 255  208.9952
 256  435.1227
 257  346.5255
 258  307.4447
 259  499.5303
 260  312.4958
 261  173.3291
 262  67.50088
 263  108.7423
 264  226.734
 265  318.1982
 266  112.1704
 267  601.7578
 268  626.0051
 269  590.3228
 270  321.0689
 271  47.22133
 272  -19.95941
 273  40.08218
 274  280.5271
 275  -3.401264
 276  -60.00705
 277  -22.00471
 278  -5.846545
 279  -6.999819
 280  -34.81789
 281  -132.0393
 282  154.6384
 283  416.1761
 284  227.2164
 285  353.4928
 286  239.6315
 287  166.7733
 288  -35.26236
 289  -41.18166
 290  164.3568
 291  323.5403
 292  208.5178
 293  126.6764
 294  197.2152
 295  126.465
 296  -274.2735
 297  -362.5648
 298  267.0775
 299  477.9634
 300  106.1149
 301  -149.3825
 302  -243.5536
 303  -551.3087
 304  -475.4664
 305  -231.0947
 306  -339.1902
 307  -359.8173
 308  -47.00148
 309  173.6961
 310  251.9771
 311  -24.13518
 312  41.18075
 313  196.5125
 314  395.0306
 315  1001.191
 316  1438.664
 317  1615.677
 318  1991.583
 319  1736.658
 320  1070.368
 321  858.0654
 322  775.5637
 323  478.8574
 324  289.1392
 325  144.2961
 326  263.2981
 327  37.94995
 328  -22.50853
 329  356.3132
 330  -327.8306
 331  -724.6542
 332  -694.4261
 333  -515.3246
 334  -48.2257
 335  -165.9561
 336  -114.1253
 337  104.8118
 338  454.508
 339  620.0613
 340  574.1442
 341  577.3065
 342  459.1051
 343  129.6039
 344  -368.018
 345  -538.4626
 346  -181.2124
 347  224.5155
 348  136.9203
 349  -247.5152
 350  -567.0202
 351  -563.5038
 352  -303.9639
 353  -176.5786
 354  38.04454
 355  82.96044
 356  521.0324
 357  605.7283
 358  600.7058
 359  239.9707
 360  -42.83788
 361  497.3482
 362  178.0358
 363  138.6968
 364  418.6843
 365  354.4111
 366  507.6364
 367  331.373
 368  343.9007
 369  205.7531
 370  -1.110758
 371  175.0314
 372  618.6348
 373  369.4895
 374  119.2818
 375  -122.2272
 376  49.48626
 377  -112.181
 378  -220.9423
 379  -406.524
 380  -457.7243
 381  -48.2594
 382  250.0118
 383  101.5932
 384  -311.3218
 385  -523.9844
 386  -500.6993
 387  -164.8355
 388  -69.57737
 389  -677.5814
 390  -533.4927
 391  -335.1267
 392  -304.7355
 393  -508.5882
 394  -650.0801
 395  -507.6419
 396  -608.7661
 397  -259.475
 398  -526.1555
 399  -127.6845
 400  -73.8952
 401  -165.1014
 402  -301.1904
 403  -338.1304
 404  -250.7804
 405  73.22248
 406  -188.7936
 407  -224.8647
 408  -133.0663
 409  21.63729
 410  80.63543
 411  246.1702
 412  450.8589
 413  371.4624
 414  298.9934
 415  -20.91916
 416  224.5284
 417  176.3945
 418  465.4905
 419  340.3412
 420  293.7552
 421  831.1732
 422  767.275
 423  233.2079
 424  483.4014
 425  406.0293
 426  492.6081
 427  287.624
 428  80.35982
 429  -154.3421
 430  -122.2995
 431  49.19729
 432  230.5251
 433  -26.27217
 434  63.60551
 435  164.9179
 436  46.87875
 437  117.7821
 438  70.54135
 439  87.03941
 440  530.9303
 441  872.9417
 442  274.6294
 443  57.6067
 444  78.02443
 445  -125.6591
 446  84.38611
 447  403.6169
 448  476.3462
 449  187.0031
 450  280.3484
 451  204.3896
 452  17.52424
 453  60.16179
 454  -32.9535
 455  47.39101
 456  192.5119
 457  -265.9435
 458  -167.4805
 459  -332.9817
 460  -80.81903
 461  -7.481858
 462  108.0886
 463  623.9236
 464  427.9979
 465  108.9599
 466  92.45027
 467  282.6359
 468  474.627
 469  709.4673
 470  341.1925
 471  548.7216
 472  531.048
 473  554.6404
 474  380.948
 475  84.30514
 476  171.9604
 477  -16.6177
 478  8.828167
 479  -200.0069
 480  -131.3664
 481  -249.1746
 482  -410.3629
 483  -544.9779
 484  -135.5045
 485  326.3024
 486  221.2372
 487  283.3857
 488  -126.7677
 489  -196.0975
 490  -217.8857
 491  -423.6097
 492  -559.4897
 493  -178.134
 494  -19.7945
 495  100.7398
 496  386.6799
 497  206.4953
 498  -159.5774
 499  -478.3141
 500  241.2228
 501  161.2194
 502  298.8799
 503  305.144
 504  11.98574
 505  431.2033
 506  669.7244
 507  618.4683
 508  768.8182
 509  283.5897
 510  -137.0826
 511  -20.85718
