# Input file       =  1204792879.116628_cleaned.dat
# Candidate        =  PSR_0332+5434
# Telescope        =  AR
# Epoch_topo       =  58188.362246720229
# Epoch_bary       =  N/A
# T_sample         =  0.002
# Data Folded      =  7405568
# Data Avg         =  0.233753767330199
# Data StdDev      =  6.40381580654129 
# Profile Bins     =  256
# Profile Avg      =  6761.90313694273 
# Profile StdDev   =  1089.17593250286 
# Reduced chi-sqr  =  6.960
# Prob(Noise)      <  1.51e-225   (~32.0 sigma)
# P_topo (ms)      =  714.578668922535  +/- 1.6e-05
# P'_topo (s/s)    =  -0                +/- 8.36e-12
# P''_topo (s/s^2) =  0                 +/- 3.66e-15
# P_bary (ms)      =  N/A
# P'_bary (s/s)    =  N/A
# P''_bary (s/s^2) =  N/A
# P_orb (s)        =  N/A
# asin(i)/c (s)    =  N/A
# eccentricity     =  N/A
# w (rad)          =  N/A
# T_peri           =  N/A
######################################################
   0  6602.989
   1  5548.904
   2  4813.976
   3  4818.95
   4  10940.2
   5  9060.218
   6  6920.719
   7  4769.652
   8  5953.629
   9  5737.527
  10  4587.851
  11  6301.646
  12  10071.3
  13  10372.85
  14  6571.766
  15  5519.743
  16  4872.32
  17  5949.484
  18  3493.485
  19  5366.253
  20  8953.591
  21  12495.1
  22  6781.292
  23  4573.436
  24  4520.838
  25  7694.921
  26  4422.617
  27  4440.119
  28  8131.032
  29  12214.26
  30  8552.634
  31  6263.03
  32  4795.961
  33  7285.874
  34  5902.59
  35  4735.82
  36  7087.295
  37  12226.75
  38  9974.222
  39  6580.238
  40  4941.869
  41  6202.293
  42  6468.791
  43  4763.391
  44  5808.604
  45  9812.134
  46  11244.57
  47  6725.033
  48  5143.283
  49  4146.894
  50  6655.705
  51  4663.604
  52  5995.141
  53  8113.469
  54  11996.78
  55  7292.778
  56  5238.671
  57  4141.058
  58  7131.502
  59  4524.365
  60  4683.648
  61  7266.183
  62  11710.58
  63  8360.091
  64  5265.737
  65  4344.426
  66  7287.929
  67  5800.402
  68  4366.414
  69  6637.456
  70  11459.6
  71  10263.5
  72  6274.08
  73  4404.012
  74  6026.975
  75  5577.474
  76  3428.112
  77  4749.707
  78  10395.74
  79  11892.8
  80  6435.769
  81  4007.356
  82  5075.319
  83  8061.404
  84  4374.803
  85  4287.523
  86  8443.275
  87  12575.31
  88  7250.879
  89  4903.275
  90  4566.887
  91  7584.232
  92  5285.964
  93  4196.118
  94  6609.16
  95  12054.2
  96  8864.799
  97  5173.879
  98  4587.025
  99  7160.386
 100  5756.3
 101  5081.845
 102  6207.067
 103  10611.24
 104  10257
 105  5981.594
 106  4836.502
 107  5970.019
 108  5651.232
 109  3666.749
 110  6063.543
 111  10274.74
 112  11312.52
 113  6580.42
 114  5227.852
 115  5632.694
 116  7090.654
 117  3800.448
 118  4595.458
 119  8511.703
 120  13077.59
 121  7107.107
 122  4707.259
 123  3514.721
 124  6971.868
 125  5207.491
 126  3580.397
 127  5785.245
 128  12284.88
 129  9122.557
 130  4576.601
 131  3302.968
 132  6254.81
 133  5522.5
 134  3714.595
 135  5196.713
 136  9585.743
 137  10359.34
 138  6325.735
 139  3946.151
 140  4545.564
 141  5958.088
 142  5585.23
 143  6360.593
 144  8364.771
 145  9951.356
 146  6454.342
 147  5557.972
 148  5000.956
 149  6419.497
 150  4740.772
 151  8022.302
 152  11742.75
 153  13478.78
 154  8234.346
 155  5230.186
 156  4643.414
 157  7159.037
 158  4154.865
 159  4223.717
 160  6796.413
 161  12814.37
 162  9476.396
 163  4293.443
 164  3479.365
 165  6928.2
 166  5600.212
 167  2630.352
 168  5256.548
 169  11156.22
 170  10573.44
 171  5395.496
 172  4090.731
 173  5586.992
 174  6355.491
 175  3499.557
 176  4253.271
 177  9027.53
 178  11938.22
 179  6974.721
 180  4985.918
 181  3977.463
 182  5959.69
 183  4939.308
 184  5462.38
 185  7560.816
 186  11756.35
 187  8472.192
 188  5802.973
 189  4403.862
 190  6903.118
 191  4988.05
 192  5896.801
 193  6885.889
 194  11624.24
 195  9794.132
 196  6639.497
 197  4807.125
 198  6448.636
 199  6219.134
 200  4730.545
 201  6637.342
 202  11553.81
 203  12144.81
 204  6482.32
 205  5371.205
 206  7150.06
 207  7359.536
 208  3355.979
 209  4859.854
 210  10856.34
 211  11839.96
 212  6453.245
 213  4894.938
 214  5410.099
 215  7514.644
 216  4804.451
 217  4985.321
 218  7605.222
 219  11862.49
 220  8431.191
 221  6381.779
 222  4125.054
 223  6532.407
 224  5138.464
 225  4614.56
 226  6324.109
 227  11223.58
 228  9129.184
 229  5660.644
 230  4736.317
 231  5519.886
 232  5020.036
 233  4576.484
 234  6279.737
 235  10628.84
 236  11009.72
 237  6123.6
 238  4822.977
 239  6165.428
 240  7157.096
 241  3600.447
 242  5248.818
 243  9476.947
 244  11427.77
 245  6218.841
 246  5486.132
 247  5268.284
 248  7357.438
 249  3689.043
 250  5037.958
 251  7581.641
 252  11446.39
 253  7398.986
 254  5667.021
 255  3323.846
