# Input file       =  1204382832.118454_cleaned.dat
# Candidate        =  PSR_0332+5434
# Telescope        =  AR
# Epoch_topo       =  58183.616332389516
# Epoch_bary       =  N/A
# T_sample         =  0.002
# Data Folded      =  7340032
# Data Avg         =  0.318051933508416
# Data StdDev      =  15.826011191118  
# Profile Bins     =  512
# Profile Avg      =  4559.9408494511  
# Profile StdDev   =  1894.89637364524 
# Reduced chi-sqr  =  0.675
# Prob(Noise)      <  1   (~0.0 sigma)
# P_topo (ms)      =  714.579858705857  +/- 0.000564
# P'_topo (s/s)    =  -0                +/- 2.98e-10
# P''_topo (s/s^2) =  0                 +/- 1.31e-13
# P_bary (ms)      =  N/A
# P'_bary (s/s)    =  N/A
# P''_bary (s/s^2) =  N/A
# P_orb (s)        =  N/A
# asin(i)/c (s)    =  N/A
# eccentricity     =  N/A
# w (rad)          =  N/A
# T_peri           =  N/A
######################################################
   0  4150.579
   1  5235.5
   2  6067.813
   3  5665.584
   4  5366.224
   5  3485.547
   6  3503.08
   7  4567.557
   8  4121.78
   9  6624
  10  5062.433
  11  4003.265
  12  4316.642
  13  4903.317
  14  4461.458
  15  4618.431
  16  3760.166
  17  3964.115
  18  4275.148
  19  3598.214
  20  4185.94
  21  5256.021
  22  4569.329
  23  5211.568
  24  5437.202
  25  5007.307
  26  4076.212
  27  3741.487
  28  3657.091
  29  3328.744
  30  4195.691
  31  3198.542
  32  3845.943
  33  4836.771
  34  4505.472
  35  3877.756
  36  4884.557
  37  3731.945
  38  3151.914
  39  4150.882
  40  4113.851
  41  4628.88
  42  4688.075
  43  5988.643
  44  6448.9
  45  5866.36
  46  5824.458
  47  4662.433
  48  3825.356
  49  5505.38
  50  5786.98
  51  5970.966
  52  6316.729
  53  5446.314
  54  4351.182
  55  4941.645
  56  6166.15
  57  5265.867
  58  5690.898
  59  5305.001
  60  5148.404
  61  6532.373
  62  7793.07
  63  7930.374
  64  7721.808
  65  5353.519
  66  4732.751
  67  6533.927
  68  5515.323
  69  5215.466
  70  6146.858
  71  6371.302
  72  5670.647
  73  5443.691
  74  5235.958
  75  5284.272
  76  5809.847
  77  6448.395
  78  6712.957
  79  5205.346
  80  5097.859
  81  5013.595
  82  4721.75
  83  4868.337
  84  3634.979
  85  3832.879
  86  4568.241
  87  3728.901
  88  4362.56
  89  3829.061
  90  3853.123
  91  4512.67
  92  5406.221
  93  5686.03
  94  6448.044
  95  6879.222
  96  5968.651
  97  5792.874
  98  6818.812
  99  6804.661
 100  5811.953
 101  6266.444
 102  6164.207
 103  6188.024
 104  6160.146
 105  4638.043
 106  4036.029
 107  3506.755
 108  2612.891
 109  2217.969
 110  3743.794
 111  3454.838
 112  2498.28
 113  2854.04
 114  3825.309
 115  3440.175
 116  2501.894
 117  4036.774
 118  5196.7
 119  4446.097
 120  4353.025
 121  5543.265
 122  5821.049
 123  4331.493
 124  5339.097
 125  6472.265
 126  5180.212
 127  5585.147
 128  5141.224
 129  4291.255
 130  4262.831
 131  4694.747
 132  3459.716
 133  2209.031
 134  3138.129
 135  4218.856
 136  4091.715
 137  4097.467
 138  3218.475
 139  2839.03
 140  2731.853
 141  4080.522
 142  4142.552
 143  5032.39
 144  6473.187
 145  5393.695
 146  3715.921
 147  2379.866
 148  2961.017
 149  3502.916
 150  5368.987
 151  6281.809
 152  5278.198
 153  4601.001
 154  4087.583
 155  3647.868
 156  5177.631
 157  4503.841
 158  4611.391
 159  6341.265
 160  5562.562
 161  4755.113
 162  4093.109
 163  4122.412
 164  4647.418
 165  3995.88
 166  4653.9
 167  5364.793
 168  4523.708
 169  3503.843
 170  3210.594
 171  2886.947
 172  4191.147
 173  4480.687
 174  4896.174
 175  5126.215
 176  5183.896
 177  4081.875
 178  3582.248
 179  3482.029
 180  2976.4
 181  3191.9
 182  3428.591
 183  3358.247
 184  3380.538
 185  3289.44
 186  3394.629
 187  3221.928
 188  3619.177
 189  3076.388
 190  3706.196
 191  5309.424
 192  4287.986
 193  4119.634
 194  4758.25
 195  5522.079
 196  3639.858
 197  3062.607
 198  3817.191
 199  4892.239
 200  4251.505
 201  3525.824
 202  3432.465
 203  2834.863
 204  4011.519
 205  4218.931
 206  3528.453
 207  2579.465
 208  2312.178
 209  2682.407
 210  3484.777
 211  3287.011
 212  1739.589
 213  2470.081
 214  2982.323
 215  2563.132
 216  2844.714
 217  3147.144
 218  3838.317
 219  3676.496
 220  3756.322
 221  4266.854
 222  3855.033
 223  3070.136
 224  2945.973
 225  4574.992
 226  4557.008
 227  3802.096
 228  3434.165
 229  2985.808
 230  3324.483
 231  3076.576
 232  2874.598
 233  2704.482
 234  2859.559
 235  3077.392
 236  3415.719
 237  2942.694
 238  1621.501
 239  1852.294
 240  3407.535
 241  4781.575
 242  4951.194
 243  4688.66
 244  3881.847
 245  2809.126
 246  3764.773
 247  4119.69
 248  5066.592
 249  5495.739
 250  5642.25
 251  4216.021
 252  4668.618
 253  4249.832
 254  4430.628
 255  4577.524
 256  4459.195
 257  5343.312
 258  5165.61
 259  4044.186
 260  4070.955
 261  4601.956
 262  5009.642
 263  3887.124
 264  3302.108
 265  4048.238
 266  3988.803
 267  5266.983
 268  5623.737
 269  4600.612
 270  3110.373
 271  3825.872
 272  4091.889
 273  3551.674
 274  4148.294
 275  5128.265
 276  5570.087
 277  4969.949
 278  4654.538
 279  5595.79
 280  5238.336
 281  4234.812
 282  4442.372
 283  4844.894
 284  3639.38
 285  4138.135
 286  4974.036
 287  4477.865
 288  3934.342
 289  4803.204
 290  4588.79
 291  4676.254
 292  5098.669
 293  4542.782
 294  4395.586
 295  4638.999
 296  4552.948
 297  3694.602
 298  2941.945
 299  4640.883
 300  6942.246
 301  7020.308
 302  5721.527
 303  5914.04
 304  4837.746
 305  6260.825
 306  6414.23
 307  7511.571
 308  6379.477
 309  5582.28
 310  5922.417
 311  5399.447
 312  4514.407
 313  5850.479
 314  6278.783
 315  5333.395
 316  4776.579
 317  5280.438
 318  5742.813
 319  5175.093
 320  6401.291
 321  4945.54
 322  4209.526
 323  4266.689
 324  4655.951
 325  4200.013
 326  4828.059
 327  4538.934
 328  3737.954
 329  3833.378
 330  4569.885
 331  4845.275
 332  4899.89
 333  5123.027
 334  2878.717
 335  3346.334
 336  4101.944
 337  2627.669
 338  3791.7
 339  4480.912
 340  3988.449
 341  3235.084
 342  3019.7
 343  3113.972
 344  2563.232
 345  3886.496
 346  4220.976
 347  3565.171
 348  4057.61
 349  4495.774
 350  3947.626
 351  4359.142
 352  4903.339
 353  5161.976
 354  3813.823
 355  2849.547
 356  4020.831
 357  4514.536
 358  3841.811
 359  3968.876
 360  3940.761
 361  3459.627
 362  3910.371
 363  4479.59
 364  4163.321
 365  3970.114
 366  3211.151
 367  5246.715
 368  4716.828
 369  3696.324
 370  3855.389
 371  4173.277
 372  3904.053
 373  3384.18
 374  3172.869
 375  3464.084
 376  3639.328
 377  3422.664
 378  3921.129
 379  4655.086
 380  4788.279
 381  5316.149
 382  4341.71
 383  4499.24
 384  4938.741
 385  3929.832
 386  4811.949
 387  5462.313
 388  4793.227
 389  5632.601
 390  5358.901
 391  5451.399
 392  5890.521
 393  5492.541
 394  5418.247
 395  5638.151
 396  8133.381
 397  6888.705
 398  6475.45
 399  6085.794
 400  4368.134
 401  4109.281
 402  5381.067
 403  5617.458
 404  6205.172
 405  4905.405
 406  5848.178
 407  5059.184
 408  4506.079
 409  4283.321
 410  4344.141
 411  5402.695
 412  5369.79
 413  5411.991
 414  4069.698
 415  4784.441
 416  3368.806
 417  3772.741
 418  5085.318
 419  5560.272
 420  6054.453
 421  4503.047
 422  3647.544
 423  4197.725
 424  4332.263
 425  5494.715
 426  4517.302
 427  4475.398
 428  3865.944
 429  4388.666
 430  3323.969
 431  2278.099
 432  4297.529
 433  3626.164
 434  3505.767
 435  3833.171
 436  3306.79
 437  2505.635
 438  2628.486
 439  4080.524
 440  3684.072
 441  4031.958
 442  3665.237
 443  4191.569
 444  4855.7
 445  4075.085
 446  3759.542
 447  5841.552
 448  6861.438
 449  5373.646
 450  4719.17
 451  5126.888
 452  5309.824
 453  6138.686
 454  5765.026
 455  5690.87
 456  6676.894
 457  5343.464
 458  3970.655
 459  3605.509
 460  4877.895
 461  5305.205
 462  4805.729
 463  4626.967
 464  5740.535
 465  5388.361
 466  5597.228
 467  5113.508
 468  4701.25
 469  5840.534
 470  5814.426
 471  5376.674
 472  5189.029
 473  5020.457
 474  5847.842
 475  6678.193
 476  6882.701
 477  7337.937
 478  7836.144
 479  8813.244
 480  7451.757
 481  6410.832
 482  6711.136
 483  5858.231
 484  4683.602
 485  3998.731
 486  4846.399
 487  5440.488
 488  5512.587
 489  4083.44
 490  3677.186
 491  2815.522
 492  3856.124
 493  5109.049
 494  5181.161
 495  3671.659
 496  4447.293
 497  4531.5
 498  5256.102
 499  5231.034
 500  5328.986
 501  3803.769
 502  3066.734
 503  3459.616
 504  3696.407
 505  4112.125
 506  4858.088
 507  5096.351
 508  5034.151
 509  4648.476
 510  3356.536
 511  2907.193
