# Input file       =  1204204392.112733-PSRB0329-2ms-sampling-dd.dat
# Candidate        =  PSR_0332+5434
# Telescope        =  AR
# Epoch_topo       =  58181.551054545518
# Epoch_bary       =  N/A
# T_sample         =  0.002
# Data Folded      =  7340032
# Data Avg         =  3.27956272572559e-11
# Data StdDev      =  11.5311444160385 
# Profile Bins     =  512
# Profile Avg      =  0.477486865199743
# Profile StdDev   =  1380.65893383128 
# Reduced chi-sqr  =  0.607
# Prob(Noise)      <  1   (~0.0 sigma)
# P_topo (ms)      =  714.580085700851  +/- 0.00126
# P'_topo (s/s)    =  -0                +/- 6.62e-10
# P''_topo (s/s^2) =  0                 +/- 2.92e-13
# P_bary (ms)      =  N/A
# P'_bary (s/s)    =  N/A
# P''_bary (s/s^2) =  N/A
# P_orb (s)        =  N/A
# asin(i)/c (s)    =  N/A
# eccentricity     =  N/A
# w (rad)          =  N/A
# T_peri           =  N/A
######################################################
   0  -224.2814
   1  -15.48871
   2  159.2483
   3  301.5039
   4  24.95266
   5  704.9264
   6  1017.45
   7  419.5451
   8  847.8793
   9  818.7404
  10  908.955
  11  614.1738
  12  -86.23015
  13  -554.6954
  14  -1244.446
  15  -1340.747
  16  -1375.355
  17  -829.4947
  18  -1097.593
  19  -1087.265
  20  -1327.516
  21  -1435.837
  22  -1327.509
  23  -1480.505
  24  -1609.125
  25  -1498.391
  26  -1323.031
  27  -1110.046
  28  -1045.556
  29  -937.1093
  30  -902.0753
  31  -1138.471
  32  -1268.513
  33  -1179.387
  34  -776.61
  35  -486.4406
  36  -680.5201
  37  -719.3132
  38  -500.9008
  39  -885.3033
  40  -531.8051
  41  -556.1646
  42  -331.6887
  43  -208.8794
  44  -399.5617
  45  -898.5695
  46  -1080.512
  47  -666.8293
  48  0.511544
  49  343.4767
  50  322.4576
  51  -249.3528
  52  -76.88824
  53  -79.98205
  54  -67.38577
  55  -381.3821
  56  -240.4896
  57  5.588313
  58  -151.1586
  59  -221.2982
  60  163.0094
  61  42.2588
  62  -34.59381
  63  -270.3662
  64  -134.6667
  65  -109.6464
  66  249.8899
  67  770.2211
  68  769.379
  69  117.5492
  70  -242.3867
  71  -44.19688
  72  -252.9736
  73  -737.8958
  74  -559.9737
  75  -652.9124
  76  -928.6902
  77  -753.7745
  78  -295.3095
  79  -778.2391
  80  -931.3779
  81  -919.2479
  82  -1010.892
  83  -1160.527
  84  -1014.257
  85  -971.7924
  86  -1133.735
  87  -866.3439
  88  -691.1778
  89  -484.1852
  90  -521.6605
  91  -718.0253
  92  -869.9947
  93  -557.2784
  94  -784.0428
  95  -1052.329
  96  -657.2381
  97  -678.851
  98  -721.8885
  99  -898.3195
 100  -786.4562
 101  -880.1271
 102  -883.402
 103  -749.7348
 104  -666.6682
 105  -1172.749
 106  -781.2475
 107  -1064.542
 108  -1169.87
 109  -1007.444
 110  -1146.857
 111  -1462.397
 112  -1470.824
 113  -717.877
 114  -491.6805
 115  -950.3998
 116  -1251.469
 117  -1267.898
 118  -1280.597
 119  -1032.938
 120  -553.9725
 121  -224.6913
 122  -307.933
 123  -733.9317
 124  -784.1992
 125  -827.9116
 126  -729.3925
 127  -831.2957
 128  -455.5731
 129  -201.532
 130  -667.6609
 131  -633.6453
 132  -694.1718
 133  -477.7434
 134  -356.3455
 135  -26.70889
 136  -313.362
 137  -807.1703
 138  -625.6669
 139  -462.0385
 140  -267.0164
 141  -365.3633
 142  -638.8051
 143  -529.496
 144  -329.5435
 145  -156.8242
 146  499.1423
 147  514.7474
 148  376.5499
 149  334.7862
 150  36.52168
 151  -144.7712
 152  -254.8018
 153  -164.4853
 154  -218.1126
 155  -105.3137
 156  239.474
 157  404.8792
 158  -292.4301
 159  -745.009
 160  -414.2465
 161  -283.8166
 162  -137.3134
 163  -320.1188
 164  224.0915
 165  -11.05986
 166  -356.0508
 167  -8.923538
 168  -171.1084
 169  -276.7988
 170  -180.4889
 171  391.1298
 172  723.759
 173  225.836
 174  87.43908
 175  -243.7965
 176  -325.828
 177  69.11336
 178  -27.13426
 179  -212.0995
 180  -187.6936
 181  -213.2836
 182  -650.8716
 183  -1082.239
 184  -1418.175
 185  -1174.462
 186  -1106.06
 187  -397.635
 188  -734.6313
 189  -897.4423
 190  -964.5845
 191  -567.7427
 192  46.67529
 193  227.969
 194  546.5684
 195  898.1326
 196  1153.536
 197  1310.329
 198  1192.927
 199  815.9194
 200  339.5261
 201  -427.7109
 202  -515.8
 203  -567.4067
 204  -726.968
 205  -698.4482
 206  -714.1348
 207  -796.3369
 208  -839.7277
 209  -729.0021
 210  -464.851
 211  -229.2959
 212  -260.8698
 213  -536.0657
 214  -363.5877
 215  -491.5276
 216  -365.7867
 217  -51.40314
 218  128.1415
 219  -270.0147
 220  -253.4723
 221  -35.43624
 222  -363.664
 223  -309.9548
 224  -422.3435
 225  -624.0682
 226  -808.1553
 227  -658.0519
 228  -512.6958
 229  -891.9189
 230  -1252.883
 231  -1039.702
 232  -940.4763
 233  -888.2532
 234  -1011.953
 235  -937.6216
 236  -606.1459
 237  -542.66
 238  -498.3331
 239  177.2874
 240  156.7393
 241  -15.02108
 242  324.4157
 243  497.431
 244  453.9109
 245  25.889
 246  -175.3112
 247  -122.7171
 248  -44.11451
 249  27.51111
 250  258.977
 251  490.3057
 252  344.3039
 253  481.0125
 254  223.2415
 255  -334.5097
 256  -571.7213
 257  -520.2876
 258  -360.6354
 259  -212.2593
 260  203.8866
 261  206.2809
 262  -471.7134
 263  -736.7124
 264  -542.1047
 265  -251.5855
 266  -482.6581
 267  -247.4062
 268  -82.21671
 269  -433.8974
 270  -611.3342
 271  -135.7994
 272  140.812
 273  217.6846
 274  -175.6622
 275  -529.2199
 276  -649.0992
 277  -498.1743
 278  -224.3769
 279  -494.0219
 280  -438.0397
 281  -651.0165
 282  -650.4232
 283  -624.6339
 284  -857.9703
 285  -495.888
 286  -512.1705
 287  -665.8325
 288  -661.3061
 289  -314.3215
 290  -82.44682
 291  -581.0959
 292  -839.8425
 293  -610.3733
 294  -604.2648
 295  -118.8717
 296  -33.25285
 297  383.8016
 298  204.5543
 299  319.903
 300  3.681317
 301  -161.3925
 302  -191.6388
 303  -312.0197
 304  86.35564
 305  581.7294
 306  484.7594
 307  558.5696
 308  435.8235
 309  429.701
 310  287.2343
 311  191.6881
 312  474.5815
 313  387.4411
 314  573.717
 315  668.3463
 316  269.3486
 317  169.2645
 318  465.1939
 319  680.3715
 320  701.6856
 321  481.395
 322  623.4388
 323  234.1052
 324  296.025
 325  322.2361
 326  293.955
 327  98.01582
 328  -24.6304
 329  51.20937
 330  -14.90796
 331  -126.22
 332  -507.6203
 333  -943.2006
 334  -937.1741
 335  -255.1383
 336  -226.9936
 337  -381.412
 338  -239.5715
 339  -272.7898
 340  -220.7342
 341  -255.5118
 342  -125.887
 343  -154.476
 344  -127.056
 345  54.68908
 346  542.9386
 347  250.9898
 348  32.07016
 349  206.242
 350  26.84341
 351  -461.2389
 352  -106.4256
 353  610.4857
 354  468.7045
 355  21.576
 356  -3.664361
 357  -11.76927
 358  -443.4581
 359  -422.5694
 360  231.3902
 361  415.346
 362  753.3195
 363  642.6954
 364  650.68
 365  668.107
 366  290.3534
 367  -319.9247
 368  335.5371
 369  1270.9
 370  1696.12
 371  2808.585
 372  2168.435
 373  1799.513
 374  2187.513
 375  1792.281
 376  1815.513
 377  1550.429
 378  2428.92
 379  2820.487
 380  2462.707
 381  1978.726
 382  1467.111
 383  975.6407
 384  1072.942
 385  559.0362
 386  822.077
 387  1147.607
 388  1528.32
 389  1245.336
 390  437.8325
 391  717.6304
 392  1813.18
 393  2329.459
 394  2024.893
 395  1449.601
 396  736.8905
 397  -232.2709
 398  253.5671
 399  585.1224
 400  902.225
 401  1362.358
 402  1107.988
 403  1121.394
 404  522.972
 405  1083.9
 406  1784.563
 407  2920.17
 408  2804.926
 409  2246.735
 410  1375.27
 411  547.423
 412  359.1709
 413  700.866
 414  693.7677
 415  527.685
 416  1035.685
 417  1634.34
 418  1536.358
 419  1239.812
 420  778.9523
 421  787.933
 422  342.1348
 423  394.5045
 424  590.5804
 425  922.6289
 426  866.6408
 427  323.4374
 428  111.9713
 429  -192.051
 430  -198.6529
 431  289.7822
 432  573.3271
 433  176.0699
 434  -432.6744
 435  -158.4464
 436  189.246
 437  91.42115
 438  65.40627
 439  305.3254
 440  251.2947
 441  5.448261
 442  -74.51038
 443  -118.8034
 444  221.519
 445  899.7426
 446  1114.606
 447  704.8486
 448  89.36191
 449  48.03577
 450  389.0213
 451  680.8502
 452  813.1747
 453  672.639
 454  274.0159
 455  545.3224
 456  391.5203
 457  182.2168
 458  179.6627
 459  83.1327
 460  456.3189
 461  324.5795
 462  142.5841
 463  -277.9561
 464  -104.1787
 465  436.2678
 466  563.4984
 467  280.3341
 468  -99.69146
 469  -218.6342
 470  265.5345
 471  -70.90972
 472  352.0905
 473  322.9095
 474  170.2529
 475  300.2904
 476  -74.19372
 477  297.1096
 478  466.9075
 479  365.0924
 480  618.6494
 481  470.6968
 482  373.4732
 483  95.74817
 484  -78.90308
 485  114.195
 486  360.7228
 487  743.0236
 488  637.153
 489  712.4777
 490  1082.515
 491  1189.706
 492  797.0285
 493  653.2863
 494  522.9374
 495  -55.49203
 496  160.738
 497  857.5712
 498  1154.454
 499  1273.227
 500  1144.573
 501  671.7283
 502  968.0797
 503  631.713
 504  1028.037
 505  1526.76
 506  1867.415
 507  1829.293
 508  1317.827
 509  1015.216
 510  87.87985
 511  -253.8583
