# Input file       =  1204367855.101803-PSRB0329-2ms-sampling-dd.dat
# Candidate        =  PSR_0332+5434
# Telescope        =  AR
# Epoch_topo       =  58183.442987289389
# Epoch_bary       =  N/A
# T_sample         =  0.002
# Data Folded      =  7340032
# Data Avg         =  9.24110588506769e-10
# Data StdDev      =  8.26752164254754 
# Profile Bins     =  512
# Profile Avg      =  -3.2563024095983 
# Profile StdDev   =  989.895469572846 
# Reduced chi-sqr  =  0.712
# Prob(Noise)      <  1   (~0.0 sigma)
# P_topo (ms)      =  714.57972004089   +/- 7.58e-05
# P'_topo (s/s)    =  -0                +/- 4e-11
# P''_topo (s/s^2) =  0                 +/- 1.77e-14
# P_bary (ms)      =  N/A
# P'_bary (s/s)    =  N/A
# P''_bary (s/s^2) =  N/A
# P_orb (s)        =  N/A
# asin(i)/c (s)    =  N/A
# eccentricity     =  N/A
# w (rad)          =  N/A
# T_peri           =  N/A
######################################################
   0  -170.2257
   1  -484.7088
   2  -200.613
   3  -228.0218
   4  58.91928
   5  258.2496
   6  -388.1672
   7  -457.8214
   8  -692.9227
   9  -3.266088
  10  60.66803
  11  47.92039
  12  76.90212
  13  -100.3764
  14  -288.7808
  15  -316.2663
  16  -149.9203
  17  -351.5332
  18  -464.9442
  19  -574.4092
  20  -444.7736
  21  -218.7832
  22  115.8914
  23  -25.08454
  24  -506.1647
  25  -508.0345
  26  -386.0602
  27  -105.9903
  28  21.77338
  29  -65.17194
  30  -374.6986
  31  204.2367
  32  -103.9377
  33  -384.1355
  34  -612.7206
  35  -372.2656
  36  -397.4349
  37  -284.1621
  38  107.3176
  39  158.3255
  40  204.1403
  41  124.1958
  42  7.013017
  43  -77.17258
  44  45.17023
  45  1.133868
  46  235.7979
  47  392.1154
  48  55.22838
  49  6.479959
  50  280.4126
  51  46.07182
  52  246.1377
  53  306.5733
  54  156.9826
  55  174.9482
  56  49.66794
  57  -11.09419
  58  -16.72784
  59  47.62562
  60  166.7321
  61  332.488
  62  388.2595
  63  592.5815
  64  226.8437
  65  -184.9414
  66  -258.7339
  67  -296.8433
  68  -202.2849
  69  21.64305
  70  302.0158
  71  320.5072
  72  130.0352
  73  -183.9115
  74  -286.1986
  75  -239.9387
  76  -6.131933
  77  140.8769
  78  428.6496
  79  890.7975
  80  583.351
  81  -331.7356
  82  -516.5105
  83  -366.5298
  84  -4.648992
  85  73.06044
  86  523.2451
  87  805.5082
  88  617.7312
  89  -132.7232
  90  -364.9127
  91  -58.49345
  92  -306.056
  93  213.6592
  94  231.8467
  95  625.1873
  96  946.7513
  97  608.996
  98  435.2877
  99  -19.97834
 100  29.74875
 101  272.4311
 102  297.6534
 103  293.9091
 104  554.0131
 105  509.7796
 106  377.9758
 107  312.6109
 108  -33.61435
 109  146.8572
 110  113.1722
 111  345.7585
 112  509.8817
 113  479.6592
 114  38.49009
 115  -375.1016
 116  27.22541
 117  206.6285
 118  463.6577
 119  314.1304
 120  352.5039
 121  8.587511
 122  -32.83786
 123  73.65637
 124  -35.49378
 125  -275.2035
 126  -380.7696
 127  -149.8757
 128  573.1005
 129  369.1097
 130  187.2287
 131  -296.0592
 132  -42.6946
 133  58.14106
 134  194.1599
 135  762.4042
 136  786.3147
 137  635.7027
 138  339.323
 139  -140.5136
 140  -284.8391
 141  90.68254
 142  138.4818
 143  407.9807
 144  557.2378
 145  602.0436
 146  65.05828
 147  -168.3514
 148  -722.8035
 149  -537.5981
 150  -164.8907
 151  -80.80594
 152  202.157
 153  46.8206
 154  147.3696
 155  -408.4978
 156  -829.7391
 157  -787.4208
 158  -897.0861
 159  -290.6579
 160  606.2413
 161  729.1388
 162  475.4225
 163  367.4029
 164  125.8304
 165  -71.48758
 166  -18.96811
 167  115.803
 168  634.5972
 169  484.5772
 170  367.1745
 171  138.7176
 172  180.3198
 173  -146.6173
 174  -3.778271
 175  -24.81231
 176  -458.5128
 177  -79.42126
 178  143.7921
 179  93.06911
 180  -250.9704
 181  -472.7619
 182  -691.3132
 183  -343.7207
 184  -54.82312
 185  225.5061
 186  256.9335
 187  242.539
 188  -86.76185
 189  -118.0006
 190  -77.22961
 191  -747.5486
 192  -464.7951
 193  -51.74474
 194  570.9661
 195  508.369
 196  57.29016
 197  -106.962
 198  -357.8213
 199  -671.3233
 200  -392.0364
 201  -257.5486
 202  293.3258
 203  132.9561
 204  215.0874
 205  429.6726
 206  235.9109
 207  434.8556
 208  78.70296
 209  115.0488
 210  92.76402
 211  235.2099
 212  279.5307
 213  198.1859
 214  25.48324
 215  -386.5347
 216  -253.3345
 217  -405.8222
 218  -74.61608
 219  -191.6909
 220  -239.7917
 221  97.41794
 222  -124.2949
 223  118.5933
 224  -295.875
 225  -255.7088
 226  8.444717
 227  223.2261
 228  15.09376
 229  231.8526
 230  64.69878
 231  -365.4619
 232  -410.1652
 233  -87.27245
 234  312.9176
 235  211.779
 236  344.4487
 237  331.4925
 238  277.603
 239  -459.1927
 240  -606.4871
 241  -489.8331
 242  -181.4555
 243  16.91357
 244  351.0602
 245  628.6718
 246  417.0476
 247  -90.32618
 248  -426.3586
 249  -480.2459
 250  -555.8246
 251  196.2039
 252  79.75327
 253  135.3641
 254  114.9963
 255  320.231
 256  247.9762
 257  -266.0337
 258  -411.8303
 259  -119.8017
 260  283.5468
 261  379.3296
 262  493.3418
 263  796.7578
 264  348.3985
 265  34.37786
 266  -108.4741
 267  224.4132
 268  645.057
 269  1034.431
 270  2039.516
 271  2333.233
 272  2285.448
 273  1073.404
 274  371.7467
 275  406.0669
 276  554.899
 277  824.9331
 278  824.849
 279  563.8403
 280  -19.14948
 281  -218.6085
 282  -335.8172
 283  -327.9197
 284  -123.4586
 285  -367.653
 286  -44.28311
 287  -277.2303
 288  -235.522
 289  -404.6855
 290  -325.9465
 291  -187.1019
 292  117.5376
 293  159.8024
 294  289.0415
 295  375.5235
 296  179.2021
 297  305.903
 298  -110.8256
 299  -103.0057
 300  -280.1299
 301  -378.8454
 302  -277.0001
 303  240.9944
 304  529.312
 305  279.5006
 306  180.5553
 307  -461.9944
 308  49.78847
 309  -128.7637
 310  275.9166
 311  436.6152
 312  195.6517
 313  27.1972
 314  -392.9413
 315  -657.5668
 316  -639.2163
 317  -717.1108
 318  -486.7155
 319  6352.815
 320  7967.449
 321  698.9832
 322  40.26358
 323  -389.7854
 324  -66.04617
 325  -157.7412
 326  -401.925
 327  5.37887
 328  -150.417
 329  68.50023
 330  165.3127
 331  -79.49487
 332  -194.9926
 333  -469.0468
 334  -372.6683
 335  -319.7866
 336  -328.4413
 337  214.255
 338  204.4303
 339  -284.3247
 340  -199.0616
 341  -1.948874
 342  256.3626
 343  -282.8306
 344  -266.2784
 345  -2.963194
 346  137.0315
 347  -271.9016
 348  -509.8636
 349  -390.7175
 350  -769.2983
 351  -599.8022
 352  -257.6743
 353  -165.9195
 354  -420.0542
 355  -27.87888
 356  -458.8513
 357  -480.1912
 358  -582.0932
 359  -593.2252
 360  -483.846
 361  -211.6488
 362  97.73181
 363  -442.5355
 364  -363.1559
 365  -427.5007
 366  -549.0809
 367  -524.8582
 368  -612.9424
 369  -341.2269
 370  -520.291
 371  115.6718
 372  -203.7382
 373  -506.8853
 374  -694.4438
 375  -328.0225
 376  201.5766
 377  304.4461
 378  522.0081
 379  -168.0174
 380  -256.2505
 381  -596.5505
 382  -925.6146
 383  -1081.366
 384  -539.6216
 385  72.35057
 386  269.6301
 387  25.32392
 388  -238.9868
 389  -363.6917
 390  -566.7384
 391  -499.0649
 392  -83.60352
 393  149.1558
 394  317.9442
 395  231.9955
 396  624.0298
 397  202.7645
 398  -560.6914
 399  -667.1797
 400  -698.6672
 401  -302.9164
 402  -467.0396
 403  272.4595
 404  236.269
 405  56.9196
 406  -212.67
 407  -189.9484
 408  103.5444
 409  197.5394
 410  208.364
 411  156.1687
 412  418.0134
 413  101.4388
 414  -246.2283
 415  -91.79659
 416  -152.2318
 417  -15.50823
 418  284.0467
 419  581.674
 420  458.9431
 421  435.4834
 422  184.2057
 423  -347.6286
 424  -229.0198
 425  13.01794
 426  219.4352
 427  177.2056
 428  204.3541
 429  448.484
 430  145.387
 431  -227.1238
 432  -417.4322
 433  207.3681
 434  166.2957
 435  37.898
 436  330.9227
 437  382.2796
 438  295.9854
 439  -51.29512
 440  -118.1346
 441  95.30367
 442  170.6482
 443  662.3377
 444  213.8073
 445  91.71159
 446  -310.5321
 447  -175.3495
 448  -564.9553
 449  -305.5954
 450  -96.2071
 451  -65.00026
 452  2.933273
 453  -387.137
 454  -341.4955
 455  -466.6988
 456  -53.78888
 457  -324.6224
 458  30.46324
 459  -84.99399
 460  267.4585
 461  223.0376
 462  -151.7194
 463  -577.7816
 464  -749.3879
 465  -544.5522
 466  -412.141
 467  -237.0743
 468  -160.8515
 469  -366.9661
 470  -419.4008
 471  -659.8339
 472  -1442.59
 473  -1050.309
 474  -796.058
 475  -174.2112
 476  49.17506
 477  140.2563
 478  -270.8436
 479  -407.7691
 480  -386.8958
 481  -528.8867
 482  -317.7946
 483  -239.8216
 484  -377.2212
 485  -434.8966
 486  -588.9724
 487  -584.3174
 488  -183.7761
 489  -298.3902
 490  -189.4062
 491  -204.1572
 492  -48.53466
 493  -33.61877
 494  6.923796
 495  -193.1682
 496  -285.5547
 497  -553.1345
 498  -457.1283
 499  -240.1985
 500  -273.3679
 501  -272.434
 502  -374.4755
 503  -432.7566
 504  -418.0085
 505  -514.2681
 506  -390.0938
 507  -165.4129
 508  -60.21281
 509  480.769
 510  93.38985
 511  115.3895
