# Input file       =  1204721893.107728-PSRB0329-2ms-sampling-dd.dat
# Candidate        =  PSR_0332+5434
# Telescope        =  AR
# Epoch_topo       =  58187.540649394999
# Epoch_bary       =  N/A
# T_sample         =  0.002
# Data Folded      =  7340032
# Data Avg         =  1.05505843279165e-09
# Data StdDev      =  16.6939935875781 
# Profile Bins     =  512
# Profile Avg      =  -0.324439586649207
# Profile StdDev   =  1998.82254149499 
# Reduced chi-sqr  =  0.663
# Prob(Noise)      <  1   (~0.0 sigma)
# P_topo (ms)      =  714.578902174409  +/- 0.000426
# P'_topo (s/s)    =  -0                +/- 2.25e-10
# P''_topo (s/s^2) =  0                 +/- 9.92e-14
# P_bary (ms)      =  N/A
# P'_bary (s/s)    =  N/A
# P''_bary (s/s^2) =  N/A
# P_orb (s)        =  N/A
# asin(i)/c (s)    =  N/A
# eccentricity     =  N/A
# w (rad)          =  N/A
# T_peri           =  N/A
######################################################
   0  4.080436
   1  -50.85373
   2  138.5074
   3  -237.7014
   4  -405.9985
   5  -53.33063
   6  1081.03
   7  765.3405
   8  305.7453
   9  298.8876
  10  -72.89059
  11  -1025.547
  12  -977.4431
  13  -665.9363
  14  -395.6698
  15  -800.9963
  16  -804.0082
  17  -864.7401
  18  -589.1427
  19  -807.7507
  20  -651.0387
  21  63.20413
  22  496.901
  23  771.6534
  24  1284.831
  25  2045.378
  26  1700.677
  27  1242.468
  28  1307.007
  29  1497.523
  30  1477.509
  31  1135.622
  32  765.9116
  33  132.8425
  34  -627.001
  35  -1066.391
  36  -355.2076
  37  -126.3178
  38  -367.5048
  39  -718.1695
  40  -1187.112
  41  -810.5559
  42  -401.6824
  43  190.6261
  44  410.9271
  45  -79.72171
  46  -68.40875
  47  -254.9096
  48  617.0327
  49  1231.56
  50  1646.183
  51  1470.504
  52  1206.815
  53  1137.214
  54  433.2814
  55  -223.0477
  56  -615.4069
  57  269.2161
  58  -498.9444
  59  -919.0401
  60  -1159.888
  61  -1323.254
  62  -1322.785
  63  -588.5455
  64  572.6933
  65  674.0016
  66  264.0349
  67  248.2315
  68  -288.5496
  69  -339.1559
  70  -28.1765
  71  469.3482
  72  584.8952
  73  -466.9666
  74  -1244.956
  75  -1229.083
  76  -1482.014
  77  -1063.605
  78  -33.34009
  79  67.21185
  80  -904.0538
  81  -1721.157
  82  -458.1589
  83  -28.48681
  84  708.1315
  85  795.7852
  86  580.6875
  87  -502.7953
  88  -575.2333
  89  86.76817
  90  674.6342
  91  1013.973
  92  1222.749
  93  884.621
  94  -62.15774
  95  -381.5258
  96  610.5662
  97  980.0623
  98  1366.029
  99  1569.691
 100  1515.791
 101  163.0275
 102  721.3181
 103  1573.487
 104  2353.883
 105  2414.602
 106  3107.166
 107  2812.958
 108  418.8444
 109  -116.1521
 110  -133.2227
 111  1952.922
 112  2304.054
 113  3128.894
 114  2448.882
 115  344.0687
 116  -626.9801
 117  -74.57413
 118  200.2025
 119  -442.11
 120  -517.9302
 121  -1002.209
 122  -1275.773
 123  -1123.529
 124  -741.7244
 125  113.3296
 126  378.9338
 127  1252.753
 128  1625.311
 129  1645.926
 130  335.5589
 131  1080.885
 132  2068.49
 133  3181.094
 134  4187.372
 135  3760.851
 136  2973.207
 137  1439.475
 138  152.909
 139  262.0182
 140  -94.37461
 141  510.1691
 142  154.5111
 143  12.91523
 144  -769.1973
 145  -924.8873
 146  -1491.582
 147  -1636.544
 148  -1518.742
 149  -426.0718
 150  -303.2001
 151  94.56708
 152  -294.3896
 153  -178.871
 154  91.32355
 155  -249.4697
 156  -255.0401
 157  113.0292
 158  658.5246
 159  397.6093
 160  233.8478
 161  -6.877608
 162  -571.9807
 163  -176.73
 164  -210.3961
 165  -63.36131
 166  311.8518
 167  95.02948
 168  -72.11272
 169  -332.9924
 170  -382.5345
 171  -142.1663
 172  382.9824
 173  681.6597
 174  220.7742
 175  -178.4938
 176  -350.1027
 177  35.57337
 178  -95.63966
 179  11.78963
 180  -273.348
 181  -208.0581
 182  -73.58616
 183  -474.1472
 184  -1335.431
 185  -1679.285
 186  -940.0263
 187  -271.588
 188  -356.2112
 189  -173.2399
 190  558.3005
 191  471.1674
 192  1091.821
 193  1991.111
 194  567.9952
 195  330.6085
 196  -472.3419
 197  1739.696
 198  1747.24
 199  1833.969
 200  758.0807
 201  -1529.117
 202  -2501.042
 203  -2439.485
 204  -2228.824
 205  -2610.224
 206  -2045.034
 207  -2103.727
 208  -2520.763
 209  -2448.524
 210  -2382.919
 211  -1732.534
 212  -1892.268
 213  -1383.92
 214  -1438.553
 215  -1191.094
 216  -1377.382
 217  -1264.686
 218  -1572.785
 219  -1439.772
 220  -1387.998
 221  -1245.153
 222  -1195.277
 223  -1007.365
 224  -1219.806
 225  -499.3698
 226  -291.054
 227  -170.1606
 228  -625.8127
 229  124.752
 230  -658.9854
 231  -733.317
 232  -763.1539
 233  -493.2291
 234  -376.7803
 235  -682.4246
 236  -557.7595
 237  -1084.297
 238  -1229.033
 239  -1359.307
 240  -541.4669
 241  -43.72274
 242  202.8153
 243  225.2536
 244  -244.6261
 245  -909.3222
 246  -851.5895
 247  -489.2878
 248  -70.27024
 249  703.1536
 250  311.54
 251  -325.5875
 252  -1192.894
 253  -1593.085
 254  -1011.716
 255  -1113.353
 256  -614.3712
 257  -82.53685
 258  93.52562
 259  38.9479
 260  -27.03025
 261  -268.5676
 262  -1060.472
 263  -1190.328
 264  -392.693
 265  -468.9827
 266  -532.0474
 267  -565.4317
 268  -207.8665
 269  -729.8522
 270  -105.6964
 271  171.8843
 272  -131.4767
 273  -874.3832
 274  -1097.022
 275  -1264.071
 276  -1258.053
 277  -1146.488
 278  -1042.228
 279  -1648.924
 280  -1566.903
 281  -1469.648
 282  -1962.59
 283  -1257.374
 284  -876.7515
 285  -417.7621
 286  -108.4987
 287  453.7199
 288  565.6848
 289  -63.19638
 290  288.5094
 291  88.80523
 292  -95.74165
 293  -275.2537
 294  -390.961
 295  -359.6082
 296  -542.4558
 297  -581.2141
 298  -645.6256
 299  -962.7999
 300  -950.6342
 301  -1687.116
 302  -1418.217
 303  -1427.306
 304  -1490.586
 305  -1546.737
 306  -1550.388
 307  -1272.531
 308  -846.7103
 309  -871.0785
 310  -1790.684
 311  -2051.878
 312  -2096.052
 313  -1403.48
 314  -323.1968
 315  472.5479
 316  -434.3742
 317  -866.9969
 318  -1042.787
 319  -1148.473
 320  -795.316
 321  326.1933
 322  113.3876
 323  594.1379
 324  368.6834
 325  -506.5626
 326  -548.7793
 327  -474.8374
 328  -489.9727
 329  -687.0016
 330  -528.2619
 331  -279.8441
 332  -281.2984
 333  -138.0726
 334  -643.951
 335  -724.1429
 336  -803.5037
 337  -1093.302
 338  -1234.099
 339  -897.5071
 340  -236.7715
 341  114.5015
 342  -87.98471
 343  -349.997
 344  -1030.793
 345  -790.4728
 346  -429.4424
 347  47.75273
 348  286.3937
 349  163.1066
 350  -147.0431
 351  -404.4257
 352  -573.5195
 353  -406.8354
 354  -258.931
 355  -296.3728
 356  -180.5128
 357  -630.5038
 358  -755.3118
 359  -1138.399
 360  -1048.139
 361  -1042.225
 362  -659.7245
 363  -122.2734
 364  -723.7344
 365  -1330.73
 366  -411.5003
 367  -1038.074
 368  -802.879
 369  8.14366
 370  659.1774
 371  469.7339
 372  65.39444
 373  -23.15882
 374  -425.2894
 375  -628.2199
 376  -495.2683
 377  -44.77544
 378  348.673
 379  2015.86
 380  2267.894
 381  2958.073
 382  2953.951
 383  1927.875
 384  1144.312
 385  926.6973
 386  3606.777
 387  4443.244
 388  4749.123
 389  4075.031
 390  1968.068
 391  -600.838
 392  -862.4685
 393  -324.5708
 394  -198.3585
 395  282.2086
 396  105.7319
 397  703.7515
 398  833.7951
 399  353.7374
 400  -416.8789
 401  526.2809
 402  1643.322
 403  2304.487
 404  2337.64
 405  1308.253
 406  247.5485
 407  -50.05789
 408  959.0138
 409  904.2698
 410  579.4142
 411  342.1323
 412  214.5908
 413  -389.5966
 414  -345.2201
 415  282.0433
 416  -89.38011
 417  394.2321
 418  557.9256
 419  500.6742
 420  152.7478
 421  -737.3262
 422  -930.5895
 423  -1362.597
 424  -1129.462
 425  -1630.648
 426  -1560.923
 427  -931.0549
 428  -781.3943
 429  -844.2939
 430  -1532.255
 431  -1780.614
 432  -1608.387
 433  -1585.429
 434  -799.3183
 435  -375.7973
 436  165.7178
 437  355.9216
 438  119.7266
 439  92.33724
 440  377.1582
 441  913.9217
 442  1046.294
 443  1494.851
 444  2211.824
 445  2113.948
 446  2099.101
 447  2018.481
 448  801.8203
 449  433.2344
 450  604.5764
 451  1247.27
 452  2097.533
 453  2250.433
 454  1667.541
 455  1058.8
 456  876.195
 457  1566.348
 458  2411.289
 459  2712.988
 460  3252.138
 461  1282.969
 462  360.0716
 463  -763.952
 464  -1584.824
 465  -1322.059
 466  -854.9591
 467  -1006.622
 468  -1359.868
 469  -1992.743
 470  -1405.803
 471  -1250.202
 472  -466.7051
 473  321.782
 474  790.5385
 475  671.001
 476  236.6761
 477  559.7965
 478  -148.469
 479  369.496
 480  220.6496
 481  660.098
 482  46.9143
 483  33.94882
 484  309.6299
 485  779.3695
 486  825.8128
 487  895.5275
 488  -187.442
 489  -498.067
 490  -1033.047
 491  -549.6118
 492  -388.8722
 493  737.9841
 494  2248.969
 495  2046.478
 496  2004.643
 497  2069.903
 498  1085.551
 499  -266.6789
 500  1642.248
 501  2803.647
 502  3289.952
 503  3133.072
 504  1380.85
 505  945.2015
 506  394.404
 507  320.4273
 508  581.8208
 509  496.1942
 510  643.2301
 511  386.2215
