# Input file       =  1204397746.104123-PSRB0329-2ms-sampling-dd.dat
# Candidate        =  PSR_0332+5434
# Telescope        =  AR
# Epoch_topo       =  58183.788947964385
# Epoch_bary       =  N/A
# T_sample         =  0.002
# Data Folded      =  7340032
# Data Avg         =  -1.18178482987459e-09
# Data StdDev      =  6.73651755833567 
# Profile Bins     =  512
# Profile Avg      =  0.217563794220216
# Profile StdDev   =  806.583701864928 
# Reduced chi-sqr  =  0.552
# Prob(Noise)      <  1   (~0.0 sigma)
# P_topo (ms)      =  714.580199673121  +/- 0.0015
# P'_topo (s/s)    =  -0                +/- 7.9e-10
# P''_topo (s/s^2) =  0                 +/- 3.49e-13
# P_bary (ms)      =  N/A
# P'_bary (s/s)    =  N/A
# P''_bary (s/s^2) =  N/A
# P_orb (s)        =  N/A
# asin(i)/c (s)    =  N/A
# eccentricity     =  N/A
# w (rad)          =  N/A
# T_peri           =  N/A
######################################################
   0  -224.8516
   1  -475.9254
   2  -850.8129
   3  -575.0065
   4  -652.9715
   5  -387.8944
   6  -558.4104
   7  -121.4577
   8  368.4821
   9  461.3097
  10  -180.4785
  11  27.7366
  12  -204.8736
  13  -190.9366
  14  -390.5602
  15  -679.571
  16  -442.1294
  17  -150.5016
  18  -344.7253
  19  -672.5212
  20  -517.4742
  21  -584.3513
  22  -1090.096
  23  -677.523
  24  -692.987
  25  -462.5239
  26  -371.2582
  27  215.4436
  28  43.93304
  29  -281.269
  30  -6.229878
  31  -347.1511
  32  -314.7059
  33  -615.5562
  34  -678.8596
  35  -263.8515
  36  -53.05641
  37  318.7791
  38  178.165
  39  -258.6546
  40  4.846677
  41  34.42142
  42  394.5894
  43  354.9665
  44  726.0152
  45  738.9731
  46  293.9575
  47  500.0246
  48  597.1484
  49  621.9807
  50  552.7889
  51  605.5834
  52  490.1398
  53  147.6866
  54  -306.7414
  55  -284.0706
  56  52.50825
  57  337.5626
  58  7.275118
  59  -40.92682
  60  -148.6928
  61  -213.4065
  62  -372.4019
  63  -193.7624
  64  173.5536
  65  377.9489
  66  416.03
  67  322.5337
  68  287.8214
  69  146.8151
  70  218.5376
  71  5.71867
  72  119.5213
  73  -149.7752
  74  349.9362
  75  251.7078
  76  -83.59386
  77  -74.9313
  78  82.77012
  79  10.81922
  80  -102.7921
  81  284.623
  82  317.8556
  83  685.0604
  84  331.7355
  85  -81.8102
  86  82.44391
  87  -123.2301
  88  -178.5817
  89  -118.2171
  90  -90.69052
  91  1.405873
  92  243.7928
  93  247.0377
  94  -66.99459
  95  -280.4069
  96  -59.19355
  97  -17.68007
  98  -174.7178
  99  -194.9196
 100  -636.7457
 101  -676.3049
 102  -382.8996
 103  -188.5681
 104  -176.5824
 105  -217.7825
 106  -450.186
 107  -244.6526
 108  -431.7662
 109  -132.3149
 110  -38.80806
 111  323.2476
 112  85.54506
 113  -113.8449
 114  387.9396
 115  561.4591
 116  132.2681
 117  -552.8154
 118  -216.4451
 119  -550.5594
 120  -467.632
 121  -752.2989
 122  -742.9629
 123  -390.3612
 124  -445.3701
 125  130.0641
 126  -209.7406
 127  -826.7411
 128  -588.6736
 129  -666.1178
 130  -682.263
 131  -722.3095
 132  -555.2614
 133  -223.1959
 134  90.14791
 135  73.90112
 136  37.01976
 137  -258.2196
 138  259.3882
 139  -278.6888
 140  1.17963
 141  144.6533
 142  -19.53461
 143  -269.4218
 144  444.0181
 145  -326.225
 146  -433.3831
 147  -605.186
 148  -71.74805
 149  196.086
 150  43.91976
 151  -99.96886
 152  -487.4389
 153  -281.8266
 154  -452.3572
 155  285.4527
 156  -98.50166
 157  -547.4811
 158  -805.0737
 159  -764.9874
 160  -478.1006
 161  -20.90556
 162  305.0057
 163  226.7714
 164  -33.80708
 165  121.5678
 166  -35.40782
 167  -189.3
 168  -254.2555
 169  136.8351
 170  767.4009
 171  564.4893
 172  480.5305
 173  932.7043
 174  688.4158
 175  433.7964
 176  421.8164
 177  863.5337
 178  1144.151
 179  1515.188
 180  1868.515
 181  1786.473
 182  2182.694
 183  1835.085
 184  1190.067
 185  851.223
 186  -98.70056
 187  -185.4909
 188  56.87384
 189  326.5359
 190  653.5139
 191  460.1527
 192  418.9045
 193  166.6012
 194  318.545
 195  425.8879
 196  27.36432
 197  -38.30986
 198  239.0629
 199  2.220078
 200  -269.7926
 201  -242.1847
 202  110.7631
 203  14.19332
 204  282.5045
 205  66.15641
 206  361.4258
 207  -56.09369
 208  186.4931
 209  -85.11795
 210  -310.1719
 211  -136.3948
 212  196.5835
 213  75.81616
 214  164.5747
 215  297.2302
 216  295.1766
 217  -514.3901
 218  -16.30436
 219  53.84851
 220  121.9832
 221  74.09425
 222  436.1873
 223  130.4713
 224  -20.82026
 225  331.2401
 226  -13.451
 227  19.65618
 228  -261.6692
 229  718.1896
 230  478.4593
 231  169.3274
 232  342.1744
 233  25.94117
 234  366.0014
 235  56.99792
 236  633.6053
 237  784.818
 238  821.9333
 239  875.1835
 240  676.0328
 241  462.9345
 242  308.5087
 243  294.1507
 244  359.9286
 245  439.33
 246  214.9428
 247  77.82873
 248  -274.7538
 249  -354.7043
 250  282.8205
 251  932.8394
 252  531.1227
 253  -183.9925
 254  228.8315
 255  588.5452
 256  853.2142
 257  156.0984
 258  44.22601
 259  660.1539
 260  230.7398
 261  591.072
 262  81.371
 263  178.6689
 264  398.8882
 265  -8.012894
 266  -42.56016
 267  78.35313
 268  168.9571
 269  412.2122
 270  468.9157
 271  371.4921
 272  293.4884
 273  302.4699
 274  116.5786
 275  12.04882
 276  94.0562
 277  274.3241
 278  -384.3456
 279  -109.3683
 280  -92.14618
 281  -95.36066
 282  -136.1687
 283  -38.87296
 284  353.6649
 285  247.1972
 286  724.7668
 287  628.974
 288  199.386
 289  0.2423414
 290  -242.7106
 291  118.3
 292  319.6198
 293  364.8492
 294  247.8416
 295  221.0716
 296  116.9666
 297  -288.5585
 298  -314.2917
 299  -212.4648
 300  -137.2332
 301  231.0111
 302  41.62087
 303  101.1337
 304  -355.0743
 305  -364.7148
 306  -188.5759
 307  74.89674
 308  -107.3021
 309  -438.9793
 310  185.4506
 311  143.6044
 312  -613.3337
 313  -824.8647
 314  -760.7589
 315  -677.7571
 316  -788.5457
 317  -94.21777
 318  -2.464373
 319  -471.9688
 320  -165.9801
 321  -70.09451
 322  229.6508
 323  -320.0511
 324  -610.1337
 325  2.380111
 326  -353.8426
 327  -375.1639
 328  -212.8752
 329  379.0258
 330  332.9273
 331  -98.12355
 332  -516.8165
 333  -580.3843
 334  -466.1642
 335  -176.4603
 336  -36.35918
 337  64.57459
 338  -78.18674
 339  29.94423
 340  -130.8279
 341  -122.7307
 342  -153.5111
 343  -236.5008
 344  -379.278
 345  -247.3987
 346  -112.9189
 347  -364.8522
 348  -603.8384
 349  -173.1639
 350  -211.5748
 351  -573.1209
 352  -819.5431
 353  -622.4321
 354  133.7568
 355  431.0654
 356  574.4793
 357  372.9723
 358  276.8907
 359  -147.7162
 360  -262.6106
 361  -421.7761
 362  -404.1417
 363  -300.601
 364  -487.2928
 365  -556.8588
 366  -171.0742
 367  -8.564333
 368  -401.8264
 369  -391.3254
 370  -64.0661
 371  -142.9546
 372  251.2524
 373  614.7215
 374  348.7684
 375  695.1504
 376  242.0319
 377  -99.19096
 378  -293.9942
 379  -408.6212
 380  -87.7281
 381  210.3632
 382  555.6161
 383  728.8945
 384  454.2746
 385  -87.75534
 386  322.1028
 387  679.1599
 388  46.72146
 389  438.7354
 390  702.7432
 391  763.7318
 392  397.0772
 393  76.99966
 394  113.2611
 395  -49.79375
 396  745.2925
 397  391.2744
 398  147.8881
 399  427.7097
 400  477.7288
 401  698.9853
 402  16.11658
 403  304.1906
 404  669.1052
 405  923.1494
 406  542.9176
 407  -84.08064
 408  129.8569
 409  -336.1743
 410  -781.2645
 411  -607.054
 412  -18.08948
 413  244.7299
 414  244.9677
 415  98.60908
 416  232.5002
 417  -151.7116
 418  -690.691
 419  -250.5464
 420  -8.522161
 421  192.4478
 422  -20.80247
 423  514.1974
 424  505.7822
 425  689.3719
 426  507.1586
 427  -135.1776
 428  156.4096
 429  281.9551
 430  336.2589
 431  249.0942
 432  485.0949
 433  78.80861
 434  -15.81594
 435  128.0178
 436  -8.174417
 437  -31.37634
 438  516.576
 439  378.0197
 440  252.3334
 441  20.58532
 442  -113.6345
 443  -796.9578
 444  -1184.764
 445  -522.877
 446  -249.2728
 447  -306.0604
 448  -365.9309
 449  -27.52827
 450  -216.4956
 451  -191.9882
 452  -534.1278
 453  -350.7999
 454  63.19262
 455  -54.73237
 456  -28.30396
 457  -156.6553
 458  188.0518
 459  -465.4768
 460  -217.4605
 461  -143.5359
 462  -409.3012
 463  -699.7945
 464  -1064.543
 465  -253.6023
 466  58.22927
 467  4.817243
 468  -636.2037
 469  -934.5878
 470  -462.4308
 471  -459.6847
 472  -199.6897
 473  -252.5491
 474  114.245
 475  171.1539
 476  -310.9586
 477  -143.3105
 478  -47.45874
 479  169.5586
 480  -189.4278
 481  159.1144
 482  397.5091
 483  213.4671
 484  -469.8458
 485  -668.8093
 486  -513.0444
 487  -55.89173
 488  -158.2842
 489  -375.2539
 490  -68.92247
 491  -401.2945
 492  -402.0629
 493  -200.8209
 494  -4.333674
 495  29.92269
 496  -4.865912
 497  -466.306
 498  -589.9897
 499  -399.0553
 500  -582.2067
 501  -454.6078
 502  -243.8834
 503  -47.68861
 504  -248.8629
 505  -417.3886
 506  -462.9522
 507  -509.3997
 508  -390.2998
 509  -214.5
 510  -300.734
 511  -145.3705
