# Input file       =  1204878933.116375-PSRB0329-2ms-sampling-dd.dat
# Candidate        =  PSR_0332+5434
# Telescope        =  AR
# Epoch_topo       =  58189.358242087670
# Epoch_bary       =  N/A
# T_sample         =  0.002
# Data Folded      =  7208960
# Data Avg         =  5.38555253653381e-10
# Data StdDev      =  7.78047787612327 
# Profile Bins     =  512
# Profile Avg      =  -0.0173915391219734
# Profile StdDev   =  923.225092060587 
# Reduced chi-sqr  =  0.867
# Prob(Noise)      <  0.986   (~0.0 sigma)
# P_topo (ms)      =  714.578397180726  +/- 6.5e-05
# P'_topo (s/s)    =  -0                +/- 3.49e-11
# P''_topo (s/s^2) =  0                 +/- 1.57e-14
# P_bary (ms)      =  N/A
# P'_bary (s/s)    =  N/A
# P''_bary (s/s^2) =  N/A
# P_orb (s)        =  N/A
# asin(i)/c (s)    =  N/A
# eccentricity     =  N/A
# w (rad)          =  N/A
# T_peri           =  N/A
######################################################
   0  -328.0818
   1  -537.4756
   2  -802.0945
   3  -966.7712
   4  -567.2039
   5  -419.9862
   6  -732.8477
   7  -796.1992
   8  -598.4427
   9  -795.2672
  10  -884.2302
  11  -518.8138
  12  -495.7157
  13  -448.1192
  14  -236.4769
  15  7.821312
  16  -460.1635
  17  -575.3
  18  -704.1924
  19  -751.4081
  20  -655.5925
  21  -761.7013
  22  -944.0898
  23  -594.7025
  24  -442.4453
  25  -518.4854
  26  -295.9193
  27  -640.3401
  28  -330.1915
  29  217.7744
  30  891.9521
  31  913.7653
  32  845.3694
  33  284.8427
  34  -35.39901
  35  -843.6424
  36  -855.2017
  37  -588.5519
  38  -484.5297
  39  52.12039
  40  64.91968
  41  427.4797
  42  -34.95571
  43  -572.8267
  44  -604.9757
  45  -81.02513
  46  648.4338
  47  1099.645
  48  1122.66
  49  915.6344
  50  410.4619
  51  -58.30252
  52  -420.2785
  53  -287.3466
  54  -254.3886
  55  373.3872
  56  193.9515
  57  -124.7259
  58  -608.3419
  59  -150.7257
  60  85.64642
  61  237.5895
  62  1052.871
  63  1280.59
  64  1224.202
  65  847.5219
  66  742.8808
  67  677.8655
  68  395.2919
  69  -176.5879
  70  305.4275
  71  144.3372
  72  165.8437
  73  506.4502
  74  240.6268
  75  17.5112
  76  -382.0341
  77  -141.9395
  78  102.9537
  79  -26.26224
  80  800.67
  81  945.7941
  82  293.3784
  83  -21.40457
  84  -427.6144
  85  -551.5301
  86  -550.8257
  87  -474.5377
  88  -455.3309
  89  -372.4827
  90  137.2298
  91  216.6304
  92  146.2074
  93  179.457
  94  454.2297
  95  857.8886
  96  874.3901
  97  761.0076
  98  118.4072
  99  -44.99934
 100  451.2496
 101  254.0301
 102  -504.6035
 103  -480.6646
 104  -203.0673
 105  -426.5236
 106  -82.55241
 107  -202.1836
 108  -297.116
 109  -830.5523
 110  -114.0758
 111  0.02632607
 112  258.01
 113  527.774
 114  500.4727
 115  304.6864
 116  -185.7951
 117  -239.4967
 118  -898.7683
 119  -882.3965
 120  -825.761
 121  -658.9371
 122  -496.2619
 123  -831.7954
 124  -667.7924
 125  -1006.268
 126  -353.1593
 127  87.71707
 128  79.29996
 129  455.2523
 130  797.4604
 131  460.1071
 132  379.5088
 133  -20.45998
 134  -377.6062
 135  119.0055
 136  -262.5952
 137  -112.5897
 138  -653.4246
 139  -645.0903
 140  -562.5834
 141  -694.4578
 142  -931.5184
 143  -726.7415
 144  -538.5387
 145  -131.2596
 146  782.6743
 147  681.7537
 148  -112.8195
 149  -608.3753
 150  -823.4825
 151  -1347.741
 152  -1243.621
 153  -740.3117
 154  -476.9435
 155  -313.3036
 156  -472.0446
 157  -829.7692
 158  -664.4222
 159  -390.9058
 160  -92.38266
 161  -3.736354
 162  273.0327
 163  792.7817
 164  402.4251
 165  -284.3832
 166  -131.7096
 167  -291.6433
 168  -480.4571
 169  -14.42788
 170  -174.0343
 171  -174.7425
 172  -202.5966
 173  -409.9498
 174  -832.1262
 175  -733.9974
 176  -259.9099
 177  -229.3264
 178  -52.6772
 179  612.4291
 180  564.9266
 181  293.7495
 182  -258.2984
 183  -938.9722
 184  -947.9845
 185  -796.6906
 186  -388.5838
 187  -627.4012
 188  -658.2177
 189  1.770919
 190  -146.1239
 191  -860.5873
 192  -632.1022
 193  -159.8419
 194  91.327
 195  407.4726
 196  863.8995
 197  481.3156
 198  294.6343
 199  427.0264
 200  352.6422
 201  -111.3432
 202  -117.7739
 203  -175.8646
 204  -2.299559
 205  37.95263
 206  376.4044
 207  273.2001
 208  -326.97
 209  -319.9949
 210  41.41111
 211  500.0952
 212  475.4893
 213  923.6131
 214  565.9791
 215  473.5826
 216  733.1221
 217  873.2196
 218  932.0621
 219  940.5067
 220  800.2019
 221  548.6801
 222  65.82144
 223  -607.3167
 224  -756.4632
 225  -367.3631
 226  357.6427
 227  308.0393
 228  421.1002
 229  786.5904
 230  583.0229
 231  -339.057
 232  -676.8185
 233  -941.8825
 234  -625.2335
 235  -509.2558
 236  -335.4086
 237  -825.3045
 238  -735.9358
 239  -803.4239
 240  -1306.75
 241  -1165.768
 242  -534.3904
 243  -48.91463
 244  316.0901
 245  644.6587
 246  366.1156
 247  -143.6398
 248  -310.1841
 249  -376.6906
 250  -93.81478
 251  160.495
 252  49.73431
 253  421.6294
 254  45.35521
 255  -110.724
 256  -709.3726
 257  -407.3017
 258  -169.4707
 259  13.35804
 260  702.2958
 261  1141.318
 262  977.1851
 263  661.3976
 264  332.9996
 265  -299.0585
 266  -190.6879
 267  -282.604
 268  23.113
 269  420.0109
 270  365.3549
 271  17.0037
 272  33.42952
 273  -398.6374
 274  -770.4684
 275  -334.0684
 276  225.1459
 277  698.9033
 278  1207.512
 279  1499.826
 280  1157.485
 281  428.3992
 282  -203.2366
 283  -150.2552
 284  -285.4677
 285  123.4552
 286  235.2516
 287  242.23
 288  70.65998
 289  31.89268
 290  -316.6732
 291  -181.4226
 292  350.7315
 293  939.4819
 294  1314.502
 295  1439.212
 296  958.1819
 297  195.1377
 298  7.235749
 299  281.4204
 300  -120.3038
 301  -473.5546
 302  38.38573
 303  81.50004
 304  129.517
 305  48.15611
 306  -674.2029
 307  -353.6476
 308  -304.7802
 309  437.5024
 310  1257.077
 311  1241.82
 312  1288.448
 313  1281.229
 314  1064.765
 315  942.5927
 316  1187.961
 317  681.835
 318  706.8488
 319  330.8573
 320  1460.842
 321  1959.507
 322  1579.145
 323  979.4377
 324  838.3084
 325  466.8951
 326  148.731
 327  360.8438
 328  703.7083
 329  434.1219
 330  -583.8864
 331  -916.3864
 332  -589.85
 333  -642.3802
 334  -388.3388
 335  -561.819
 336  -531.0325
 337  -628.1549
 338  -718.0964
 339  -653.4902
 340  -802.0313
 341  -449.286
 342  -155.1441
 343  3.213022
 344  425.9938
 345  70.29616
 346  -96.59975
 347  -679.0102
 348  -735.5906
 349  -372.2169
 350  -615.2092
 351  -307.6529
 352  211.6558
 353  117.7731
 354  -272.9014
 355  -604.2917
 356  -920.2595
 357  -836.2773
 358  -367.1218
 359  -229.5327
 360  183.3429
 361  361.819
 362  585.8959
 363  -243.9598
 364  -759.8557
 365  -1121.093
 366  -1710.389
 367  -1653.044
 368  -1369.456
 369  -530.6616
 370  -514.4763
 371  -454.9035
 372  -818.2774
 373  -1077.702
 374  -793.0054
 375  -435.4565
 376  -235.887
 377  248.366
 378  454.0303
 379  107.9053
 380  -483.4109
 381  -657.0075
 382  -517.1622
 383  -491.7072
 384  -367.2453
 385  -231.1452
 386  -236.5571
 387  -666.4722
 388  -993.7748
 389  -961.9757
 390  -744.9974
 391  -14.20191
 392  453.7005
 393  1013.981
 394  673.3227
 395  539.8756
 396  -193.0598
 397  -477.1009
 398  -649.7701
 399  -663.3762
 400  -1160.945
 401  -981.1666
 402  -542.492
 403  -148.4828
 404  -239.732
 405  -707.8862
 406  -780.6659
 407  -770.1988
 408  -72.61581
 409  374.0775
 410  712.7975
 411  284.7502
 412  -133.954
 413  -203.0889
 414  -408.5286
 415  -21.76097
 416  148.7538
 417  278.7411
 418  118.7755
 419  159.0362
 420  256.7013
 421  -216.9888
 422  121.4827
 423  29.30641
 424  136.4384
 425  619.8248
 426  1208.009
 427  1381.505
 428  723.9839
 429  282.0992
 430  404.1373
 431  159.8268
 432  -297.3665
 433  -91.91461
 434  272.3765
 435  488.0361
 436  765.3381
 437  354.5731
 438  29.11773
 439  -69.35637
 440  645.0903
 441  798.3041
 442  1404.939
 443  1500.146
 444  1237.645
 445  980.5278
 446  792.4773
 447  471.724
 448  339.9734
 449  488.8188
 450  523.9177
 451  358.7479
 452  408.6882
 453  448.6109
 454  433.0799
 455  709.0044
 456  726.3361
 457  895.5606
 458  770.0482
 459  1116.08
 460  1384.083
 461  1545.694
 462  1361.074
 463  958.5558
 464  686.3098
 465  236.0952
 466  709.9363
 467  777.7312
 468  914.8575
 469  554.2741
 470  -65.95975
 471  -370.1031
 472  -192.5297
 473  -50.90329
 474  115.5411
 475  809.2216
 476  903.5836
 477  1052.527
 478  599.1219
 479  571.0269
 480  619.0964
 481  288.036
 482  321.8453
 483  167.8058
 484  -99.83823
 485  -701.7142
 486  -615.3915
 487  -331.2083
 488  -355.9069
 489  -360.5038
 490  -55.36835
 491  417.0357
 492  744.9524
 493  566.7338
 494  415.3907
 495  -242.7743
 496  -532.2354
 497  -888.8227
 498  -992.8893
 499  -704.531
 500  -527.0275
 501  -241.0589
 502  50.54432
 503  -395.262
 504  -650.0029
 505  -716.3747
 506  -1106.501
 507  -575.8762
 508  56.2672
 509  566.9799
 510  985.9714
 511  474.3862
