# Input file       =  1204620467.112361-PSRB0329-2ms-sampling-dd.dat
# Candidate        =  PSR_0332+5434
# Telescope        =  AR
# Epoch_topo       =  58186.366737411583
# Epoch_bary       =  N/A
# T_sample         =  0.002
# Data Folded      =  7208960
# Data Avg         =  -8.73392910346792e-10
# Data StdDev      =  35.3237994426824 
# Profile Bins     =  512
# Profile Avg      =  0.0242405045341897
# Profile StdDev   =  4191.49292776467 
# Reduced chi-sqr  =  1.307
# Prob(Noise)      <  3.5e-06   (~4.5 sigma)
# P_topo (ms)      =  714.5791647131    +/- 0.000263
# P'_topo (s/s)    =  -0                +/- 1.41e-10
# P''_topo (s/s^2) =  0                 +/- 6.36e-14
# P_bary (ms)      =  N/A
# P'_bary (s/s)    =  N/A
# P''_bary (s/s^2) =  N/A
# P_orb (s)        =  N/A
# asin(i)/c (s)    =  N/A
# eccentricity     =  N/A
# w (rad)          =  N/A
# T_peri           =  N/A
######################################################
   0  -309.1375
   1  -777.9678
   2  -1452.429
   3  -924.8481
   4  -943.7078
   5  -509.5073
   6  -59.56685
   7  418.2507
   8  555.8357
   9  -205.9436
  10  -679.1257
  11  -586.3152
  12  -87.55856
  13  -394.2843
  14  -490.5708
  15  -597.0255
  16  -594.538
  17  -1509.089
  18  -2173.841
  19  -1496.6
  20  -631.8364
  21  -426.1537
  22  -491.9508
  23  282.82
  24  847.1982
  25  368.4199
  26  -216.4589
  27  -807.1315
  28  -225.5215
  29  131.4989
  30  -309.2124
  31  -621.1283
  32  -139.9518
  33  -287.2581
  34  -1820.181
  35  -1112.8
  36  -795.8888
  37  -578.6727
  38  -65.85072
  39  322.4114
  40  894.6558
  41  849.331
  42  125.2381
  43  -788.0884
  44  -910.713
  45  -120.1214
  46  -44.04564
  47  -477.0723
  48  12.52505
  49  -246.0475
  50  -818.7791
  51  -2091.124
  52  -2016.158
  53  -813.1636
  54  -468.5798
  55  -173.9684
  56  147.259
  57  455.5192
  58  111.2677
  59  -663.7425
  60  -769.6021
  61  -416.6783
  62  -74.05372
  63  -680.8178
  64  -1102.085
  65  -115.3615
  66  -198.4489
  67  -997.3802
  68  -2001.212
  69  -1186.122
  70  -742.7037
  71  -556.1378
  72  35.09679
  73  380.7165
  74  971.1276
  75  99.44521
  76  -222.4946
  77  -374.4697
  78  -207.3268
  79  -82.49162
  80  -635.8112
  81  -564.5912
  82  -67.00338
  83  -512.9138
  84  -1677.84
  85  -1650.355
  86  -1174.517
  87  -777.3978
  88  -579.7795
  89  190.1925
  90  838.0867
  91  102.3621
  92  -561.6221
  93  -717.2795
  94  -119.6664
  95  -47.33963
  96  -573.9993
  97  -346.1682
  98  33.20138
  99  227.0936
 100  -937.1793
 101  -1595.698
 102  -978.6469
 103  -532.0339
 104  -474.7556
 105  -220.8686
 106  845.4839
 107  302.109
 108  -244.448
 109  -203.5207
 110  -615.9584
 111  -52.72527
 112  -237.4074
 113  -491.3861
 114  -154.1902
 115  255.2284
 116  -764.5705
 117  -1833.274
 118  -1330.967
 119  -365.5378
 120  323.6696
 121  272.2503
 122  907.8962
 123  1193.327
 124  571.4547
 125  -219.0533
 126  -423.6542
 127  435.1838
 128  772.4822
 129  615.0967
 130  589.4755
 131  1275.388
 132  1056.433
 133  553.548
 134  658.0543
 135  366.6268
 136  1074.395
 137  901.5623
 138  634.277
 139  1093.025
 140  846.5498
 141  516.226
 142  -330.2974
 143  -64.49368
 144  260.5352
 145  299.4382
 146  -30.53853
 147  -233.1092
 148  448.2881
 149  -160.0022
 150  -1132.25
 151  -1378.672
 152  -904.0261
 153  -380.0222
 154  206.7787
 155  697.7483
 156  1087.339
 157  785.2897
 158  -25.4277
 159  -442.3008
 160  30.20827
 161  332.1697
 162  -355.2807
 163  70.87289
 164  557.4173
 165  115.1013
 166  -836.7593
 167  -1456.646
 168  -1041.034
 169  -499.336
 170  -321.8174
 171  -153.3172
 172  643.2068
 173  668.2389
 174  0.007859504
 175  -587.1709
 176  -844.3489
 177  -440.24
 178  -268.2654
 179  -721.6968
 180  -407.3545
 181  -1.076839
 182  -532.4172
 183  -1524.902
 184  -1536.248
 185  -609.9848
 186  -463.009
 187  -205.0084
 188  277.2642
 189  679.4315
 190  643.1871
 191  -151.5202
 192  -596.454
 193  -530.722
 194  -182.7902
 195  -485.4117
 196  -745.9035
 197  -339.8407
 198  -93.39037
 199  -1000.342
 200  -2010.912
 201  -1855.408
 202  -810.299
 203  -165.6284
 204  -18.83489
 205  736.2997
 206  526.7467
 207  -266.2159
 208  -665.722
 209  -532.2684
 210  71.12445
 211  -52.0375
 212  -434.5239
 213  -705.4154
 214  -300.3938
 215  -731.1226
 216  -1742.733
 217  -1817.147
 218  -1044.799
 219  -327.7117
 220  -237.6306
 221  -474.9481
 222  323.2212
 223  183.6487
 224  -184.9545
 225  -902.5252
 226  -499.9459
 227  -193.1495
 228  -377.0818
 229  -303.9113
 230  -374.5103
 231  -170.8955
 232  -1109.613
 233  -2164.938
 234  -1735.481
 235  -917.5074
 236  -646.9522
 237  -353.5331
 238  -39.79194
 239  463.6509
 240  -342.8134
 241  -836.037
 242  -834.3764
 243  -380.0643
 244  -113.0239
 245  -458.6689
 246  -270.873
 247  -259.0019
 248  -1027.844
 249  -1423.525
 250  -1468.498
 251  -814.6849
 252  -276.0355
 253  -263.17
 254  -23.83243
 255  273.6168
 256  558.2048
 257  -99.21738
 258  -614.8718
 259  -334.0059
 260  -18.37133
 261  -263.8398
 262  -548.6852
 263  -461.5063
 264  -329.3922
 265  -1094.331
 266  -1702.593
 267  -1462.186
 268  -615.8422
 269  -65.50464
 270  249.3563
 271  674.7731
 272  756.6279
 273  2.751489
 274  -458.9679
 275  -485.7958
 276  360.9151
 277  1384.135
 278  2803.467
 279  5947.435
 280  7389.188
 281  8651.068
 282  6071.054
 283  7149.658
 284  10183.12
 285  25995.96
 286  36948.98
 287  41239.18
 288  36862.81
 289  19145.99
 290  8836.146
 291  -296.4906
 292  -364.3412
 293  -48.11683
 294  -92.86076
 295  -541.7454
 296  -331.7597
 297  -225.3297
 298  -1036.893
 299  -1800.173
 300  -1445.603
 301  -1214.029
 302  -607.5449
 303  -129.2935
 304  452.7965
 305  314.754
 306  -86.46244
 307  -610.0834
 308  -630.4687
 309  -480.2805
 310  -372.2357
 311  -589.7108
 312  -677.4363
 313  -252.3047
 314  -741.5795
 315  -1727.095
 316  -2016.375
 317  -1430.163
 318  -650.6832
 319  -199.7503
 320  103.98
 321  500.1177
 322  -61.22771
 323  -494.1458
 324  -836.364
 325  -419.2109
 326  -400.229
 327  -747.5106
 328  -1188.493
 329  -703.4201
 330  -218.9198
 331  -1239.228
 332  -2203.485
 333  -2028.928
 334  -1176.873
 335  -598.4258
 336  -627.6099
 337  -51.61042
 338  139.609
 339  -390.0667
 340  -1097.502
 341  -1130.443
 342  -271.6912
 343  -51.39849
 344  -465.8735
 345  -419.7495
 346  -48.76638
 347  -338.3693
 348  -1143.546
 349  -1142.612
 350  -996.5373
 351  -620.2174
 352  -286.5951
 353  149.8752
 354  602.2715
 355  850.9268
 356  -214.5527
 357  -724.5304
 358  -996.9593
 359  -364.0417
 360  -542.4089
 361  -1063.555
 362  -627.8224
 363  -399.4477
 364  -1058.092
 365  -1907.849
 366  -2079.45
 367  -1112.708
 368  -534.3386
 369  -39.72798
 370  592.7026
 371  644.8506
 372  -321.3388
 373  -956.1943
 374  -878.6003
 375  -958.5784
 376  -648.265
 377  -331.0204
 378  -328.3467
 379  23.3215
 380  -536.2485
 381  -1171.188
 382  -1599.679
 383  -990.3357
 384  -652.1328
 385  -666.9575
 386  144.5416
 387  734.3206
 388  680.7411
 389  -188.4643
 390  -583.9939
 391  -709.805
 392  -194.3087
 393  -538.6534
 394  -1089.817
 395  -647.3199
 396  -575.8391
 397  -1084.605
 398  -1602.856
 399  -1424.45
 400  -1356.65
 401  -1033.377
 402  -540.4851
 403  -36.48343
 404  113.6321
 405  -683.9407
 406  -885.2865
 407  -982.9654
 408  -255.7306
 409  -581.5611
 410  -1192.133
 411  -863.5159
 412  -446.1176
 413  -791.2503
 414  -1316.036
 415  -1645.864
 416  -903.1636
 417  -591.8214
 418  -143.0599
 419  134.5169
 420  415.2188
 421  276.2957
 422  -122.3695
 423  -580.444
 424  -825.0228
 425  -515.0516
 426  -461.1263
 427  -552.911
 428  -494.8157
 429  -504.4066
 430  -809.7583
 431  -1266.003
 432  -1307.342
 433  -603.9528
 434  -3.988681
 435  -25.74281
 436  197.9172
 437  324.5905
 438  -283.5957
 439  -827.2971
 440  -1038.037
 441  -658.4474
 442  -728.9826
 443  -843.1909
 444  -949.4318
 445  -450.9336
 446  -151.2079
 447  -837.6212
 448  -1108.416
 449  -766.3755
 450  -353.6376
 451  -304.1565
 452  88.15696
 453  1174.51
 454  516.6124
 455  227.9491
 456  -326.3553
 457  -776.777
 458  -319.9237
 459  -424.447
 460  -886.331
 461  -620.4421
 462  -624.6689
 463  -1446.78
 464  -2036.783
 465  -1652.083
 466  -1122.274
 467  -789.0159
 468  -684.4813
 469  -290.2612
 470  398.0129
 471  -234.8388
 472  -858.3418
 473  -505.5779
 474  -81.80848
 475  -137.1302
 476  -647.8368
 477  -1242.072
 478  -644.6443
 479  -906.3448
 480  -1476.112
 481  -1815.914
 482  -1402.895
 483  -998.9368
 484  -872.1306
 485  -225.9687
 486  304.1142
 487  -0.5777647
 488  -322.8657
 489  -922.4132
 490  -588.4432
 491  -382.0906
 492  -573.0937
 493  -1276.128
 494  -897.4515
 495  -434.5714
 496  -1391.029
 497  -1936.515
 498  -1345.54
 499  -884.8383
 500  -975.253
 501  -698.7535
 502  216.6702
 503  671.8531
 504  496.7609
 505  14.36031
 506  -94.41273
 507  166.0333
 508  5.02908
 509  -828.3165
 510  -1004.146
 511  -249.1961
