# Input file       =  1204650021.107856_cleaned.dat
# Candidate        =  PSR_0332+5434
# Telescope        =  AR
# Epoch_topo       =  58186.708797544627
# Epoch_bary       =  N/A
# T_sample         =  0.002
# Data Folded      =  7340032
# Data Avg         =  0.0236898808381049
# Data StdDev      =  1.00004113707285 
# Profile Bins     =  512
# Profile Avg      =  339.627834157091 
# Profile StdDev   =  119.737961843406 
# Reduced chi-sqr  =  1.056
# Prob(Noise)      <  0.186   (~0.9 sigma)
# P_topo (ms)      =  714.579429521024  +/- 0.00033
# P'_topo (s/s)    =  -0                +/- 1.74e-10
# P''_topo (s/s^2) =  0                 +/- 7.68e-14
# P_bary (ms)      =  N/A
# P'_bary (s/s)    =  N/A
# P''_bary (s/s^2) =  N/A
# P_orb (s)        =  N/A
# asin(i)/c (s)    =  N/A
# eccentricity     =  N/A
# w (rad)          =  N/A
# T_peri           =  N/A
######################################################
   0  389.5511
   1  338.5629
   2  401.5838
   3  391.6374
   4  383.0308
   5  299.9972
   6  317.0993
   7  284.6916
   8  383.6045
   9  307.1766
  10  339.5095
  11  449.7514
  12  290.3472
  13  309.591
  14  304.7224
  15  262.4374
  16  297.5501
  17  259.2003
  18  226.5225
  19  189.2138
  20  212.4072
  21  331.8374
  22  313.5866
  23  295.6909
  24  245.3016
  25  396.4301
  26  415.5409
  27  406.6354
  28  363.5549
  29  366.871
  30  508.4238
  31  565.8586
  32  417.6834
  33  405.3282
  34  287.4273
  35  317.6679
  36  465.8329
  37  360.9821
  38  327.2631
  39  294.5701
  40  344.3617
  41  409.8921
  42  461.9889
  43  376.3633
  44  346.7943
  45  277.4432
  46  260.4439
  47  227.5279
  48  248.0771
  49  271.2759
  50  339.3787
  51  361.3077
  52  344.5812
  53  430.0343
  54  325.0355
  55  303.6587
  56  436.0732
  57  344.8105
  58  445.4249
  59  404.6734
  60  393.3626
  61  316.637
  62  368.2946
  63  303.7951
  64  328.7709
  65  301.7771
  66  521.0328
  67  467.6669
  68  395.5153
  69  392.964
  70  325.7435
  71  341.1588
  72  305.6784
  73  326.5743
  74  304.7086
  75  331.8539
  76  295.9458
  77  428.316
  78  414.7235
  79  428.9796
  80  381.1668
  81  316.623
  82  269.4716
  83  399.7251
  84  428.5872
  85  462.3738
  86  334.6066
  87  372.0119
  88  443.3871
  89  499.8945
  90  328.0885
  91  204.2294
  92  211.8473
  93  368.7793
  94  446.698
  95  291.8392
  96  292.5672
  97  305.9491
  98  414.632
  99  417.4444
 100  383.9619
 101  445.2605
 102  429.0807
 103  291.654
 104  322.9128
 105  262.5278
 106  291.1337
 107  279.1296
 108  297.6101
 109  372.7118
 110  295.8427
 111  373.5268
 112  512.8201
 113  406.5103
 114  380.7407
 115  281.5605
 116  336.2201
 117  293.2544
 118  181.8971
 119  180.7029
 120  232.3546
 121  253.4363
 122  248.3088
 123  245.6673
 124  273.4736
 125  262.2898
 126  361.6219
 127  393.8674
 128  292.4646
 129  296.0272
 130  334.7716
 131  293.203
 132  325.6869
 133  267.1462
 134  253.9468
 135  291.8942
 136  276.9634
 137  254.5624
 138  174.1415
 139  413.4998
 140  493.1512
 141  360.6301
 142  358.4953
 143  278.6112
 144  256.5379
 145  160.3661
 146  152.3934
 147  285.3673
 148  275.1458
 149  191.4355
 150  244.203
 151  343.5238
 152  311.3707
 153  276.1018
 154  334.9724
 155  295.9839
 156  306.1446
 157  443.6994
 158  413.1049
 159  257.9816
 160  271.6546
 161  330.8772
 162  266.6605
 163  257.0825
 164  211.5791
 165  272.6505
 166  307.8651
 167  239.3468
 168  212.1996
 169  318.5984
 170  380.4395
 171  390.1992
 172  275.0717
 173  343.021
 174  425.1756
 175  379.8271
 176  348.0285
 177  384.0366
 178  234.1487
 179  352.7088
 180  387.3867
 181  287.3583
 182  390.6548
 183  409.2196
 184  433.7259
 185  394.8694
 186  373.7756
 187  328.6644
 188  373.9596
 189  279.6117
 190  305.3925
 191  386.0453
 192  273.2649
 193  247.4777
 194  303.8635
 195  268.0975
 196  182.4758
 197  205.1561
 198  191.7493
 199  289.8564
 200  337.582
 201  301.6796
 202  308.9282
 203  317.4129
 204  496.0935
 205  351.0407
 206  413.0236
 207  485.5479
 208  452.2333
 209  402.1388
 210  424.8284
 211  285.532
 212  342.4183
 213  371.5774
 214  338.2736
 215  380.7869
 216  494.8843
 217  408.8217
 218  296.6248
 219  333.4287
 220  309.5354
 221  194.3647
 222  271.3604
 223  387.7326
 224  328.552
 225  344.0203
 226  316.028
 227  374.0033
 228  446.6857
 229  343.9598
 230  250.1363
 231  336.287
 232  407.5298
 233  352.4695
 234  248.0811
 235  255.8891
 236  270.0204
 237  254.3789
 238  359.1546
 239  361.05
 240  326.5992
 241  295.7997
 242  300.3934
 243  301.9067
 244  289.5566
 245  254.0238
 246  268.7787
 247  343.3814
 248  452.7908
 249  362.5511
 250  224.9291
 251  269.0838
 252  259.3878
 253  241.3307
 254  294.558
 255  270.101
 256  292.049
 257  279.322
 258  376.0614
 259  414.9179
 260  338.332
 261  337.5291
 262  365.0933
 263  277.5565
 264  406.5466
 265  384.3963
 266  268.0785
 267  302.5849
 268  310.4716
 269  342.9731
 270  430.5666
 271  359.7314
 272  262.7226
 273  65.36923
 274  198.0386
 275  307.3324
 276  307.4494
 277  314.4808
 278  314.3246
 279  300.4898
 280  424.2283
 281  372.1123
 282  175.8881
 283  180.681
 284  241.7007
 285  280.1561
 286  263.8775
 287  298.3147
 288  295.3468
 289  348.622
 290  300.014
 291  416.3212
 292  334.4706
 293  348.5812
 294  445.2928
 295  345.9207
 296  352.7173
 297  351.5568
 298  288.0804
 299  405.7223
 300  373.6125
 301  268.9435
 302  350.0407
 303  364.1902
 304  374.2308
 305  323.1782
 306  316.7927
 307  387.6281
 308  283.0637
 309  372.9509
 310  336.4634
 311  330.6391
 312  271.7563
 313  203.7619
 314  359.1875
 315  445.0916
 316  371.5758
 317  320.8575
 318  362.0823
 319  297.4537
 320  230.4355
 321  345.8487
 322  502.4994
 323  402.7957
 324  371.871
 325  404.2676
 326  264.3185
 327  241.6527
 328  301.1702
 329  358.4534
 330  349.9658
 331  360.0487
 332  413.8311
 333  456.9818
 334  423.6428
 335  480.0639
 336  599.6497
 337  856.878
 338  940.4357
 339  704.0641
 340  705.7798
 341  552.1086
 342  529.3517
 343  416.0505
 344  380.5267
 345  378.8324
 346  332.6715
 347  342.6319
 348  428.4676
 349  344.2236
 350  213.815
 351  200.9354
 352  287.0624
 353  447.1045
 354  402.5277
 355  318.2537
 356  363.1453
 357  238.0247
 358  259.5277
 359  231.2408
 360  235.1741
 361  293.4592
 362  303.9335
 363  250.9785
 364  382.904
 365  445.4898
 366  326.6242
 367  275.639
 368  297.609
 369  255.6733
 370  226.6374
 371  323.2379
 372  364.9262
 373  204.7464
 374  268.5699
 375  416.0996
 376  433.6824
 377  366.3268
 378  320.3722
 379  394.9391
 380  470.2585
 381  347.9225
 382  287.4463
 383  233.0253
 384  169.4291
 385  243.3221
 386  312.4107
 387  326.3511
 388  289.9373
 389  279.3176
 390  227.0007
 391  313.4291
 392  480.8583
 393  408.6692
 394  314.2269
 395  284.5951
 396  248.1248
 397  321.4429
 398  403.0315
 399  391.2141
 400  382.9619
 401  491.8078
 402  401.2449
 403  368.5959
 404  426.4093
 405  462.9281
 406  331.188
 407  460.3011
 408  512.303
 409  429.6377
 410  276.5795
 411  224.7753
 412  290.2415
 413  250.5031
 414  219.5387
 415  258.2315
 416  373.5111
 417  373.9986
 418  369.3242
 419  235.5739
 420  157.9921
 421  259.665
 422  344.6126
 423  245.4964
 424  193.7683
 425  231.0592
 426  293.6732
 427  281.2314
 428  338.0121
 429  452.1917
 430  376.5127
 431  365.4372
 432  296.3916
 433  343.9109
 434  365.2048
 435  496.5937
 436  414.6581
 437  170.1684
 438  213.1269
 439  304.7431
 440  313.9147
 441  328.1647
 442  338.6841
 443  368.3961
 444  413.6617
 445  452.2582
 446  308.8893
 447  314.3647
 448  285.1694
 449  287.8218
 450  397.3814
 451  405.5828
 452  284.0952
 453  216.5146
 454  197.3741
 455  171.416
 456  293.6017
 457  401.6261
 458  455.2828
 459  377.8907
 460  283.9002
 461  258.0164
 462  270.6082
 463  319.7452
 464  495.9917
 465  431.2251
 466  379.6359
 467  384.7116
 468  460.1342
 469  464.3455
 470  376.857
 471  325.3307
 472  300.9432
 473  401.985
 474  468.3435
 475  478.5437
 476  334.0624
 477  311.3691
 478  325.3999
 479  398.0427
 480  365.069
 481  298.9263
 482  335.6098
 483  347.0892
 484  248.2454
 485  396.9274
 486  557.4987
 487  497.1172
 488  426.3406
 489  329.8248
 490  416.5897
 491  377.4442
 492  329.5954
 493  400.0491
 494  374.2914
 495  463.8601
 496  471.6781
 497  453.0357
 498  474.2731
 499  417.8882
 500  363.9581
 501  373.3869
 502  277.5146
 503  175.8032
 504  301.7931
 505  253.078
 506  356.0062
 507  438.6534
 508  410.7215
 509  332.3412
 510  253.402
 511  352.4489
