# Input file       =  1204017792.172484-PSRB0329-2ms-sampling-dd.dat
# Candidate        =  PSR_0332+5434
# Telescope        =  AR
# Epoch_topo       =  58179.391333014857
# Epoch_bary       =  N/A
# T_sample         =  0.002
# Data Folded      =  7274496
# Data Avg         =  3.90398522847273e-10
# Data StdDev      =  6.01011208612056 
# Profile Bins     =  512
# Profile Avg      =  0.250079634618647
# Profile StdDev   =  716.389225954789 
# Reduced chi-sqr  =  0.883
# Prob(Noise)      <  0.973   (~0.0 sigma)
# P_topo (ms)      =  714.580347074463  +/- 4.14e-05
# P'_topo (s/s)    =  -0                +/- 2.2e-11
# P''_topo (s/s^2) =  0                 +/- 9.81e-15
# P_bary (ms)      =  N/A
# P'_bary (s/s)    =  N/A
# P''_bary (s/s^2) =  N/A
# P_orb (s)        =  N/A
# asin(i)/c (s)    =  N/A
# eccentricity     =  N/A
# w (rad)          =  N/A
# T_peri           =  N/A
######################################################
   0  -621.9908
   1  -551.3343
   2  -247.3777
   3  -73.63039
   4  -248.142
   5  -404.2279
   6  -437.7512
   7  -152.9211
   8  -371.9586
   9  -42.14335
  10  477.3952
  11  396.2138
  12  -8.35287
  13  -364.0576
  14  -491.2837
  15  -613.0807
  16  -593.189
  17  -750.7315
  18  -140.5967
  19  -13.87622
  20  -75.34956
  21  -732.1765
  22  -622.2653
  23  -241.0674
  24  -647.815
  25  -360.2769
  26  294.6568
  27  861.7492
  28  458.4106
  29  -2.297366
  30  -432.7165
  31  -842.2215
  32  -666.9053
  33  -394.7623
  34  -339.3504
  35  6.734367
  36  -30.52106
  37  192.0848
  38  -420.3484
  39  -298.5494
  40  -239.2248
  41  -246.6521
  42  495.4723
  43  997.9797
  44  749.2503
  45  185.9144
  46  -393.2791
  47  -421.1649
  48  -317.8401
  49  -304.3371
  50  -307.2985
  51  -30.53551
  52  253.3118
  53  16.09958
  54  81.55925
  55  112.2943
  56  88.7788
  57  -5.334805
  58  152.4197
  59  548.5941
  60  1026.342
  61  886.804
  62  358.6851
  63  34.73977
  64  -239.7352
  65  -102.8268
  66  -322.2156
  67  17.45424
  68  431.8092
  69  736.3688
  70  393.4955
  71  611.3861
  72  352.7877
  73  -147.5911
  74  210.8692
  75  146.4861
  76  344.8049
  77  287.2285
  78  166.5439
  79  308.4447
  80  -495.3752
  81  -457.9327
  82  -820.9164
  83  -948.673
  84  -424.7109
  85  397.3631
  86  480.906
  87  128.8471
  88  113.7917
  89  -59.86366
  90  173.1721
  91  -131.3301
  92  660.9834
  93  692.2477
  94  968.7857
  95  870.6848
  96  154.5885
  97  -76.08353
  98  -228.2988
  99  -696.0129
 100  -452.3534
 101  121.6885
 102  441.2595
 103  374.8393
 104  372.0673
 105  411.0585
 106  236.7054
 107  -193.8669
 108  116.5224
 109  637.0487
 110  913.873
 111  846.8369
 112  168.7687
 113  -615.6966
 114  -499.4708
 115  -484.9832
 116  -688.5842
 117  -428.6405
 118  318.2403
 119  647.0881
 120  205.016
 121  182.7699
 122  22.88442
 123  -107.7147
 124  -180.0519
 125  98.47321
 126  559.4235
 127  499.0726
 128  679.153
 129  35.37486
 130  -167.8357
 131  -257.0038
 132  -287.0381
 133  -539.4312
 134  -30.71889
 135  102.2589
 136  -151.9292
 137  -342.8943
 138  -307.9054
 139  271.4445
 140  -308.9787
 141  -229.2911
 142  313.9767
 143  823.3956
 144  339.0704
 145  -421.8534
 146  -540.6525
 147  -601.1232
 148  -1035.721
 149  -855.2341
 150  -101.5603
 151  476.9287
 152  145.0809
 153  -96.97659
 154  87.28626
 155  264.9128
 156  -215.7247
 157  -67.56569
 158  216.3027
 159  326.7383
 160  126.7156
 161  290.4344
 162  648.8834
 163  210.6176
 164  494.6832
 165  -224.1373
 166  -523.4454
 167  -10.79631
 168  655.9885
 169  623.0793
 170  80.27615
 171  382.3757
 172  60.32709
 173  -79.1901
 174  126.6319
 175  444.9944
 176  373.7032
 177  267.1289
 178  146.9135
 179  -148.2592
 180  -142.4562
 181  -308.5461
 182  -690.3498
 183  -318.9118
 184  554.9025
 185  245.8483
 186  -18.38878
 187  -59.60538
 188  -21.611
 189  -111.8938
 190  -69.37326
 191  603.6688
 192  1085.163
 193  982.1556
 194  418.8048
 195  -332.1562
 196  -564.6735
 197  -635.7249
 198  -412.0966
 199  -217.8257
 200  813.8092
 201  1129.414
 202  333.7726
 203  -295.4817
 204  -262.7083
 205  273.9339
 206  256.203
 207  264.0459
 208  626.1392
 209  555.8037
 210  582.5223
 211  -208.312
 212  -411.6931
 213  -207.4165
 214  -435.9511
 215  -354.0895
 216  -379.2426
 217  55.38018
 218  254.8522
 219  114.921
 220  -191.5038
 221  -217.3756
 222  19.13961
 223  -289.2516
 224  -335.8828
 225  540.7782
 226  834.9099
 227  298.4615
 228  -83.31857
 229  -274.494
 230  -442.0906
 231  -399.3637
 232  -456.2512
 233  298.606
 234  599.5023
 235  38.47408
 236  63.99611
 237  26.98617
 238  254.9253
 239  -114.4601
 240  320.6711
 241  888.4219
 242  1155.264
 243  842.2619
 244  272.0775
 245  -64.4574
 246  -359.6179
 247  -446.5647
 248  -680.0408
 249  -47.06935
 250  520.981
 251  325.901
 252  140.4981
 253  -233.069
 254  145.614
 255  411.2267
 256  248.6514
 257  460.6044
 258  432.2349
 259  330.7742
 260  -162.2978
 261  -250.9473
 262  -141.0461
 263  -97.11814
 264  -574.5262
 265  -201.0496
 266  319.8856
 267  482.8615
 268  771.1284
 269  1086.923
 270  1473.987
 271  1418.055
 272  1677.668
 273  1541.814
 274  1459.297
 275  1762.999
 276  892.1081
 277  174.514
 278  -109.9181
 279  -635.6119
 280  -231.8168
 281  -236.271
 282  -186.4878
 283  151.2023
 284  537.6152
 285  396.5695
 286  -22.40299
 287  -129.3517
 288  -124.0194
 289  -170.7366
 290  41.58557
 291  679.7446
 292  657.8528
 293  106.2092
 294  -473.7384
 295  -395.5291
 296  62.71519
 297  -329.0175
 298  -458.8193
 299  57.63478
 300  652.2025
 301  681.2222
 302  236.2496
 303  -244.0666
 304  -409.5737
 305  -187.3516
 306  242.2961
 307  717.178
 308  1007.923
 309  931.277
 310  315.6075
 311  -337.3977
 312  -661.7278
 313  -531.2645
 314  -222.2064
 315  -230.0858
 316  182.7298
 317  448.9722
 318  -173.8475
 319  -382.9424
 320  -528.431
 321  -325.489
 322  -286.6896
 323  38.21902
 324  243.1406
 325  204.9781
 326  0.005797075
 327  -367.5794
 328  -366.1845
 329  -658.9535
 330  -1246.096
 331  -841.2446
 332  -221.8717
 333  33.53763
 334  -204.8687
 335  -397.1973
 336  -162.5023
 337  -156.7078
 338  -264.121
 339  -161.8172
 340  443.3163
 341  672.2866
 342  433.9608
 343  72.01412
 344  -724.2129
 345  -981.1135
 346  -585.3617
 347  -997.553
 348  -831.17
 349  -59.51035
 350  157.2303
 351  -21.10418
 352  -601.3529
 353  -194.4679
 354  38.29002
 355  -60.89861
 356  273.9335
 357  623.9907
 358  417.962
 359  -367.877
 360  -510.4066
 361  -840.8183
 362  -689.3389
 363  -739.8138
 364  -555.1868
 365  106.2777
 366  10.4152
 367  337.1787
 368  187.4328
 369  274.2184
 370  60.20319
 371  44.79943
 372  378.2414
 373  963.9991
 374  1129.176
 375  907.8235
 376  205.2851
 377  -194.0371
 378  -482.4614
 379  -673.0403
 380  -678.2335
 381  -233.0958
 382  242.6537
 383  282.1765
 384  101.6436
 385  -130.2359
 386  -297.8063
 387  -496.7044
 388  -351.7594
 389  295.2113
 390  840.4185
 391  969.3569
 392  418.0891
 393  -646.1416
 394  -804.795
 395  -681.9251
 396  -579.4117
 397  -78.56687
 398  59.34131
 399  538.7766
 400  263.3076
 401  -217.3489
 402  -332.8764
 403  -59.92408
 404  -354.2047
 405  -92.50899
 406  784.0657
 407  724.4534
 408  750.2528
 409  593.2635
 410  29.22259
 411  -17.88777
 412  -161.727
 413  -178.8418
 414  -100.9842
 415  -91.58836
 416  -14.86226
 417  -73.63317
 418  -211.2753
 419  23.53542
 420  95.42538
 421  530.337
 422  305.2924
 423  233.0113
 424  447.0331
 425  76.35409
 426  -788.5344
 427  -556.8803
 428  -620.7606
 429  -578.6606
 430  -684.9595
 431  -512.5742
 432  -350.6071
 433  -190.3601
 434  97.62971
 435  -435.7796
 436  -813.7471
 437  -488.3195
 438  -235.5029
 439  195.2202
 440  522.0095
 441  405.4431
 442  -279.5205
 443  -102.6261
 444  -776.0968
 445  -771.8634
 446  -622.6591
 447  -568.4313
 448  -134.4091
 449  210.6705
 450  57.16515
 451  -208.2039
 452  -125.0139
 453  -368.4281
 454  -250.3477
 455  -145.6428
 456  49.61973
 457  8.928248
 458  -158.2868
 459  -640.2983
 460  -1180.448
 461  -1075.509
 462  -1273.435
 463  -903.4354
 464  -347.3477
 465  93.75624
 466  219.741
 467  -269.7667
 468  -606.4837
 469  -432.0162
 470  -1.651001
 471  277.6402
 472  421.6823
 473  761.1464
 474  495.6597
 475  -106.9595
 476  -506.3701
 477  -470.2702
 478  -132.2452
 479  -172.8404
 480  -233.6517
 481  288.8598
 482  577.462
 483  372.3619
 484  -587.8796
 485  -335.327
 486  -458.7143
 487  -733.084
 488  -69.26051
 489  400.8433
 490  852.407
 491  105.0227
 492  108.355
 493  -578.2277
 494  -751.2239
 495  -699.287
 496  -560.1085
 497  -145.9276
 498  -95.62788
 499  360.9706
 500  370.7458
 501  160.6739
 502  55.10546
 503  397.6527
 504  -27.75034
 505  268.0643
 506  715.4168
 507  603.3412
 508  113.4128
 509  -627.117
 510  -765.8063
 511  -609.5634
