# Input file       =  1204382832.118454-PSRB0329-2ms-sampling-dd.dat
# Candidate        =  PSR_0332+5434
# Telescope        =  AR
# Epoch_topo       =  58183.616332389516
# Epoch_bary       =  N/A
# T_sample         =  0.002
# Data Folded      =  7340032
# Data Avg         =  6.03609816663945e-09
# Data StdDev      =  60.3684720377843 
# Profile Bins     =  512
# Profile Avg      =  4.63196062895323 
# Profile StdDev   =  7228.10045850982 
# Reduced chi-sqr  =  0.998
# Prob(Noise)      <  0.502   (~0.0 sigma)
# P_topo (ms)      =  714.579858689008  +/- 0.000172
# P'_topo (s/s)    =  -0                +/- 9.1e-11
# P''_topo (s/s^2) =  0                 +/- 4.02e-14
# P_bary (ms)      =  N/A
# P'_bary (s/s)    =  N/A
# P''_bary (s/s^2) =  N/A
# P_orb (s)        =  N/A
# asin(i)/c (s)    =  N/A
# eccentricity     =  N/A
# w (rad)          =  N/A
# T_peri           =  N/A
######################################################
   0  2864.807
   1  4493.075
   2  3592.533
   3  3280.84
   4  4338.153
   5  6366.151
   6  9697.78
   7  10786.21
   8  11191.18
   9  7522.67
  10  8061.326
  11  4983.553
  12  1834.128
  13  -1103.693
  14  -2736.564
  15  -20.33717
  16  1451.312
  17  3139.187
  18  981.7928
  19  1352.702
  20  73.43096
  21  1297.283
  22  2994.324
  23  2351.646
  24  3083.391
  25  1000.092
  26  3735.739
  27  133.1711
  28  495.2351
  29  1791.145
  30  3674.166
  31  4809.726
  32  5043.059
  33  4369.218
  34  535.0992
  35  1334.766
  36  1842.027
  37  -179.5624
  38  2851.494
  39  4163.013
  40  2985.518
  41  597.5621
  42  -1346.897
  43  -3822.501
  44  -5620.053
  45  -2402.56
  46  16.11157
  47  634.0351
  48  517.3
  49  -2237.602
  50  -7178.466
  51  -7778.228
  52  -4619.84
  53  -2699.573
  54  -2953.784
  55  -3507.969
  56  -5199.128
  57  -5000.171
  58  -2178.109
  59  -684.262
  60  433.1618
  61  -2151.175
  62  -3018.978
  63  -3745.898
  64  -1842.381
  65  -1070.881
  66  -1202.316
  67  -1406.081
  68  -3244.769
  69  -2809.968
  70  -4439.48
  71  -5502.375
  72  -6434.883
  73  -5432.817
  74  -3944.086
  75  -3702.175
  76  -4048.052
  77  -6788.495
  78  -8047.636
  79  -8808.022
  80  -8907.456
  81  -8379.461
  82  -7103.454
  83  -6397.574
  84  -4998.469
  85  -2729.645
  86  -1678.477
  87  629.2217
  88  2125.267
  89  293.0081
  90  -4446.944
  91  -2959.002
  92  401.8856
  93  2215.932
  94  3378.192
  95  1867.159
  96  -1097.156
  97  -7297.593
  98  -8644.318
  99  -9563.256
 100  -8367.445
 101  -6669.201
 102  -6688.71
 103  -7186.312
 104  -8746.812
 105  -9010.079
 106  -8294.054
 107  -7119.125
 108  -6337.224
 109  -5201.255
 110  -3737.408
 111  -3817.153
 112  -3539.727
 113  -4319.241
 114  -2447.087
 115  -1234.879
 116  3025.098
 117  3949.587
 118  719.7769
 119  -1499.062
 120  -3767.751
 121  -1445.436
 122  -1065.933
 123  260.972
 124  -1030.149
 125  -2763.537
 126  -4607.227
 127  -4037.792
 128  -3863.306
 129  -2786.451
 130  -4164.617
 131  -4827.689
 132  -5656.774
 133  -5654.163
 134  -1123.593
 135  1469.656
 136  1449.742
 137  -3068.865
 138  -4989.245
 139  -6929.728
 140  -8500.992
 141  -6891.574
 142  -5789.597
 143  -4067.72
 144  -3851.375
 145  -3132.423
 146  -2807.924
 147  -5154.93
 148  -3821.944
 149  -2954.433
 150  -1642.109
 151  -451.3194
 152  27.15385
 153  -376.566
 154  -2327.653
 155  -2403.622
 156  -4227.622
 157  -2651.662
 158  -176.8492
 159  -426.968
 160  -656.4426
 161  -1261.785
 162  -4055.045
 163  -4418.708
 164  -630.4998
 165  -511.9933
 166  -1461.705
 167  -1152.688
 168  -1354.722
 169  -1751.702
 170  -1854.375
 171  958.7953
 172  193.3513
 173  -498.5299
 174  -306.9716
 175  -4020.636
 176  -5575.463
 177  -6196.877
 178  -4523.755
 179  -832.9829
 180  610.8267
 181  178.6675
 182  285.4059
 183  -2490.209
 184  -2158.81
 185  -1189.954
 186  -1427.325
 187  1595.516
 188  2360.159
 189  2180.538
 190  571.7646
 191  -1314.5
 192  -665.0015
 193  -237.9454
 194  2462.168
 195  1361.238
 196  -937.4302
 197  -3719.486
 198  -5827.402
 199  -5742.578
 200  -5755.4
 201  -5756.119
 202  -5040.592
 203  -4808.491
 204  -4434.934
 205  -3530.326
 206  -2899.856
 207  -4628.006
 208  -6271.733
 209  -9174.633
 210  -9026.758
 211  -9172.603
 212  -6595.031
 213  -4902.606
 214  -4894.783
 215  -3979.125
 216  -6321.796
 217  -8022.933
 218  -8316.824
 219  -5676.918
 220  -5271.953
 221  -4400.607
 222  -2021.103
 223  -1610.485
 224  -2087.887
 225  -630.8383
 226  -2741.513
 227  -3891.292
 228  -2321.424
 229  1612.258
 230  4136.062
 231  6423.958
 232  8416.282
 233  4855.139
 234  3448.633
 235  569.4479
 236  -1734.36
 237  -4622.042
 238  -2546.071
 239  -2581.971
 240  -1894.658
 241  140.0784
 242  366.4009
 243  3925.855
 244  3802.549
 245  3339.876
 246  2236.486
 247  -2888.516
 248  -2186.943
 249  589.6423
 250  11365.84
 251  12760.08
 252  10951.75
 253  6192.112
 254  2591.985
 255  2052.28
 256  2707.394
 257  4608.112
 258  4828.854
 259  2439.771
 260  9158.344
 261  9943.682
 262  10114.51
 263  8224.432
 264  7551.434
 265  8411.416
 266  11790.96
 267  12596.88
 268  12796.35
 269  7962.201
 270  2691.435
 271  -594.2516
 272  -3791.139
 273  -411.2737
 274  -76.9117
 275  1627.621
 276  1405.168
 277  1494.525
 278  -1398.406
 279  -1410.994
 280  -1783.534
 281  -4715.627
 282  -4579.86
 283  -6898.623
 284  -4117.848
 285  -508.7358
 286  2917.364
 287  3239.27
 288  398.6473
 289  -2249.331
 290  -7062.285
 291  -5764.142
 292  -1513.857
 293  -1261.382
 294  -934.4716
 295  -1162.866
 296  -4408.257
 297  -6824.66
 298  -5228.247
 299  -3810.66
 300  -3514.81
 301  -1675.013
 302  -2848.92
 303  -5960.483
 304  -6742.765
 305  -4389.756
 306  -237.2755
 307  1130.293
 308  1064.324
 309  -1379.765
 310  -5157.507
 311  -4782.042
 312  -4255.676
 313  -3104.727
 314  1245.824
 315  2931.964
 316  3817.47
 317  3372.168
 318  2458.771
 319  2974.191
 320  5098.812
 321  6991.919
 322  7452.168
 323  8210.056
 324  7637.177
 325  7297.186
 326  5434.107
 327  4981.833
 328  4370.703
 329  5098.984
 330  6324.559
 331  8714.298
 332  7290.658
 333  4580.681
 334  1024.447
 335  1517.539
 336  1692.776
 337  3006.566
 338  2911.008
 339  1305.812
 340  1895.713
 341  2585.317
 342  2477.384
 343  2997.519
 344  3331.793
 345  2297.615
 346  855.2668
 347  1728.176
 348  3863.588
 349  3717.006
 350  5404.268
 351  6392.677
 352  4657.547
 353  731.926
 354  969.6033
 355  843.4462
 356  40.77126
 357  2848.132
 358  3451.138
 359  1775.262
 360  -806.175
 361  -3187.633
 362  -5365.081
 363  -914.1901
 364  2125.052
 365  4351.119
 366  5171.416
 367  -620.8627
 368  -4431.544
 369  -6622.097
 370  -3443.116
 371  -424.2499
 372  2602.302
 373  3730.445
 374  862.8909
 375  -2031.641
 376  -5470.028
 377  -4536.286
 378  -2143.082
 379  -214.203
 380  284.1913
 381  -1602.832
 382  -3637.413
 383  -4891.51
 384  -3788.896
 385  -2121.523
 386  2959.583
 387  4522.863
 388  5283.242
 389  4620.229
 390  911.7435
 391  3309.24
 392  5575.86
 393  9235.488
 394  11020.8
 395  9054.633
 396  5873.353
 397  384.5227
 398  384.3543
 399  1899.307
 400  7634.584
 401  10913.73
 402  10695.85
 403  9329.837
 404  5653.985
 405  3820.773
 406  4178.447
 407  4082.531
 408  4568.344
 409  4521.134
 410  2899.477
 411  2379.256
 412  1077.457
 413  1078.338
 414  1717.395
 415  1173.181
 416  828.1862
 417  -2119.279
 418  -3682.708
 419  -4635.976
 420  -2567.88
 421  15.99838
 422  1062.387
 423  1100.219
 424  -2625.128
 425  -3605.995
 426  -4745.517
 427  -1405.258
 428  922.3369
 429  2648.702
 430  3388.45
 431  2277.653
 432  1125.519
 433  -1552.415
 434  -1236.166
 435  2914.228
 436  4965.396
 437  4392.621
 438  2684.275
 439  259.2357
 440  -3906.098
 441  -3032.009
 442  -2409.535
 443  464.6262
 444  1451.175
 445  2148.697
 446  6767.183
 447  3881.906
 448  6842.387
 449  14211.1
 450  12253.75
 451  11144.51
 452  12457.97
 453  20285.86
 454  24367.19
 455  27396.47
 456  31494.62
 457  24658.15
 458  16364.43
 459  10954
 460  6050.782
 461  912.7079
 462  -2912.547
 463  -1414.911
 464  1680.82
 465  3875.771
 466  4503.995
 467  881.7616
 468  -1831.698
 469  -5385.034
 470  -4579.813
 471  -4558.243
 472  -3993.93
 473  -2785.519
 474  -2826.473
 475  -3890.247
 476  -6797.632
 477  -4680.919
 478  -3597.189
 479  -1123.698
 480  -299.8897
 481  -1218.14
 482  -3499.788
 483  -4469.703
 484  -5110.047
 485  -5085.694
 486  -3226.911
 487  -3143.685
 488  -2495.158
 489  -3228.844
 490  -4184.287
 491  -7229.109
 492  -3466.241
 493  -831.8635
 494  -720.0117
 495  -1208.752
 496  -1703.897
 497  -2817.424
 498  -3362.604
 499  -1058.291
 500  -45.26485
 501  -1712.867
 502  -1664.818
 503  -3190.246
 504  -1367.709
 505  -1504.2
 506  -449.2201
 507  -702.8033
 508  -2650.904
 509  -1568.27
 510  -891.8251
 511  1096.106
