# Input file       =  1204822943.102232_cleaned.dat
# Candidate        =  PSR_0332+5434
# Telescope        =  AR
# Epoch_topo       =  58188.710209516576
# Epoch_bary       =  N/A
# T_sample         =  0.002
# Data Folded      =  7340032
# Data Avg         =  0.162570005499999
# Data StdDev      =  4.73444853637361 
# Profile Bins     =  512
# Profile Avg      =  2330.67217253435 
# Profile StdDev   =  566.869898829549 
# Reduced chi-sqr  =  1.151
# Prob(Noise)      <  0.0102   (~2.3 sigma)
# P_topo (ms)      =  714.578936682896  +/- 0.000622
# P'_topo (s/s)    =  -0                +/- 3.28e-10
# P''_topo (s/s^2) =  0                 +/- 1.45e-13
# P_bary (ms)      =  N/A
# P'_bary (s/s)    =  N/A
# P''_bary (s/s^2) =  N/A
# P_orb (s)        =  N/A
# asin(i)/c (s)    =  N/A
# eccentricity     =  N/A
# w (rad)          =  N/A
# T_peri           =  N/A
######################################################
   0  2976.477
   1  2571.193
   2  2244.1
   3  1824.035
   4  2341.605
   5  2287.362
   6  2407.275
   7  2407.511
   8  2537.312
   9  2227.274
  10  1801.077
  11  1886.786
  12  2200.563
  13  2575.218
  14  2715.183
  15  2303.542
  16  1854.258
  17  1506.592
  18  1858.05
  19  2295.013
  20  2436.281
  21  2332.658
  22  2709.257
  23  2898.727
  24  2669.627
  25  2502.796
  26  2855.227
  27  2673.91
  28  2296.804
  29  2042.191
  30  2039.911
  31  1851.957
  32  1955.737
  33  1734.558
  34  1489.022
  35  2006.847
  36  2223.041
  37  1982.074
  38  1310.538
  39  1775.258
  40  1876.078
  41  1954.697
  42  2209.398
  43  1919.626
  44  1796.195
  45  2094.504
  46  1615.096
  47  1483.908
  48  1762.628
  49  2014.342
  50  1893.962
  51  1524.995
  52  1505.996
  53  1735.515
  54  1734.362
  55  1696.633
  56  2104.378
  57  2183.188
  58  2153.971
  59  2172.393
  60  1745.072
  61  1679.262
  62  1742.671
  63  1701.677
  64  2029.808
  65  2114.051
  66  1905.417
  67  1684.377
  68  2078.179
  69  2376.755
  70  2522.665
  71  2323.182
  72  2283.089
  73  2109.267
  74  1964.564
  75  1873.489
  76  2198.847
  77  2579.712
  78  2380.478
  79  2042.379
  80  2225.393
  81  2461.565
  82  2196.942
  83  1719.741
  84  1946.285
  85  2098.141
  86  1972.262
  87  2353.55
  88  2989.854
  89  2489.348
  90  1850.752
  91  1972.502
  92  1911.251
  93  2009.101
  94  2406.717
  95  2559.629
  96  1942.835
  97  2162.704
  98  1966.996
  99  2075.889
 100  1931.508
 101  1955.229
 102  1851.281
 103  2164.085
 104  1999.078
 105  1897.273
 106  1896.189
 107  2294.978
 108  2391.801
 109  2119.888
 110  2242.394
 111  2164.258
 112  2100.945
 113  2097.692
 114  2196.396
 115  2439.912
 116  1991.358
 117  1947.83
 118  2409.777
 119  2320.674
 120  2320.011
 121  2675.459
 122  2655.676
 123  2307.607
 124  1851.663
 125  1982.777
 126  2010.253
 127  2209.572
 128  2051.397
 129  1740.23
 130  1501.182
 131  1859.844
 132  2269.224
 133  2259.068
 134  2444.133
 135  2348.217
 136  2614.077
 137  2764.5
 138  2726.54
 139  2929.222
 140  2774.891
 141  2767.438
 142  2845.228
 143  3089.671
 144  3129.334
 145  2878.994
 146  2506.861
 147  2388.538
 148  2248.177
 149  1904.988
 150  1763.7
 151  2231.789
 152  2012.644
 153  2159.931
 154  1637.182
 155  1748.904
 156  2215.998
 157  2096.979
 158  2096.297
 159  2158.167
 160  1931.829
 161  1939.117
 162  1921.214
 163  2054.109
 164  2185.474
 165  2468.83
 166  2268.692
 167  2468.89
 168  2600.35
 169  2524.319
 170  2786.282
 171  2424.546
 172  2399.31
 173  2255.177
 174  1864.583
 175  2472.661
 176  2601.98
 177  2588.287
 178  2250.292
 179  2498.56
 180  2903.236
 181  2727.711
 182  2279.683
 183  2357.378
 184  2643.677
 185  2520.941
 186  2761.393
 187  2705.511
 188  3019.233
 189  3181.603
 190  3034.238
 191  3055.77
 192  2826.776
 193  2808.151
 194  3280.454
 195  3520.749
 196  3388.666
 197  3000.011
 198  2659.513
 199  2526.358
 200  2613.783
 201  2430.296
 202  1923.775
 203  2395.3
 204  2290.183
 205  2235.169
 206  2477.318
 207  2720.946
 208  2597.497
 209  2640.306
 210  2442.495
 211  2438.558
 212  2426.889
 213  2949.07
 214  2736.526
 215  2716.71
 216  2915.924
 217  2771.78
 218  2357.143
 219  2460.519
 220  2823.817
 221  2877.196
 222  2906.046
 223  2799.699
 224  2928.217
 225  2999.854
 226  2580.172
 227  2680.427
 228  2479.339
 229  2297.947
 230  2247.936
 231  2544.194
 232  2604.961
 233  2321.045
 234  2549.387
 235  2599.199
 236  2495.749
 237  2794.491
 238  2234.994
 239  2740.154
 240  2490.93
 241  2484.839
 242  2398.36
 243  2567.594
 244  2605.051
 245  2245.461
 246  2238.075
 247  2747.45
 248  2464.454
 249  2465.16
 250  2261.021
 251  2334.44
 252  2369.999
 253  2357.155
 254  2767.596
 255  3119.782
 256  2632.318
 257  2491.344
 258  2250.204
 259  2466.902
 260  2865.891
 261  2958.742
 262  2959.746
 263  2533.602
 264  2391.53
 265  2697.17
 266  2935.277
 267  2978.072
 268  2862.351
 269  2331.597
 270  2085.069
 271  2125.371
 272  1725.455
 273  2346.275
 274  2956.373
 275  2812.637
 276  2481.52
 277  2000.959
 278  2434.082
 279  2347.698
 280  2242.35
 281  2396.294
 282  2477.807
 283  2328.525
 284  2827.223
 285  2802.72
 286  2731.023
 287  2813.624
 288  2539.968
 289  2674.375
 290  2935.458
 291  2886.444
 292  2635.705
 293  2677.474
 294  2799.676
 295  2384.655
 296  2670.988
 297  2642.198
 298  2546.766
 299  2883.999
 300  3485.052
 301  3517.943
 302  3774.115
 303  4217.839
 304  4513.796
 305  4058.356
 306  4114.891
 307  3336.949
 308  2810.615
 309  2704.401
 310  3009.985
 311  2869.074
 312  2607.021
 313  2770.195
 314  2839.68
 315  2559.932
 316  2386.977
 317  2710.09
 318  2860.528
 319  2854.007
 320  2718.153
 321  2766.217
 322  2542.773
 323  2599.402
 324  2392.762
 325  2382.671
 326  2003.589
 327  1812.348
 328  2176.626
 329  2381.405
 330  2092.201
 331  2090.416
 332  2060.086
 333  2736.576
 334  2617.273
 335  2198.351
 336  2218.314
 337  2130.788
 338  2200.646
 339  2285.576
 340  2864.561
 341  2885.517
 342  2620.439
 343  2978.43
 344  2847.313
 345  2490.585
 346  2240.569
 347  2810.587
 348  2985.686
 349  3127.116
 350  2745.419
 351  2758.333
 352  2659.926
 353  2723.697
 354  2859.417
 355  2743.125
 356  2861.373
 357  2823.433
 358  2691.615
 359  3066.386
 360  2960.228
 361  2550.821
 362  2263.363
 363  2607.432
 364  2584.572
 365  2608.574
 366  2769.646
 367  2514.909
 368  2676.825
 369  2688.987
 370  2372.612
 371  1888.273
 372  1821.876
 373  2312.198
 374  2016.718
 375  2114.036
 376  1874.083
 377  2049.569
 378  1969.387
 379  2000.266
 380  2090.406
 381  2011.784
 382  1795.763
 383  2019.552
 384  2347.859
 385  2603.51
 386  2170.223
 387  2185.39
 388  2184.892
 389  2162.01
 390  2534.461
 391  2778.462
 392  2873.399
 393  2592.821
 394  2158.888
 395  2211.644
 396  2180.471
 397  2230.574
 398  2023.563
 399  2171.578
 400  2485.625
 401  2371.983
 402  2480.621
 403  2346.346
 404  2314.479
 405  2172.233
 406  2244.427
 407  2224.587
 408  1995.692
 409  1993.91
 410  1925.713
 411  2169.613
 412  1976.195
 413  1940.266
 414  2175.736
 415  1818.824
 416  1450.844
 417  1628.712
 418  1770.659
 419  2110.251
 420  2191.006
 421  2134.15
 422  2010.86
 423  1942.834
 424  2017.977
 425  2101.554
 426  2473.243
 427  2116.4
 428  2139.762
 429  2188.534
 430  2342.467
 431  2223.604
 432  2313.853
 433  2674.549
 434  2226.811
 435  2218.359
 436  2337.112
 437  2448.447
 438  2144.475
 439  2061.124
 440  2220.97
 441  1939.789
 442  2043.708
 443  1946.135
 444  1951.035
 445  1857.694
 446  2253.707
 447  1819.988
 448  1601.255
 449  1954.577
 450  1933.649
 451  1569.539
 452  1590.702
 453  2061.701
 454  2052.64
 455  1765.092
 456  1793.983
 457  1827.924
 458  1287.581
 459  1714.348
 460  1563.505
 461  1401.065
 462  1418.592
 463  1539.52
 464  1494.04
 465  1206.95
 466  1306.199
 467  1405.388
 468  1878.384
 469  1573.159
 470  1802.887
 471  1759.517
 472  1743.811
 473  1769.131
 474  1854.371
 475  2296.064
 476  1672.246
 477  1729.176
 478  2309.84
 479  1940.57
 480  1871.252
 481  2061.834
 482  2074.091
 483  2214.116
 484  2032.717
 485  1991.114
 486  1950.384
 487  2223.482
 488  2186.317
 489  2438.794
 490  2437.619
 491  2496
 492  2102.441
 493  2158.008
 494  2244.488
 495  2183.245
 496  2362.481
 497  2577.236
 498  2511.985
 499  2303.571
 500  2309.89
 501  2234.356
 502  2242.875
 503  2288.053
 504  2622.016
 505  2772.869
 506  2210.794
 507  2199.884
 508  2259.468
 509  2162.919
 510  2431.093
 511  2722.314
