# Input file       =  1204133086.10236_cleaned.dat
# Candidate        =  PSR_0332+5434
# Telescope        =  AR
# Epoch_topo       =  58180.725753499537
# Epoch_bary       =  N/A
# T_sample         =  0.002
# Data Folded      =  7340032
# Data Avg         =  0.164409558026819
# Data StdDev      =  5.77024451311245 
# Profile Bins     =  512
# Profile Avg      =  2356.98925446495 
# Profile StdDev   =  690.888896191329 
# Reduced chi-sqr  =  0.683
# Prob(Noise)      <  1   (~0.0 sigma)
# P_topo (ms)      =  714.580535213464  +/- 0.000674
# P'_topo (s/s)    =  -0                +/- 3.56e-10
# P''_topo (s/s^2) =  0                 +/- 1.57e-13
# P_bary (ms)      =  N/A
# P'_bary (s/s)    =  N/A
# P''_bary (s/s^2) =  N/A
# P_orb (s)        =  N/A
# asin(i)/c (s)    =  N/A
# eccentricity     =  N/A
# w (rad)          =  N/A
# T_peri           =  N/A
######################################################
   0  2537.169
   1  2785.533
   2  2731.948
   3  2333.645
   4  2427.899
   5  2077.422
   6  2347.847
   7  2443.759
   8  2732.305
   9  2791.397
  10  2675.482
  11  2272.67
  12  2182.087
  13  2540.628
  14  2428.396
  15  2548.915
  16  2547.472
  17  2465.219
  18  2633.83
  19  2144.038
  20  2239.882
  21  2597.459
  22  2442.391
  23  2502.735
  24  2433.626
  25  2387.466
  26  2188.942
  27  2030.898
  28  2317.493
  29  2300.7
  30  2190.99
  31  2110.305
  32  2262.05
  33  2319.108
  34  2623.787
  35  2546.522
  36  2136.824
  37  1942.679
  38  2124.056
  39  1985.261
  40  2307.689
  41  2573.874
  42  2186.952
  43  2312.693
  44  1895.127
  45  2019.253
  46  2121.13
  47  1952.873
  48  1871.28
  49  1750.686
  50  1882.486
  51  2351.025
  52  2329.925
  53  1878.931
  54  2068.554
  55  2376.107
  56  2336.95
  57  2246.678
  58  2056.083
  59  1713.467
  60  1652.662
  61  2003.534
  62  1995.692
  63  1538.459
  64  1842.821
  65  2284.091
  66  1824.77
  67  1463.139
  68  1209.992
  69  1423.938
  70  1928.552
  71  2002.483
  72  1723.89
  73  1278.334
  74  1372.953
  75  1745.164
  76  1520.418
  77  1542.588
  78  1564.499
  79  1537.738
  80  1430.246
  81  1207.315
  82  1485.162
  83  1700.804
  84  1623.539
  85  1770.994
  86  1698.869
  87  1415.967
  88  1820.565
  89  1876.538
  90  1702.516
  91  1931.542
  92  1683.411
  93  2002.532
  94  1982.113
  95  1710.958
  96  1453.517
  97  1352.421
  98  1480.595
  99  1690.267
 100  1834.397
 101  1805.909
 102  1616.06
 103  2036.667
 104  2150.312
 105  2290.397
 106  2516.551
 107  2233.707
 108  2117.237
 109  2655.194
 110  2746.886
 111  2353.928
 112  2474.241
 113  2853.298
 114  2492.217
 115  2751.026
 116  2962.299
 117  2665.72
 118  2250.368
 119  2274.339
 120  2334.116
 121  2394.242
 122  3241.507
 123  3076.921
 124  2868.003
 125  2676.51
 126  2301.012
 127  2565.259
 128  2495.853
 129  2478.788
 130  2580.985
 131  2684.428
 132  2463.785
 133  2088.665
 134  2327.885
 135  2491.101
 136  2304.809
 137  2848.51
 138  3083.142
 139  2935.852
 140  2417.016
 141  2406.164
 142  2249.971
 143  2234.753
 144  2659.569
 145  2642.57
 146  2773.986
 147  2623.022
 148  2452.173
 149  2509.892
 150  2615.703
 151  2906.147
 152  3270.033
 153  3073.865
 154  3047.36
 155  2461.077
 156  2305.215
 157  2602.485
 158  2687.606
 159  2598.856
 160  2246.444
 161  2254.929
 162  1912.276
 163  1864.862
 164  2280.391
 165  2410.083
 166  2512.345
 167  2422.552
 168  2300.926
 169  2167.198
 170  2038.576
 171  1494.965
 172  2138.847
 173  2322.449
 174  2289.519
 175  2461.983
 176  2430.638
 177  2175.658
 178  2322.194
 179  2111.167
 180  2181.243
 181  2085.247
 182  1986.369
 183  1960.198
 184  2218.562
 185  2443.622
 186  2261.47
 187  2038.691
 188  1952.555
 189  2051.84
 190  1930.179
 191  2006.38
 192  2190.361
 193  2404.071
 194  2736.177
 195  2799.821
 196  2605.212
 197  2302.853
 198  2299.036
 199  2121.742
 200  2294.875
 201  2285.319
 202  2247.933
 203  2270.068
 204  2630.737
 205  2448.895
 206  1878.622
 207  1674.89
 208  1499.685
 209  1950.596
 210  2095.303
 211  2399.116
 212  1874.407
 213  1676.285
 214  1862.296
 215  1520.279
 216  1750.725
 217  2175.55
 218  2190.367
 219  2140.264
 220  2076.037
 221  2222.42
 222  2252.337
 223  1914.854
 224  2194.27
 225  2343.834
 226  2413.168
 227  1965.117
 228  1521.565
 229  2227.739
 230  1832.041
 231  1784.705
 232  2153.158
 233  2148.1
 234  2001.915
 235  1838.845
 236  1793.815
 237  1904.116
 238  1891.683
 239  2356.99
 240  2384.333
 241  2215.951
 242  2063.663
 243  2179.055
 244  2264.43
 245  2367.134
 246  2553.791
 247  2718.733
 248  2025.436
 249  2375.767
 250  2049.655
 251  2181.121
 252  2174.291
 253  2381.051
 254  2636.262
 255  2532.629
 256  2504.479
 257  2437.291
 258  2425.723
 259  2587.823
 260  2658.85
 261  2619.804
 262  2490.738
 263  2606.814
 264  2501.958
 265  2540.446
 266  2493.018
 267  2960.339
 268  3100.616
 269  3157.097
 270  2697.663
 271  2233.828
 272  2433.58
 273  2636.58
 274  2499.85
 275  2412.125
 276  2343.188
 277  2470.477
 278  2487.531
 279  2242.319
 280  2106.21
 281  1828.11
 282  1997.926
 283  2384.143
 284  2210.397
 285  2500.725
 286  2472.48
 287  2556.268
 288  2581.024
 289  2323.037
 290  2617.104
 291  2936.393
 292  2658.394
 293  2754.418
 294  2768.292
 295  2690.106
 296  2199.565
 297  2120.974
 298  2626.831
 299  3046.268
 300  2728.722
 301  2450.565
 302  2367.134
 303  1817.542
 304  1797.832
 305  2113.627
 306  1944.337
 307  2076.975
 308  2292.389
 309  2465.29
 310  2460.969
 311  2196.452
 312  2416.029
 313  2446.944
 314  2504.466
 315  3124.791
 316  3697.002
 317  4189.169
 318  4541.365
 319  4140.625
 320  3599.973
 321  3039.479
 322  2794.704
 323  2587.466
 324  2489.042
 325  2609.369
 326  2449.115
 327  2332.915
 328  2260.965
 329  2729.902
 330  2154.403
 331  1773.839
 332  1897.973
 333  2069.291
 334  2528.913
 335  2438.287
 336  2584.905
 337  2721.997
 338  2616.303
 339  2323.34
 340  2226.78
 341  2308.582
 342  2622.274
 343  2461.33
 344  2179.231
 345  1754.667
 346  1833.794
 347  2133.615
 348  2086.623
 349  1996.04
 350  1797.056
 351  1994.87
 352  2230.641
 353  2278.974
 354  2456.422
 355  2357.648
 356  2944.094
 357  3049
 358  3222.991
 359  3002.399
 360  2643.895
 361  2908.542
 362  2852.725
 363  2804.461
 364  3153.38
 365  3069.735
 366  3320.514
 367  3072.11
 368  3015.894
 369  2886.587
 370  2540.082
 371  2788.066
 372  3049.493
 373  2766.901
 374  2665.11
 375  2520.036
 376  2650.86
 377  2463.754
 378  2398.476
 379  2087.703
 380  1949.755
 381  2405.67
 382  2702.566
 383  2502.938
 384  2257.388
 385  2072.711
 386  2281.879
 387  2444.757
 388  2429.783
 389  2017.87
 390  2112.338
 391  2202.589
 392  2292.36
 393  2213.329
 394  2065.013
 395  2105.324
 396  2012.347
 397  2133.983
 398  1955.706
 399  2577.725
 400  2654.182
 401  2516.112
 402  2351.169
 403  2301.588
 404  2247.491
 405  2449.185
 406  2405.351
 407  2325.24
 408  2318.117
 409  2601.385
 410  2734.891
 411  2739.375
 412  2797.198
 413  2769.286
 414  2571.75
 415  2120.56
 416  2568.532
 417  2342.972
 418  2793.843
 419  2769.409
 420  2675.024
 421  3126.485
 422  2827.569
 423  2383.045
 424  2572.153
 425  2658.753
 426  2738.732
 427  2421.342
 428  2323.358
 429  2069.807
 430  2263.699
 431  2409.579
 432  2634.73
 433  2569.823
 434  2412.291
 435  2632.901
 436  2544.072
 437  2360.298
 438  2383.57
 439  2439.435
 440  2869.645
 441  3204.67
 442  2676.803
 443  2479.569
 444  2479.598
 445  2351.503
 446  2416.367
 447  2787.719
 448  3060.108
 449  2797.42
 450  2655.592
 451  2510.291
 452  2562.08
 453  2675.076
 454  2448.495
 455  2561.035
 456  2571.006
 457  2027.457
 458  2244.461
 459  1986.008
 460  2303.594
 461  2415.894
 462  2740.608
 463  3229.086
 464  2963.139
 465  2629.809
 466  2419.665
 467  2633.455
 468  2698.257
 469  2819.662
 470  2410.755
 471  2419.015
 472  2626.137
 473  2753.311
 474  2581.056
 475  2306.027
 476  2428.189
 477  2525.717
 478  2330.512
 479  2290.25
 480  2457.044
 481  2398.52
 482  2212.311
 483  2022.722
 484  2512.557
 485  2763.255
 486  2499.683
 487  2549.622
 488  2139.453
 489  2128.914
 490  2162.094
 491  2067.134
 492  1984.537
 493  2124.268
 494  2323.311
 495  2439.111
 496  2459.324
 497  2448.447
 498  2230.103
 499  2068.138
 500  2540.706
 501  2321.7
 502  2537.92
 503  2407.449
 504  2276.811
 505  2730.314
 506  3169.061
 507  3125.176
 508  2976.842
 509  2677.898
 510  2371.385
 511  2475.125
