# Input file       =  1204103553.100353-PSRB0329-2ms-sampling-dd.dat
# Candidate        =  PSR_0332+5434
# Telescope        =  AR
# Epoch_topo       =  58180.383936346676
# Epoch_bary       =  N/A
# T_sample         =  0.002
# Data Folded      =  7208960
# Data Avg         =  -1.03186264259469e-10
# Data StdDev      =  7.88114987765041 
# Profile Bins     =  512
# Profile Avg      =  -0.00159730435624844
# Profile StdDev   =  935.170748787282 
# Reduced chi-sqr  =  2.856
# Prob(Noise)      <  4.36e-92   (~20.3 sigma)
# P_topo (ms)      =  714.580233072163  +/- 1.6e-05
# P'_topo (s/s)    =  -0                +/- 8.62e-12
# P''_topo (s/s^2) =  0                 +/- 3.88e-15
# P_bary (ms)      =  N/A
# P'_bary (s/s)    =  N/A
# P''_bary (s/s^2) =  N/A
# P_orb (s)        =  N/A
# asin(i)/c (s)    =  N/A
# eccentricity     =  N/A
# w (rad)          =  N/A
# T_peri           =  N/A
######################################################
   0  -480.3609
   1  -181.2162
   2  623.923
   3  2034.367
   4  2104.96
   5  958.5302
   6  -98.4628
   7  -246.8763
   8  93.2823
   9  675.6534
  10  1390.334
  11  2321.638
  12  2413.083
  13  1574.461
  14  7.426998
  15  -577.7366
  16  -28.84057
  17  227.9044
  18  512.5719
  19  777.9278
  20  1363.161
  21  1351.191
  22  356.5251
  23  -513.3691
  24  139.2797
  25  586.3734
  26  1352.383
  27  2513.479
  28  3331.83
  29  3212.531
  30  1575.745
  31  560.519
  32  9.976991
  33  272.6012
  34  341.5203
  35  366.9229
  36  1267.704
  37  2090.496
  38  1154.998
  39  91.8884
  40  427.5069
  41  827.0954
  42  1176.266
  43  1763.335
  44  2699.886
  45  3176.247
  46  2439.071
  47  1032.488
  48  108.9057
  49  -84.78031
  50  612.032
  51  1044.838
  52  2000.856
  53  2115.095
  54  1107.176
  55  -80.43674
  56  -314.066
  57  220.641
  58  845.5963
  59  1361.852
  60  1908.867
  61  3163.239
  62  2891.876
  63  1057.259
  64  69.19507
  65  -73.4824
  66  -137.69
  67  99.91031
  68  294.8253
  69  1552.078
  70  2265.359
  71  1551.971
  72  235.2642
  73  -133.3768
  74  15.60815
  75  277.8006
  76  1039.026
  77  2178.786
  78  2922.581
  79  2083.913
  80  631.2654
  81  -455.0367
  82  -1128.76
  83  -543.2054
  84  -384.9816
  85  479.7243
  86  1275.938
  87  1008.107
  88  -56.33398
  89  -491.7002
  90  -229.8572
  91  8.857654
  92  837.791
  93  1789.349
  94  2660.227
  95  2481.661
  96  1105.041
  97  -136.8813
  98  -1057.109
  99  -450.7209
 100  -203.1811
 101  149.6751
 102  1246.238
 103  1409.533
 104  29.767
 105  -753.7335
 106  -693.0329
 107  -206.7836
 108  383.7231
 109  901.5736
 110  1822.082
 111  2294.354
 112  1288.598
 113  151.4835
 114  -763.1876
 115  -666.9799
 116  -459.7088
 117  -546.472
 118  309.0746
 119  1141.76
 120  857.108
 121  -204.0383
 122  -720.6207
 123  -207.4026
 124  250.4754
 125  633.0097
 126  1470.925
 127  2306.758
 128  2043.667
 129  702.1401
 130  -683.706
 131  -982.0059
 132  -529.9703
 133  60.96956
 134  634.9896
 135  1280.048
 136  1421.598
 137  768.5773
 138  -571.3752
 139  -1039.21
 140  -759.1061
 141  33.6599
 142  938.9057
 143  2161.139
 144  2385.75
 145  1864.691
 146  -18.38997
 147  -1257.445
 148  -1599.019
 149  -1561.656
 150  -1140.493
 151  1.806404
 152  1264.709
 153  991.6685
 154  -279.8329
 155  -1159.443
 156  -1135.553
 157  -1009.016
 158  192.6142
 159  1149.345
 160  2017.57
 161  1743.003
 162  714.8341
 163  -809.7407
 164  -971.6903
 165  -880.1721
 166  -557.6199
 167  228.1457
 168  1103.572
 169  1499.197
 170  440.7595
 171  -765.5037
 172  -893.7336
 173  -797.5124
 174  -436.5912
 175  431.8222
 176  1805.726
 177  2169.775
 178  1325.908
 179  -411.608
 180  -1180.426
 181  -1533.704
 182  -1490.588
 183  -1151.11
 184  -200.4702
 185  628.4868
 186  570.173
 187  -481.2499
 188  -1629.807
 189  -1297.525
 190  -424.2701
 191  -262.8496
 192  437.8538
 193  1652.542
 194  2047.859
 195  792.8016
 196  240.1422
 197  -57.42889
 198  -312.6879
 199  -746.4757
 200  -723.5212
 201  28.63709
 202  1009.254
 203  -90.83111
 204  -213.8166
 205  -492.8015
 206  -315.4409
 207  -135.3894
 208  151.3623
 209  745.9305
 210  1329.852
 211  1272.34
 212  266.8574
 213  -844.366
 214  -1493.514
 215  -1578.836
 216  -1101.714
 217  -461.8941
 218  583.788
 219  669.9815
 220  -584.2901
 221  -1594.11
 222  -1618.915
 223  -1161.098
 224  -204.0133
 225  539.6746
 226  1552.925
 227  1281.01
 228  102.5724
 229  -940.096
 230  -1428.858
 231  -1343.643
 232  -1409.214
 233  -689.3084
 234  549.8252
 235  953.94
 236  -390.6547
 237  -1482.354
 238  -1591.668
 239  -1182.131
 240  -760.8151
 241  -27.56973
 242  1554.618
 243  2373.183
 244  1507.994
 245  -172.3436
 246  -1481.204
 247  -2042.543
 248  -1668.156
 249  -1537.169
 250  -721.0898
 251  218.034
 252  495.1297
 253  -433.2986
 254  -1937.848
 255  -1791.025
 256  -1735.306
 257  -1243.569
 258  -32.79774
 259  1693.374
 260  1841.698
 261  405.153
 262  -615.7739
 263  -1103.015
 264  -1143.477
 265  -1204.999
 266  -955.6711
 267  -40.08576
 268  625.3881
 269  87.26105
 270  -853.7739
 271  -902.9655
 272  -528.311
 273  -537.645
 274  -105.9974
 275  725.1729
 276  1748.945
 277  1368.262
 278  52.81744
 279  -1234.154
 280  -1492.705
 281  -1213.029
 282  -1550.197
 283  -1363.559
 284  -9.360812
 285  419.33
 286  -290.8421
 287  -841.6069
 288  -1145.735
 289  -1202.991
 290  -1041.752
 291  -63.52753
 292  1059.594
 293  1678.973
 294  957.4029
 295  -325.8527
 296  -1001.472
 297  -1100.328
 298  -1303.647
 299  -928.1951
 300  -45.64062
 301  356.0611
 302  239.4559
 303  -531.8077
 304  -1196.072
 305  -945.199
 306  -402.3471
 307  190.9696
 308  1354.156
 309  1493.357
 310  1072.096
 311  -18.9078
 312  -944.7926
 313  -1273.372
 314  -1008.343
 315  -810.989
 316  -296.8363
 317  349.354
 318  87.9683
 319  -907.403
 320  -1797.454
 321  -1744.534
 322  -1538.909
 323  -1026.747
 324  135.0568
 325  1313.118
 326  1196.003
 327  -74.67041
 328  -991.8402
 329  -1520.158
 330  -1772.318
 331  -1658.388
 332  -1090.18
 333  -232.5019
 334  596.2761
 335  -96.18431
 336  -1170.881
 337  -1950.465
 338  -1455.856
 339  -617.297
 340  -304.4611
 341  882.2654
 342  1351.68
 343  935.0474
 344  -395.4105
 345  -1218.259
 346  -1260.476
 347  -1355.255
 348  -1547.877
 349  -530.6669
 350  209.9725
 351  38.35519
 352  -1024.244
 353  -1485.505
 354  -1287.04
 355  -1124.003
 356  -992.3511
 357  -518.6837
 358  797.6709
 359  1186.217
 360  297.0713
 361  -817.4677
 362  -1922.173
 363  -1903.946
 364  -2058.237
 365  -1968.569
 366  -1210.403
 367  -152.8223
 368  -287.1705
 369  -927.6876
 370  -1803.365
 371  -1677.414
 372  -1309.913
 373  -733.525
 374  -26.15125
 375  922.4599
 376  595.1757
 377  -721.9962
 378  -1710.449
 379  -2028.818
 380  -1970.931
 381  -1811.661
 382  -1018.935
 383  -331.3864
 384  109.8209
 385  -836.8314
 386  -2015.98
 387  -2273.035
 388  -1632.583
 389  -773.0807
 390  -176.4961
 391  596.954
 392  603.0248
 393  107.0141
 394  -1287.535
 395  -1850.054
 396  -1709.091
 397  -1010.914
 398  -229.9732
 399  717.2863
 400  1377.098
 401  641.3321
 402  -1024.951
 403  -1490.779
 404  -1629.954
 405  -1222.363
 406  -281.1912
 407  905.33
 408  1176.067
 409  763.483
 410  -406.9081
 411  -1737.565
 412  -1743.576
 413  -1341.315
 414  -1236.533
 415  -848.5678
 416  -234.83
 417  -204.9469
 418  -1096.828
 419  -1756.222
 420  -1706.482
 421  -859.5992
 422  -495.9311
 423  592.5035
 424  1584.317
 425  1497.639
 426  279.5768
 427  -1179.424
 428  -1711.624
 429  -1628.81
 430  -1607.59
 431  -912.5703
 432  102.9884
 433  1068.293
 434  586.2557
 435  -716.8306
 436  -886.4907
 437  -1000.662
 438  -716.4572
 439  -446.2515
 440  598.7799
 441  1403.672
 442  1567.122
 443  492.1313
 444  -587.9813
 445  -813.3592
 446  -703.2507
 447  -565.1425
 448  -129.0375
 449  290.343
 450  495.9885
 451  -316.1623
 452  -594.7277
 453  -654.6057
 454  -1150.864
 455  -616.5137
 456  409.9422
 457  1618.583
 458  1772.303
 459  688.061
 460  -764.5381
 461  -1309.259
 462  -1408.69
 463  -1266.344
 464  -725.3535
 465  263.7524
 466  1266.749
 467  1039.616
 468  97.18973
 469  -723.1967
 470  -949.4286
 471  -166.8493
 472  275.1759
 473  1016.136
 474  2013.073
 475  1314.735
 476  450.4835
 477  -167.7971
 478  -486.5049
 479  -361.6262
 480  -301.3822
 481  182.284
 482  640.4457
 483  626.3953
 484  -197.0862
 485  -1016.239
 486  -798.5943
 487  -279.0501
 488  132.7199
 489  462.0034
 490  1358.818
 491  1166.054
 492  225.6348
 493  -652.6663
 494  -944.3123
 495  -905.293
 496  -858.2967
 497  -256.8054
 498  395.7128
 499  1396.403
 500  900.9136
 501  -343.4471
 502  -871.5112
 503  -717.0904
 504  -285.0234
 505  234.2962
 506  1437.782
 507  2467.865
 508  2248.458
 509  1155.892
 510  -96.50781
 511  -607.5608
