# Input file       =  1204305439.103577_cleaned.dat
# Candidate        =  PSR_0332+5434
# Telescope        =  AR
# Epoch_topo       =  58182.720579902511
# Epoch_bary       =  N/A
# T_sample         =  0.002
# Data Folded      =  7340032
# Data Avg         =  0.170976196862675
# Data StdDev      =  5.46736135321993 
# Profile Bins     =  256
# Profile Avg      =  4902.27676160236 
# Profile StdDev   =  925.777821974112 
# Reduced chi-sqr  =  0.880
# Prob(Noise)      <  0.917   (~0.0 sigma)
# P_topo (ms)      =  714.580235873065  +/- 0.000496
# P'_topo (s/s)    =  -0                +/- 2.62e-10
# P''_topo (s/s^2) =  0                 +/- 1.16e-13
# P_bary (ms)      =  N/A
# P'_bary (s/s)    =  N/A
# P''_bary (s/s^2) =  N/A
# P_orb (s)        =  N/A
# asin(i)/c (s)    =  N/A
# eccentricity     =  N/A
# w (rad)          =  N/A
# T_peri           =  N/A
######################################################
   0  5488.858
   1  5137.167
   2  5164.75
   3  5195.763
   4  5695.478
   5  6597.647
   6  5056.375
   7  4889.811
   8  4276.852
   9  4151.451
  10  4246.67
  11  4053.619
  12  3762.103
  13  3853.972
  14  4537.715
  15  3638.668
  16  5004.044
  17  4362.501
  18  4345.102
  19  4826.989
  20  5160.845
  21  5113.045
  22  4160.101
  23  4188.873
  24  4132.333
  25  5083.216
  26  4094.957
  27  4047.1
  28  4907.026
  29  4691.473
  30  4629.548
  31  4664.217
  32  4912.413
  33  4991.415
  34  4918.747
  35  5531.864
  36  6326.526
  37  5625.208
  38  5423.23
  39  5162.579
  40  4832.136
  41  4826.125
  42  4394.461
  43  5242.056
  44  4631.416
  45  4858.883
  46  4799.593
  47  4795.527
  48  4916.458
  49  6115.996
  50  5030.885
  51  5306.65
  52  6030.686
  53  6188.696
  54  6914.421
  55  6585.746
  56  6477.196
  57  6918.803
  58  6737.184
  59  5464.791
  60  5182.529
  61  5532.676
  62  5511.557
  63  5045.252
  64  5272.8
  65  6575.964
  66  6853.485
  67  6659.206
  68  6222.121
  69  6358.686
  70  5855.56
  71  5392.677
  72  5997.147
  73  6253.586
  74  5959.258
  75  5981.4
  76  5772.539
  77  5712.877
  78  5431.639
  79  5439.571
  80  5603.518
  81  5084.3
  82  5414.089
  83  3711.027
  84  3979.432
  85  4245.062
  86  4391.507
  87  3451.801
  88  3773.095
  89  4047.667
  90  4107.103
  91  4889.313
  92  4135.078
  93  3980.814
  94  5159.304
  95  5022.874
  96  4655.272
  97  4473.489
  98  4195.885
  99  4680.744
 100  3781.157
 101  4674.283
 102  4352.855
 103  4043.621
 104  3961.2
 105  2922.14
 106  4737.432
 107  5549.297
 108  5551
 109  5229.969
 110  5143.327
 111  5908.896
 112  5330.005
 113  4535.832
 114  5019.392
 115  5335.574
 116  5248.201
 117  3916.475
 118  4592.085
 119  4496.927
 120  3933.126
 121  4448.338
 122  5189.581
 123  5195.503
 124  3923.556
 125  4249.224
 126  5218.196
 127  5019.735
 128  5607.124
 129  5438.049
 130  5596.501
 131  5733.907
 132  5174.309
 133  4314.482
 134  3492.368
 135  3651.35
 136  4292.723
 137  4671.459
 138  4124.699
 139  4769.88
 140  4504.803
 141  4702.504
 142  4491.087
 143  5039.68
 144  4798.772
 145  4241.885
 146  3646.361
 147  4185.836
 148  4659.404
 149  5484.474
 150  5376.58
 151  6565.776
 152  7605.407
 153  5972.141
 154  5146.196
 155  4257.488
 156  5277.528
 157  4464.15
 158  5010.427
 159  5405.247
 160  4712.733
 161  4684.233
 162  5246.239
 163  5344.838
 164  4646.259
 165  3948.779
 166  4883.734
 167  4948.225
 168  4058.266
 169  3231.464
 170  4082.492
 171  4206.178
 172  5148.505
 173  5166.289
 174  5257.38
 175  5841.476
 176  5576.361
 177  4782.471
 178  4474.081
 179  4333.646
 180  4931.021
 181  4046.054
 182  4821.664
 183  5114.305
 184  4155.664
 185  4154.358
 186  3941.351
 187  3873.933
 188  3709.715
 189  3664.798
 190  4249.115
 191  5108.168
 192  4999.577
 193  5252.436
 194  5952.862
 195  5380.977
 196  5149.714
 197  5068.629
 198  5859.422
 199  4724.655
 200  4184.781
 201  4153.083
 202  4377.221
 203  4428.178
 204  5356.872
 205  4957.592
 206  5408.581
 207  5909.184
 208  5300.391
 209  5535.837
 210  5362.522
 211  4531.189
 212  3876.31
 213  4375.572
 214  4460.358
 215  4449.17
 216  4043.315
 217  5299.438
 218  4680.787
 219  4152.704
 220  4364.535
 221  3841.335
 222  4023.414
 223  3952.211
 224  4753.283
 225  4569.667
 226  4859.28
 227  4622.555
 228  5582.479
 229  4490.405
 230  4623.526
 231  5587.446
 232  5842.745
 233  5232.438
 234  5250.006
 235  4925.794
 236  4442.205
 237  5255.937
 238  4317.651
 239  4107.997
 240  4046.879
 241  4434.047
 242  4538.902
 243  4502.795
 244  5397.776
 245  5136.95
 246  4768.298
 247  4683.46
 248  4995.505
 249  4518.408
 250  4962.869
 251  5286.182
 252  5514.062
 253  5223.852
 254  5250.678
 255  5162.734
