# Input file       =  1204204392.112733_cleaned.dat
# Candidate        =  PSR_0332+5434
# Telescope        =  AR
# Epoch_topo       =  58181.551054545518
# Epoch_bary       =  N/A
# T_sample         =  0.002
# Data Folded      =  7340032
# Data Avg         =  0.386745751738739
# Data StdDev      =  8.04898837244082 
# Profile Bins     =  256
# Profile Avg      =  11088.9990185203 
# Profile StdDev   =  1362.91977850425 
# Reduced chi-sqr  =  2.535
# Prob(Noise)      <  7.26e-36   (~12.4 sigma)
# P_topo (ms)      =  714.580085605494  +/- 0.000174
# P'_topo (s/s)    =  -0                +/- 9.19e-11
# P''_topo (s/s^2) =  0                 +/- 4.06e-14
# P_bary (ms)      =  N/A
# P'_bary (s/s)    =  N/A
# P''_bary (s/s^2) =  N/A
# P_orb (s)        =  N/A
# asin(i)/c (s)    =  N/A
# eccentricity     =  N/A
# w (rad)          =  N/A
# T_peri           =  N/A
######################################################
   0  11493.9
   1  11811.74
   2  11479.17
   3  11551.05
   4  11783.47
   5  11767.73
   6  13069.17
   7  11412.84
   8  10410.63
   9  11169.98
  10  12501.62
  11  11541.39
  12  10194.89
  13  10976.05
  14  10484.13
  15  10707.75
  16  11360.67
  17  12211.14
  18  12893.6
  19  12834.85
  20  13946.21
  21  14675.73
  22  13998.96
  23  13807.08
  24  14444.85
  25  15194.17
  26  14500.61
  27  13690.15
  28  12852.02
  29  12375.83
  30  12525.24
  31  11948.7
  32  11084.69
  33  12075
  34  11671.99
  35  10764.64
  36  11052.8
  37  11300.56
  38  11319.47
  39  10913.84
  40  11293.42
  41  11434.56
  42  11499.19
  43  11566.23
  44  10729.65
  45  9153.712
  46  9703.361
  47  10209.42
  48  9911.674
  49  10067.06
  50  10091.46
  51  10576.34
  52  11146.06
  53  10713.42
  54  11170.14
  55  11390.64
  56  11892.34
  57  12272.59
  58  12210.2
  59  12540.5
  60  11997.52
  61  11337.64
  62  12371.27
  63  11691.43
  64  11233.66
  65  11006.43
  66  10452.15
  67  9623.371
  68  9933.166
  69  9982.411
  70  10171.22
  71  10109.77
  72  10431.84
  73  9758.248
  74  9691.148
  75  9623.448
  76  8766.428
  77  9160.058
  78  9788.717
  79  9272.567
  80  10013.85
  81  9791.689
  82  9694.127
  83  8440.663
  84  8305.062
  85  8642.182
  86  8320.081
  87  9370.888
  88  9865.812
  89  10726.8
  90  10045.76
  91  10433.29
  92  11489.38
  93  11418.19
  94  11692.71
  95  11908.36
  96  12282.26
  97  12608.51
  98  12707.29
  99  13016.62
 100  12247.41
 101  11428.35
 102  12175.91
 103  11857.31
 104  11198.58
 105  11109.1
 106  9663.898
 107  9179.404
 108  9245.843
 109  8207.281
 110  8939.658
 111  8829.656
 112  8208.052
 113  8198.397
 114  8713.111
 115  8233.815
 116  7748.59
 117  7821.149
 118  8208.888
 119  7536.22
 120  7449.208
 121  8086.821
 122  7582.125
 123  8220.589
 124  8915.962
 125  8309.906
 126  10345.82
 127  12283.19
 128  12533.07
 129  12297.11
 130  12618.43
 131  13653.45
 132  13953.13
 133  12567.7
 134  13419.09
 135  12730.35
 136  13301.05
 137  13062.68
 138  12586.7
 139  13086.59
 140  12420.72
 141  11086.68
 142  11887.03
 143  11581.62
 144  10846.31
 145  9612.431
 146  9231.371
 147  9550.971
 148  8832.573
 149  8992.834
 150  9527.52
 151  11174.85
 152  11709.38
 153  10108.29
 154  7724.004
 155  7821.371
 156  7908.276
 157  7346.632
 158  8087.119
 159  9102.599
 160  9132.963
 161  9457.228
 162  10496.13
 163  9923.153
 164  9934.959
 165  10882.16
 166  11559.2
 167  12106.25
 168  11699.29
 169  11033.12
 170  11757.76
 171  11854.4
 172  11818.79
 173  12759
 174  12632.84
 175  12955.07
 176  11861.45
 177  11040.16
 178  11685.69
 179  11625.52
 180  10965.9
 181  10378.9
 182  9728.415
 183  9414.403
 184  9720.732
 185  8849.647
 186  8643.688
 187  8189.683
 188  8600.939
 189  8403.025
 190  8522.767
 191  7543.314
 192  7909.366
 193  7525.182
 194  8015.801
 195  8792.772
 196  9348.668
 197  8957.66
 198  9652.424
 199  10744.05
 200  10469.28
 201  11357.83
 202  12681.4
 203  13161.24
 204  12389.04
 205  12940.17
 206  14075.71
 207  14785.97
 208  14799.8
 209  14242.28
 210  14424.27
 211  14752.65
 212  13721.87
 213  14335.12
 214  13540.93
 215  12871.57
 216  12701.45
 217  12196.65
 218  12018.63
 219  11605.81
 220  9688.483
 221  10593.29
 222  9921.988
 223  10655.72
 224  10076.55
 225  10517.39
 226  10249.71
 227  9841.369
 228  9916.233
 229  9544.853
 230  10812.17
 231  10343.51
 232  10321.95
 233  10862.54
 234  11458.16
 235  11782.73
 236  12770.55
 237  11895.24
 238  12949.84
 239  14361.22
 240  14586.76
 241  14581.24
 242  14175.54
 243  15233.3
 244  15123.24
 245  15643.65
 246  13990.27
 247  14580.62
 248  14222.77
 249  13448.92
 250  13518.68
 251  12509.78
 252  11738.04
 253  11554.2
 254  11723.65
 255  11543.01
