# Input file       =  1204462849.099223-PSRB0329-2ms-sampling-dd.dat
# Candidate        =  PSR_0332+5434
# Telescope        =  AR
# Epoch_topo       =  58184.542454852119
# Epoch_bary       =  N/A
# T_sample         =  0.002
# Data Folded      =  7340032
# Data Avg         =  3.61784994646265e-10
# Data StdDev      =  11.0599770920539 
# Profile Bins     =  512
# Profile Avg      =  0.382090241573735
# Profile StdDev   =  1324.24463948909 
# Reduced chi-sqr  =  0.738
# Prob(Noise)      <  1   (~0.0 sigma)
# P_topo (ms)      =  714.579567917648  +/- 0.000557
# P'_topo (s/s)    =  -0                +/- 2.94e-10
# P''_topo (s/s^2) =  0                 +/- 1.3e-13
# P_bary (ms)      =  N/A
# P'_bary (s/s)    =  N/A
# P''_bary (s/s^2) =  N/A
# P_orb (s)        =  N/A
# asin(i)/c (s)    =  N/A
# eccentricity     =  N/A
# w (rad)          =  N/A
# T_peri           =  N/A
######################################################
   0  324.2855
   1  -186.5714
   2  -215.9089
   3  17.74199
   4  -234.3334
   5  -177.5332
   6  -221.9219
   7  -485.3204
   8  -556.4661
   9  -430.0548
  10  -392.8439
  11  -570.5278
  12  -666.639
  13  -318.8799
  14  -358.1692
  15  -56.25987
  16  231.9892
  17  -140.4491
  18  -100.9801
  19  -72.97779
  20  772.4417
  21  782.1551
  22  580.2905
  23  872.997
  24  541.8764
  25  -299.3732
  26  -414.2342
  27  -107.2017
  28  215.8932
  29  220.7532
  30  44.92088
  31  222.6351
  32  364.4412
  33  -70.11187
  34  299.7792
  35  489.4796
  36  589.1238
  37  532.7083
  38  453.6748
  39  -295.309
  40  -522.3117
  41  -303.3995
  42  -663.9538
  43  -729.399
  44  -562.0081
  45  -626.7073
  46  -836.7369
  47  -608.1418
  48  -651.7955
  49  -416.1973
  50  -797.395
  51  -1217.461
  52  -996.6818
  53  -712.9283
  54  -835.4723
  55  -663.3025
  56  -383.9075
  57  -871.7438
  58  -640.1
  59  -441.6172
  60  -662.6313
  61  -279.2605
  62  13.62818
  63  294.7689
  64  -227.444
  65  -619.8636
  66  -551.6555
  67  -455.9863
  68  241.638
  69  302.2733
  70  312.2816
  71  277.194
  72  -94.90517
  73  -337.4586
  74  -529.8411
  75  -738.2103
  76  -524.8567
  77  170.2055
  78  -64.23763
  79  -91.82139
  80  -216.543
  81  -300.8529
  82  -61.39771
  83  -122.7145
  84  -347.0518
  85  -412.9529
  86  -217.1146
  87  -26.1519
  88  48.98729
  89  -324.1196
  90  -234.8072
  91  480.2056
  92  146.3264
  93  -394.6231
  94  -199.0594
  95  -179.2309
  96  -194.4744
  97  754.4241
  98  1048.272
  99  1259.441
 100  782.9102
 101  615.2858
 102  336.2343
 103  2368.665
 104  4218.395
 105  5685.591
 106  6997.603
 107  5887.55
 108  3738.609
 109  639.2514
 110  331.8182
 111  602.7568
 112  1329.523
 113  1258.723
 114  639.0016
 115  512.7884
 116  142.4096
 117  -290.2888
 118  -237.489
 119  -10.86421
 120  44.71116
 121  -21.43439
 122  -0.3854532
 123  257.6993
 124  497.0949
 125  240.6372
 126  240.5895
 127  216.3033
 128  308.9167
 129  -84.54653
 130  -124.5996
 131  -90.26485
 132  -299.0047
 133  -332.4495
 134  -469.8327
 135  -239.8892
 136  -489.9727
 137  -215.7769
 138  -119.374
 139  -150.4657
 140  -217.1796
 141  -70.76616
 142  253.3391
 143  277.9937
 144  535.8241
 145  93.85248
 146  34.94126
 147  -90.95329
 148  122.9211
 149  357.1699
 150  423.4053
 151  -32.03139
 152  -562.9495
 153  -836.871
 154  -306.5063
 155  -29.45913
 156  75.9789
 157  322.0222
 158  137.7493
 159  324.4537
 160  294.7789
 161  212.1557
 162  172.636
 163  697.1732
 164  868.004
 165  790.5835
 166  651.0623
 167  1107.495
 168  517.1438
 169  349.7031
 170  360.7923
 171  7.129097
 172  -355.211
 173  -617.1022
 174  -533.361
 175  -386.515
 176  -638.572
 177  -416.2979
 178  -63.4361
 179  -131.2056
 180  184.9726
 181  35.0643
 182  59.8961
 183  588.9741
 184  1151.593
 185  1293.668
 186  1227.613
 187  1278.218
 188  1235.786
 189  1308.479
 190  2093.011
 191  1557.762
 192  1451.095
 193  1168.515
 194  924.0748
 195  701.9313
 196  510.2904
 197  175.8938
 198  -102.689
 199  39.89877
 200  -133.0746
 201  -45.86898
 202  267.416
 203  72.43566
 204  -555.3741
 205  -456.041
 206  -877.5198
 207  -371.7865
 208  -130.245
 209  -52.9082
 210  -370.582
 211  -758.7715
 212  -536.3768
 213  -268.25
 214  122.9314
 215  441.382
 216  290.0342
 217  182.036
 218  -100.6626
 219  -183.6532
 220  -259.1954
 221  -470.5191
 222  -431.5156
 223  161.1433
 224  -403.2746
 225  -377.2731
 226  -385.643
 227  -364.9501
 228  -432.062
 229  -92.87859
 230  307.843
 231  285.1719
 232  361.2342
 233  568.4007
 234  566.7018
 235  354.308
 236  452.3374
 237  143.3344
 238  126.9119
 239  562.7739
 240  953.5794
 241  979.0498
 242  572.4559
 243  333.4003
 244  192.3887
 245  -279.7512
 246  -351.2232
 247  -448.1309
 248  -708.9939
 249  -398.4738
 250  -383.196
 251  -308.1324
 252  -589.254
 253  -664.278
 254  -711.2431
 255  -370.6754
 256  -313.2749
 257  -197.2901
 258  -654.2088
 259  -259.8592
 260  -304.4391
 261  -494.3481
 262  -429.3445
 263  -687.2851
 264  -514.4004
 265  -85.25835
 266  -268.4575
 267  -786.9897
 268  -877.929
 269  -877.8183
 270  -704.1038
 271  -696.8348
 272  -940.8354
 273  -781.6562
 274  -709.5621
 275  -785.2583
 276  -1009.609
 277  -929.2428
 278  -847.8901
 279  -695.5506
 280  -46.15825
 281  -183.2502
 282  -295.0139
 283  -317.8603
 284  -227.5714
 285  46.24914
 286  189.0244
 287  311.7503
 288  357.143
 289  -116.8964
 290  -319.9121
 291  -401.3911
 292  -207.8195
 293  -305.9089
 294  -247.1732
 295  -434.6277
 296  -821.3118
 297  -1049.777
 298  -744.2907
 299  -408.424
 300  201.4914
 301  476.4909
 302  430.1218
 303  75.08681
 304  -250.2085
 305  205.3593
 306  24.62442
 307  -71.21925
 308  -13.61044
 309  -45.96644
 310  -222.6945
 311  -273.1667
 312  -107.3085
 313  -127.1446
 314  120.7311
 315  -47.46106
 316  -51.91399
 317  31.22015
 318  -64.85017
 319  -257.8009
 320  -450.3043
 321  -534.2397
 322  -97.22067
 323  52.56717
 324  -215.8068
 325  -550.7777
 326  -178.9911
 327  -126.1044
 328  328.4888
 329  48.03085
 330  24.75171
 331  -73.55383
 332  129.3046
 333  -76.3985
 334  -86.45663
 335  22.19635
 336  -156.9074
 337  46.37593
 338  297.288
 339  441.2145
 340  9.063299
 341  173.3262
 342  -9.984539
 343  -158.6479
 344  403.8828
 345  492.2956
 346  372.4851
 347  -25.11787
 348  45.3141
 349  164.0631
 350  705.359
 351  709.3402
 352  751.0554
 353  1206.876
 354  1437.321
 355  1292.486
 356  1258.933
 357  1302.094
 358  1068.475
 359  457.5545
 360  172.0739
 361  -13.52929
 362  -59.39904
 363  14.9345
 364  11.97396
 365  -230.1421
 366  -150.3169
 367  -309.7299
 368  -58.1459
 369  -331.7675
 370  -942.4321
 371  -1349.403
 372  -1542.529
 373  -1417.172
 374  -1823.761
 375  -1978.681
 376  -1887.833
 377  -1633.803
 378  -1436.061
 379  -1186.176
 380  -1461.527
 381  -1158.149
 382  -866.6694
 383  -1159.251
 384  -1031.614
 385  -977.3087
 386  -848.9101
 387  -775.8044
 388  -827.8257
 389  -687.5734
 390  -151.1837
 391  -777.514
 392  -1138.408
 393  -931.5679
 394  -908.0118
 395  -727.8506
 396  -510.2688
 397  -856.5392
 398  -625.0604
 399  -216.025
 400  -399.3493
 401  312.577
 402  716.7112
 403  980.5556
 404  1408.638
 405  1476.791
 406  701.1876
 407  67.67628
 408  -5.764634
 409  1485.956
 410  2106.885
 411  1931.488
 412  1492.342
 413  160.5489
 414  386.3948
 415  461.8808
 416  1259.024
 417  1172.154
 418  1074.323
 419  1577.47
 420  1062.072
 421  766.5027
 422  596.5631
 423  1111.885
 424  922.4167
 425  572.9196
 426  212.4357
 427  -86.48988
 428  -494.66
 429  -539.8688
 430  -314.2255
 431  -221.2562
 432  -403.1557
 433  -120.1098
 434  -307.1234
 435  -587.7219
 436  -441.6831
 437  58.82503
 438  66.69016
 439  -77.49513
 440  122.326
 441  46.09312
 442  -97.48745
 443  -176.0158
 444  18.24681
 445  -270.1286
 446  -134.0852
 447  -256.8142
 448  -186.9538
 449  -398.4586
 450  -339.4845
 451  -331.9241
 452  -644.8992
 453  -769.6525
 454  -1079.484
 455  -850.5151
 456  -616.6453
 457  -734.3516
 458  -844.5942
 459  -737.3798
 460  -1244.272
 461  -814.3425
 462  -768.8923
 463  -1086.428
 464  -1012.765
 465  -976.0315
 466  -764.3618
 467  -920.1566
 468  -857.7412
 469  -700.1249
 470  -244.8671
 471  -24.4497
 472  -663.9739
 473  -325.6982
 474  -27.35382
 475  539.9196
 476  806.9423
 477  447.7377
 478  -100.4757
 479  416.6173
 480  206.3146
 481  133.3824
 482  359.8212
 483  224.5366
 484  330.9914
 485  -353.4534
 486  -159.4127
 487  -517.2527
 488  -458.3712
 489  -386.2963
 490  -770.1758
 491  -754.0256
 492  -586.712
 493  -337.5445
 494  -239.1034
 495  -362.6769
 496  -513.4937
 497  139.479
 498  208.4613
 499  251.4927
 500  525.9159
 501  572.0562
 502  386.1309
 503  547.5248
 504  645.6907
 505  733.5748
 506  494.8896
 507  627.0627
 508  703.9163
 509  877.9229
 510  809.9369
 511  676.0806
