# Input file       =  1204534384.116725_cleaned.dat
# Candidate        =  PSR_0332+5434
# Telescope        =  AR
# Epoch_topo       =  58185.370406443573
# Epoch_bary       =  N/A
# T_sample         =  0.002
# Data Folded      =  7405568
# Data Avg         =  0.273547827211555
# Data StdDev      =  6.54527003437186 
# Profile Bins     =  512
# Profile Avg      =  3956.5859756316  
# Profile StdDev   =  787.175874425562 
# Reduced chi-sqr  =  1.085
# Prob(Noise)      <  0.089   (~1.3 sigma)
# P_topo (ms)      =  714.579384506152  +/- 3.35e-05
# P'_topo (s/s)    =  -0                +/- 1.75e-11
# P''_topo (s/s^2) =  0                 +/- 7.66e-15
# P_bary (ms)      =  N/A
# P'_bary (s/s)    =  N/A
# P''_bary (s/s^2) =  N/A
# P_orb (s)        =  N/A
# asin(i)/c (s)    =  N/A
# eccentricity     =  N/A
# w (rad)          =  N/A
# T_peri           =  N/A
######################################################
   0  5095.466
   1  4625.804
   2  4094.887
   3  4445.78
   4  4250.283
   5  3705.496
   6  3731.064
   7  3781.042
   8  3768.82
   9  3851.362
  10  3431.742
  11  3665.169
  12  4402.743
  13  4625.354
  14  4199.933
  15  4505.584
  16  4796.813
  17  4851.721
  18  4380.932
  19  4135.128
  20  3754.431
  21  3865.738
  22  3963.865
  23  3598.554
  24  4040.98
  25  4101.602
  26  3401.418
  27  2995.408
  28  3413.791
  29  4263.641
  30  4496.451
  31  4165.191
  32  4564.206
  33  4901.861
  34  4321.23
  35  4079.206
  36  4075.41
  37  4598.658
  38  4119.815
  39  3906.392
  40  3624.199
  41  3399.555
  42  3229.514
  43  3060.281
  44  3456.922
  45  4081.324
  46  4605.749
  47  4653.429
  48  4446.745
  49  4479.778
  50  4464.915
  51  3746.996
  52  3544.078
  53  3776.504
  54  4222.749
  55  4328.754
  56  3909.382
  57  4198.705
  58  3861.394
  59  2728.642
  60  2352.496
  61  3515.627
  62  4574.066
  63  4660.646
  64  4563.343
  65  5104.656
  66  4972.5
  67  3695.169
  68  3272.202
  69  3236.177
  70  4204
  71  4233.076
  72  3790.336
  73  3463.978
  74  3757.827
  75  3815.029
  76  3180.627
  77  2920.194
  78  3722.768
  79  4491.699
  80  4318.16
  81  4408.199
  82  4517.368
  83  4353.83
  84  3889.026
  85  3437.844
  86  3607.403
  87  3708.798
  88  3678.72
  89  3429.044
  90  3552.541
  91  3427.598
  92  2725.402
  93  2179.634
  94  2534.625
  95  3853.873
  96  3860.675
  97  3633.131
  98  4549.639
  99  4679.686
 100  4202.06
 101  3949.576
 102  3696.43
 103  3275.939
 104  3393.664
 105  3594.134
 106  3974.435
 107  4040.676
 108  3844.124
 109  2590.949
 110  2739.828
 111  3677.201
 112  4325.576
 113  4194.435
 114  3834.26
 115  4063.626
 116  4299.083
 117  3832.699
 118  3915.789
 119  4081.868
 120  3998.372
 121  3755.569
 122  3236.317
 123  3579.104
 124  3661.637
 125  3213.393
 126  2985.318
 127  3280.402
 128  4592.271
 129  4103.623
 130  4061.443
 131  3947.961
 132  4458.021
 133  4035.028
 134  3517.443
 135  4253.152
 136  4326.817
 137  4578.767
 138  3832.885
 139  3926.056
 140  3938.918
 141  3606.656
 142  2448.377
 143  2287.072
 144  3824.701
 145  4763.621
 146  4662.342
 147  4591.175
 148  5023.813
 149  4343.558
 150  3543.235
 151  3330.802
 152  3629.876
 153  4418.084
 154  4256.941
 155  4171.96
 156  4337.908
 157  4084.463
 158  3321.874
 159  2748.395
 160  3434.948
 161  3774.005
 162  4351.647
 163  4301.995
 164  4175.718
 165  5201.408
 166  4719.455
 167  3766.578
 168  3149.792
 169  2751.73
 170  4018.67
 171  4168.178
 172  4273.002
 173  4415.643
 174  4697.129
 175  3408.729
 176  3112.815
 177  3962.036
 178  4632.677
 179  4490.639
 180  4296.914
 181  5249.026
 182  5041.181
 183  4471.904
 184  3573.338
 185  3837.921
 186  3812.429
 187  3427.869
 188  3741.021
 189  3993.743
 190  4245.325
 191  3412.832
 192  2445.803
 193  3452.284
 194  4424.441
 195  4463.959
 196  3924.056
 197  4494.531
 198  4583.203
 199  4271.202
 200  4260.941
 201  3891.832
 202  4123.644
 203  4240.45
 204  3979.586
 205  3856.131
 206  4369.833
 207  3973.682
 208  2737.957
 209  2534.405
 210  3666.406
 211  4619.596
 212  4644.896
 213  4302.166
 214  4394.759
 215  4408.756
 216  3764.406
 217  3104.877
 218  4293.102
 219  4465.834
 220  4015.523
 221  3656.264
 222  3304.258
 223  3487.806
 224  3027.922
 225  2755.173
 226  2848.023
 227  4292.317
 228  4648.577
 229  4333.282
 230  4350.747
 231  4538.76
 232  4006.617
 233  3156.662
 234  3179.461
 235  3667.662
 236  4118.156
 237  4373.862
 238  3944.323
 239  4387.799
 240  4025.183
 241  3218.579
 242  2822.169
 243  3319.638
 244  4576.857
 245  4802.936
 246  4580.828
 247  5316.106
 248  5251.026
 249  4145.12
 250  3443.956
 251  3373.602
 252  3875.24
 253  4037.639
 254  4076.289
 255  3977.477
 256  4416.636
 257  4216.343
 258  3193.546
 259  3414.051
 260  4267.63
 261  4513.859
 262  4331.628
 263  4922.263
 264  5126.605
 265  4842.653
 266  3994.916
 267  4295.916
 268  3810.156
 269  4086.353
 270  3856.83
 271  3975.382
 272  4427.007
 273  4153.19
 274  3214.155
 275  2956.915
 276  3728.798
 277  4071.616
 278  4001.866
 279  4130.981
 280  4654.676
 281  5122.542
 282  4612.684
 283  4195.859
 284  3990.274
 285  3945.863
 286  4026.78
 287  3485.98
 288  3256.838
 289  3641.495
 290  3415.106
 291  3037.229
 292  3175.274
 293  3838.113
 294  4224.829
 295  4104.9
 296  4447.816
 297  4916.333
 298  4350.376
 299  3650.965
 300  3885.359
 301  4502.791
 302  4348.486
 303  3989.461
 304  3650.442
 305  3903.261
 306  3648.526
 307  3029.593
 308  3118.775
 309  3570.655
 310  4696.675
 311  4383.436
 312  4503.613
 313  4898.032
 314  4627.13
 315  4314.102
 316  3737.481
 317  3460.044
 318  3373.549
 319  3436.418
 320  3649.451
 321  3839.909
 322  3762.803
 323  3269.328
 324  2577.269
 325  2481.833
 326  3279.19
 327  4027.291
 328  4320.562
 329  4245.816
 330  4524.35
 331  4093.519
 332  3175.371
 333  3148.437
 334  3102.905
 335  3763.859
 336  3546.247
 337  3873.026
 338  4047.664
 339  3706.614
 340  2841.357
 341  2341.081
 342  3133.185
 343  3747.98
 344  3863.867
 345  4424.023
 346  4745.682
 347  4820.428
 348  4068.247
 349  3679.665
 350  3578.61
 351  3850.562
 352  3639.445
 353  3635.057
 354  4024.228
 355  4794.889
 356  4012.105
 357  3061.492
 358  3562.993
 359  4417.666
 360  4844.077
 361  4329.245
 362  4077.373
 363  4686.985
 364  4496.348
 365  4474.313
 366  4255.675
 367  4218.523
 368  3961.261
 369  3939.725
 370  3646.333
 371  3617.478
 372  3734.594
 373  3170.39
 374  3144.797
 375  3926.994
 376  4181.266
 377  4601.727
 378  4096.218
 379  4657.915
 380  4781.66
 381  4032.805
 382  3478.101
 383  3616.94
 384  4364.151
 385  4361.705
 386  3865.065
 387  3790.86
 388  4077.036
 389  3513.984
 390  2649.477
 391  2916.761
 392  3832.7
 393  4468.686
 394  4256.417
 395  4513.839
 396  4814.622
 397  4394.602
 398  3865.218
 399  3315.041
 400  4222.901
 401  4154.505
 402  3448.958
 403  3285.017
 404  4000.215
 405  3642.445
 406  3005.317
 407  2688.759
 408  3567.194
 409  4682.563
 410  4910.19
 411  4710.282
 412  4618.841
 413  4488.834
 414  3547.541
 415  3371.28
 416  3866.579
 417  3979.044
 418  4014.935
 419  4152.271
 420  4062.072
 421  4448.611
 422  4068.927
 423  2832.927
 424  2584.383
 425  3721.16
 426  4160.005
 427  4204.886
 428  4502
 429  5193.974
 430  5242.218
 431  4032.007
 432  3635.583
 433  3358
 434  3590.568
 435  3599.263
 436  3280.885
 437  3992.265
 438  3825.217
 439  3502.655
 440  3132.593
 441  3436.123
 442  4788.418
 443  4499.527
 444  4259.718
 445  4026.109
 446  4717.203
 447  4386.472
 448  4148.975
 449  4195.302
 450  4163.729
 451  4402.935
 452  3938.93
 453  4211.574
 454  4517.738
 455  4425.842
 456  4084.402
 457  4517.416
 458  5521.843
 459  5366.732
 460  4538.244
 461  4626.956
 462  4913.082
 463  4686.889
 464  3858.774
 465  3282.083
 466  3108.693
 467  4124.292
 468  3868.414
 469  3536.635
 470  3457.801
 471  4119.848
 472  3119.843
 473  2396.244
 474  3147.022
 475  3912.135
 476  4482.079
 477  4282.143
 478  4812.354
 479  4684.617
 480  3821.825
 481  3362.364
 482  3634.794
 483  4215.83
 484  4387.597
 485  3755.737
 486  3847.073
 487  4204.383
 488  3622.251
 489  3112.773
 490  2735.548
 491  3654.791
 492  4239.51
 493  4452.379
 494  4723.59
 495  4948.125
 496  4688.896
 497  4195.697
 498  3975.57
 499  4234.774
 500  4632.255
 501  4588.826
 502  4252.483
 503  4201.044
 504  4085.02
 505  3224.846
 506  2935.871
 507  3507.069
 508  4615.063
 509  4542.689
 510  4435.757
 511  4865.845
