# Input file       =  1204965093.116856_cleaned.dat
# Candidate        =  PSR_0332+5434
# Telescope        =  AR
# Epoch_topo       =  58190.355464315464
# Epoch_bary       =  N/A
# T_sample         =  0.002
# Data Folded      =  7208960
# Data Avg         =  0.304724718420766
# Data StdDev      =  5.68221262181584 
# Profile Bins     =  512
# Profile Avg      =  4290.54339817752 
# Profile StdDev   =  674.246666388265 
# Reduced chi-sqr  =  4.342
# Prob(Noise)      <  9.19e-211   (~31.0 sigma)
# P_topo (ms)      =  714.578106297486  +/- 1.12e-05
# P'_topo (s/s)    =  -0                +/- 6.01e-12
# P''_topo (s/s^2) =  0                 +/- 2.7e-15
# P_bary (ms)      =  N/A
# P'_bary (s/s)    =  N/A
# P''_bary (s/s^2) =  N/A
# P_orb (s)        =  N/A
# asin(i)/c (s)    =  N/A
# eccentricity     =  N/A
# w (rad)          =  N/A
# T_peri           =  N/A
######################################################
   0  2252.154
   1  2099.218
   2  2753.648
   3  3912.628
   4  5136.65
   5  5595.427
   6  4735.113
   7  3839.083
   8  3390.873
   9  3031.626
  10  3455.024
  11  3973.147
  12  4267.065
  13  5038.507
  14  4627.887
  15  3613.695
  16  2592.318
  17  2552.687
  18  2859.774
  19  3442.146
  20  5156.079
  21  5718.848
  22  5269.032
  23  4749.52
  24  4124.794
  25  3648.766
  26  3728.212
  27  4235.421
  28  4803.12
  29  5625.706
  30  5573.096
  31  5006.02
  32  3909.199
  33  3051.832
  34  3260.926
  35  3929.803
  36  5121.362
  37  5672.484
  38  6041.847
  39  5888.407
  40  4867.773
  41  4355.019
  42  3975.975
  43  4161.532
  44  4942.484
  45  5910.718
  46  5809.133
  47  5688.167
  48  4812.429
  49  3420.569
  50  3059.658
  51  3102.462
  52  4203.643
  53  5029.117
  54  5886.2
  55  6401.737
  56  5641.401
  57  4468.987
  58  3643.999
  59  3905.908
  60  4291.15
  61  4806.271
  62  5762.043
  63  5807.871
  64  5591.588
  65  4585.952
  66  3689.292
  67  3122.059
  68  3441.299
  69  4456.592
  70  5905.534
  71  6289.678
  72  5950.381
  73  5431.265
  74  4780.836
  75  4276.997
  76  4109.243
  77  4466.545
  78  5197.292
  79  6173.254
  80  6351.818
  81  5126.673
  82  3891.194
  83  3804.233
  84  4196.338
  85  4617.588
  86  5297.866
  87  6191.014
  88  5630.224
  89  5199.369
  90  4623.602
  91  4146.627
  92  4375.755
  93  4967.886
  94  5662.37
  95  5946.581
  96  5832.441
  97  5057.435
  98  4078.1
  99  3934.58
 100  4089.004
 101  4644.083
 102  5601.618
 103  6470.109
 104  6635.466
 105  6031.898
 106  5343.386
 107  4742.903
 108  4611.982
 109  4905.684
 110  5552.36
 111  5900.666
 112  5986.889
 113  5582.477
 114  4646.114
 115  4122.994
 116  3995.34
 117  4087.386
 118  4921.7
 119  6096.195
 120  6103.634
 121  6165.212
 122  5332.35
 123  4592.671
 124  4243.344
 125  4144.414
 126  4972.381
 127  5508.252
 128  6039.812
 129  5904.758
 130  5179.948
 131  4217.039
 132  3585.136
 133  3557.462
 134  3453.322
 135  4462.548
 136  5955.282
 137  6348.716
 138  6097.502
 139  5070.943
 140  4003.278
 141  3396.356
 142  3800.905
 143  4605.387
 144  5254.552
 145  5577.547
 146  5628.491
 147  4660.102
 148  3778.653
 149  3762.173
 150  3781.429
 151  4168.522
 152  5019.267
 153  5782.796
 154  6381.763
 155  5645.08
 156  4631.896
 157  3908.097
 158  4061.293
 159  4526.627
 160  4854.678
 161  5770.591
 162  5961.424
 163  5484.214
 164  4236.388
 165  3248.481
 166  3424.112
 167  4136.909
 168  4825.915
 169  5545.025
 170  5998.088
 171  5529.376
 172  5111.937
 173  4179.409
 174  3842.404
 175  4200.938
 176  4976.89
 177  5473.874
 178  5678.406
 179  5102.752
 180  4503.662
 181  3613.492
 182  3380.187
 183  3616.173
 184  4044.963
 185  5064.016
 186  5997.957
 187  6022.387
 188  5497.678
 189  4255.835
 190  3572.185
 191  3434.275
 192  3947.422
 193  4709.511
 194  5362.332
 195  5712.209
 196  4954.807
 197  3814.077
 198  2916.658
 199  2814.507
 200  3357.088
 201  4687.187
 202  5914.926
 203  5960.651
 204  5181.047
 205  4307.97
 206  3054.132
 207  2815.792
 208  3574.561
 209  4620.792
 210  5515.593
 211  5380.419
 212  4896.729
 213  4023.324
 214  3032.06
 215  2804.013
 216  3258.291
 217  4102.722
 218  4739.158
 219  5454.999
 220  5709.217
 221  5034.508
 222  4013.207
 223  3502.167
 224  3545.583
 225  3829.885
 226  4545.894
 227  5366.894
 228  5648.299
 229  4611.664
 230  3626.235
 231  3277.409
 232  3178.183
 233  3013.647
 234  3961.655
 235  5400.971
 236  5879.449
 237  5577.051
 238  4920.825
 239  3978.949
 240  3100.529
 241  3735.111
 242  4169.937
 243  5025.747
 244  5599.872
 245  4977.598
 246  4261.67
 247  3240.658
 248  2674.699
 249  2930.264
 250  3728.618
 251  4489.571
 252  5565.812
 253  5865.692
 254  5016.352
 255  4139.55
 256  3499.826
 257  3905.294
 258  4310.039
 259  4816.699
 260  5293.325
 261  5542.041
 262  4796.278
 263  3458.014
 264  3159.048
 265  3090.227
 266  3399.447
 267  4079.088
 268  4894.819
 269  5695.605
 270  5252.879
 271  4416.168
 272  3675.466
 273  3454.594
 274  3362.789
 275  3962.389
 276  4392.631
 277  4782.781
 278  4654.876
 279  3753.192
 280  3001.569
 281  2425.142
 282  2530.343
 283  3232.036
 284  4739.006
 285  5634.994
 286  5609.459
 287  4939.793
 288  3678.021
 289  2945.46
 290  3109.331
 291  3537.926
 292  4009.9
 293  4896.001
 294  5175.044
 295  4442.48
 296  3374.103
 297  2558.765
 298  2559.737
 299  2899.976
 300  3860.959
 301  5193.684
 302  6321.326
 303  6257.481
 304  5522.598
 305  4711.773
 306  4146.921
 307  3961.546
 308  3608.581
 309  4218.431
 310  5135.808
 311  4832.858
 312  4195.606
 313  2702.128
 314  2736.562
 315  2869.595
 316  3257.566
 317  4204.96
 318  4891.568
 319  5053.915
 320  4737.779
 321  3878.27
 322  3378.48
 323  3345.592
 324  3557.349
 325  4005.584
 326  4986.804
 327  5206.188
 328  4583.457
 329  3532.796
 330  2396.99
 331  2084.31
 332  2753.98
 333  3581.933
 334  4512.907
 335  5006.944
 336  4943.417
 337  4240.171
 338  3366.632
 339  3113.609
 340  3402.116
 341  4186.004
 342  4232.758
 343  4729.269
 344  4865.312
 345  3725.076
 346  2705.935
 347  2080.795
 348  2569.573
 349  3035.809
 350  3903.395
 351  4933.214
 352  5081.42
 353  4847.98
 354  3902.723
 355  3023.459
 356  2937.94
 357  3519.874
 358  4033.102
 359  4812.528
 360  5317.269
 361  4295.895
 362  3119.276
 363  2446.845
 364  2093.286
 365  2835.925
 366  3811.509
 367  4609.063
 368  5235.754
 369  4937.299
 370  4117.24
 371  3354.203
 372  2590.456
 373  2532.642
 374  3415.412
 375  3991.641
 376  4783.139
 377  4751.271
 378  3857.212
 379  2777.912
 380  2373.837
 381  2440.238
 382  3161.638
 383  3843.915
 384  5150.667
 385  5647.8
 386  5032.6
 387  3913.091
 388  2641.004
 389  2368.299
 390  3133.079
 391  3701.796
 392  4394.956
 393  4735.117
 394  4656.235
 395  3871.868
 396  2875.547
 397  2792.319
 398  2970.188
 399  3629.349
 400  4255.408
 401  5206.201
 402  5325.44
 403  4900.155
 404  3942.943
 405  3242.772
 406  3691.036
 407  3698.926
 408  4417.493
 409  4718.166
 410  4708.986
 411  3903.304
 412  2964.781
 413  2758.689
 414  2918.792
 415  3357.521
 416  4249.728
 417  4630.442
 418  4752.497
 419  4381.574
 420  3912.114
 421  3055.93
 422  3158.575
 423  3779.76
 424  4119.128
 425  4704.799
 426  5137.421
 427  4253.485
 428  3224.823
 429  2459.863
 430  2389.668
 431  3058.207
 432  3655.212
 433  4829.764
 434  5776.398
 435  5410.114
 436  4517.967
 437  3638.257
 438  3220.755
 439  3536.758
 440  4180.136
 441  4894.573
 442  5332.096
 443  5087.986
 444  3973.162
 445  3077.886
 446  2415.274
 447  2949.312
 448  3649.993
 449  4636.077
 450  5284.59
 451  5547.391
 452  5141.848
 453  4054.879
 454  3248.687
 455  3187.679
 456  3438.783
 457  3875.058
 458  4716.979
 459  5264.33
 460  4824.954
 461  3771.672
 462  2895.631
 463  2868.623
 464  3015.92
 465  3375.604
 466  4623.839
 467  5547.47
 468  5449.343
 469  4665.671
 470  3797.005
 471  3297.508
 472  3374.882
 473  3706.253
 474  4426.018
 475  5168.962
 476  5105.851
 477  4044.404
 478  3280.076
 479  2797.596
 480  2649.355
 481  2753.48
 482  3457.875
 483  4667.997
 484  5500.129
 485  5337.563
 486  4480.785
 487  3268.022
 488  2988.954
 489  3342.17
 490  4019.531
 491  4053.914
 492  4588.567
 493  4573.118
 494  3804.331
 495  2961.4
 496  2591.934
 497  2447.447
 498  2830.64
 499  4398.471
 500  5253.863
 501  4786.202
 502  4492.719
 503  3495.031
 504  2750.326
 505  2995.007
 506  3437.66
 507  3727.034
 508  4607.973
 509  5178.748
 510  4068.279
 511  2858.051
