# Input file       =  1204103553.100353_cleaned.dat
# Candidate        =  PSR_0332+5434
# Telescope        =  AR
# Epoch_topo       =  58180.383936346676
# Epoch_bary       =  N/A
# T_sample         =  0.002
# Data Folded      =  7208960
# Data Avg         =  0.351016964554913
# Data StdDev      =  5.46050123611414 
# Profile Bins     =  256
# Profile Avg      =  9884.97995364612 
# Profile StdDev   =  916.323521900889 
# Reduced chi-sqr  =  7.586
# Prob(Noise)      <  1.67e-255   (~34.1 sigma)
# P_topo (ms)      =  714.580233197295  +/- 1.17e-05
# P'_topo (s/s)    =  -0                +/- 6.27e-12
# P''_topo (s/s^2) =  0                 +/- 2.82e-15
# P_bary (ms)      =  N/A
# P'_bary (s/s)    =  N/A
# P''_bary (s/s^2) =  N/A
# P_orb (s)        =  N/A
# asin(i)/c (s)    =  N/A
# eccentricity     =  N/A
# w (rad)          =  N/A
# T_peri           =  N/A
######################################################
   0  15739.41
   1  10804.68
   2  9163.27
   3  10175.93
   4  12401.3
   5  9132.79
   6  9234.954
   7  11200.48
   8  13728.67
   9  10960.49
  10  8446.87
  11  8939.385
  12  11735.44
  13  10218.36
  14  8417.603
  15  9987.777
  16  13257.88
  17  11469.43
  18  7760.779
  19  9259.643
  20  11202.28
  21  10949.33
  22  7120.354
  23  8417.866
  24  12255.95
  25  12910.41
  26  8081.661
  27  7749.392
  28  9683.045
  29  11457.92
  30  8290.273
  31  8641.508
  32  11976.06
  33  13367.5
  34  9458.323
  35  9020.714
  36  10411.41
  37  12570.9
  38  9383.912
  39  8164.957
  40  10581.99
  41  13463.18
  42  9992.575
  43  7624.333
  44  8235.22
  45  10941.31
  46  9520.087
  47  7769.856
  48  9341.775
  49  12802.04
  50  11928.56
  51  9314.514
  52  8194.117
  53  9951.056
  54  10392.23
  55  8349.414
  56  9136.529
  57  11438.61
  58  12356.2
  59  8303.527
  60  7315.146
  61  8910.16
  62  10705.05
  63  7069.514
  64  7446.908
  65  10591.93
  66  12532.04
  67  8877.373
  68  7262.337
  69  8659.417
  70  11198.4
  71  7602.09
  72  7816.477
  73  9906.018
  74  13244.84
  75  10070.53
  76  6770.492
  77  7737.079
  78  9516.743
  79  8858.692
  80  6119.914
  81  7183.676
  82  11180.09
  83  10204.8
  84  7311.716
  85  7145.316
  86  9167.589
  87  9521.885
  88  7016.384
  89  7883.225
  90  10578.89
  91  12029.71
  92  7423.104
  93  7089.662
  94  7832.027
  95  10643.92
  96  7304.17
  97  6905.073
  98  9521.293
  99  12699.33
 100  8770.555
 101  7406.216
 102  8540.725
 103  10635.05
 104  8980.705
 105  7884.775
 106  10385.67
 107  13370.51
 108  10817.75
 109  7870.636
 110  9152.268
 111  10912.61
 112  8945.021
 113  6531.058
 114  7620.271
 115  11541.34
 116  10358.51
 117  6574.063
 118  6395.41
 119  8632.401
 120  9435.835
 121  5793.915
 122  7805.532
 123  10415.03
 124  11076.17
 125  7368.476
 126  6756.441
 127  8178.641
 128  9709.222
 129  6379.784
 130  6592.706
 131  8523.183
 132  11875.37
 133  8099.187
 134  5927.235
 135  6698.946
 136  9519.623
 137  7745.093
 138  6159.661
 139  8205.455
 140  11657.78
 141  9448.428
 142  6435.906
 143  7102.989
 144  9598.223
 145  8741.474
 146  5662.78
 147  8379.822
 148  11196.87
 149  10630.25
 150  6005.808
 151  7538.646
 152  10921.24
 153  11378.01
 154  6432.352
 155  6746.973
 156  10263.56
 157  11589
 158  7133.646
 159  6896.29
 160  7995.788
 161  9282.159
 162  6275.276
 163  7183.776
 164  9970.589
 165  12651.51
 166  8090.646
 167  6121.364
 168  7822.044
 169  11430.6
 170  8812.261
 171  7540.831
 172  9062.549
 173  12482.64
 174  11449.16
 175  8684.836
 176  9280.183
 177  11055.36
 178  10336.08
 179  9184.672
 180  9172.014
 181  13367.36
 182  12685.8
 183  8132.12
 184  8076.572
 185  10820.29
 186  12554.38
 187  8724.425
 188  8991.487
 189  11792.48
 190  13274.09
 191  9497.302
 192  9058.507
 193  9982.597
 194  11414.98
 195  8462.946
 196  8477.26
 197  10536
 198  13057.76
 199  9994.977
 200  8192.782
 201  9222.495
 202  12363.69
 203  9690.11
 204  8379.305
 205  10171.27
 206  14159.9
 207  12707.95
 208  8936.068
 209  9950.137
 210  13567.11
 211  12331.39
 212  9773.984
 213  10975.65
 214  14474.97
 215  14287.03
 216  10071.54
 217  11318.75
 218  11944.8
 219  13021.72
 220  9731.329
 221  10736.38
 222  14431.42
 223  16262.6
 224  11459.24
 225  10334.08
 226  10903.03
 227  13942.19
 228  10799.2
 229  10327.07
 230  12306.35
 231  15316.81
 232  12592.93
 233  9677.474
 234  11825.2
 235  13558.08
 236  10491.25
 237  9784.704
 238  11822.16
 239  14946.58
 240  12644.57
 241  9644.347
 242  9759.383
 243  12200.38
 244  12612.65
 245  9348.289
 246  10512.59
 247  14184.64
 248  14750.63
 249  10239.04
 250  9739.878
 251  11467.44
 252  13001.67
 253  10154.67
 254  10534.4
 255  13195.77
