# Input file       =  1204721893.107728_cleaned.dat
# Candidate        =  PSR_0332+5434
# Telescope        =  AR
# Epoch_topo       =  58187.540649394999
# Epoch_bary       =  N/A
# T_sample         =  0.002
# Data Folded      =  7340032
# Data Avg         =  0.176048709686646
# Data StdDev      =  10.668936768853  
# Profile Bins     =  512
# Profile Avg      =  2523.47067090941 
# Profile StdDev   =  1277.42419424649 
# Reduced chi-sqr  =  0.652
# Prob(Noise)      <  1   (~0.0 sigma)
# P_topo (ms)      =  714.578902174409  +/- 0.000568
# P'_topo (s/s)    =  -0                +/- 3e-10
# P''_topo (s/s^2) =  0                 +/- 1.32e-13
# P_bary (ms)      =  N/A
# P'_bary (s/s)    =  N/A
# P''_bary (s/s^2) =  N/A
# P_orb (s)        =  N/A
# asin(i)/c (s)    =  N/A
# eccentricity     =  N/A
# w (rad)          =  N/A
# T_peri           =  N/A
######################################################
   0  3055.451
   1  2497.674
   2  2500.347
   3  2554.119
   4  2508.154
   5  3183.942
   6  3930.068
   7  3165.268
   8  2535.288
   9  2386.113
  10  1996.227
  11  1667.571
  12  2524.582
  13  3057.623
  14  3345.536
  15  2715.822
  16  2464.671
  17  3067.184
  18  2717.02
  19  2422.071
  20  2220.7
  21  2545.567
  22  3020.089
  23  3560.167
  24  3631.935
  25  3820.544
  26  3678.656
  27  3819.585
  28  3885.043
  29  4464.251
  30  3568.869
  31  3032.644
  32  3231.314
  33  3448.981
  34  3053.617
  35  2596.615
  36  2940.5
  37  3090.329
  38  2336
  39  1643.864
  40  1950.465
  41  2664.555
  42  3048.416
  43  3700.557
  44  3282.178
  45  2904.801
  46  3240.336
  47  2963.357
  48  2874.607
  49  2608.02
  50  2644.517
  51  2823.366
  52  3251.751
  53  3429.42
  54  2233.749
  55  925.5189
  56  1014.219
  57  2330.278
  58  2477.232
  59  1930.1
  60  1762.453
  61  1701.074
  62  1641.396
  63  2197.343
  64  3335.46
  65  3728.535
  66  2588.051
  67  1639.574
  68  1563.816
  69  839.7956
  70  1459.434
  71  2589.097
  72  2030.4
  73  1263.87
  74  775.662
  75  688.3611
  76  450.0095
  77  159.425
  78  707.7318
  79  1470.238
  80  1206.352
  81  476.0409
  82  909.4842
  83  337.1108
  84  717.7065
  85  1526.54
  86  2643.051
  87  2687.419
  88  1703.393
  89  1641.29
  90  1595.089
  91  1956.256
  92  2366.613
  93  2377.957
  94  2987.313
  95  2660.162
  96  2964.061
  97  1921.544
  98  1842.605
  99  2294.812
 100  1914.894
 101  2190.105
 102  2619.623
 103  3845.36
 104  3113.766
 105  2928.399
 106  3647.639
 107  3715.174
 108  3415.093
 109  2835.355
 110  2648.7
 111  2375.323
 112  1547.721
 113  2420.1
 114  2142.337
 115  1967.018
 116  2075.184
 117  2287.408
 118  2363.302
 119  1580.838
 120  1367.598
 121  1095.546
 122  848.01
 123  1280.87
 124  2018.575
 125  2130.398
 126  2001.763
 127  2370.305
 128  2316.293
 129  2557.304
 130  1924.893
 131  2070.714
 132  2637.608
 133  2387.865
 134  3116.247
 135  3355.25
 136  3468.24
 137  2861.218
 138  2575.544
 139  2392.027
 140  2434.313
 141  2944.907
 142  2813.381
 143  2352.222
 144  2508.491
 145  2478.674
 146  1909.552
 147  1304.796
 148  1119.918
 149  1920.883
 150  2000.793
 151  1881.135
 152  1987.902
 153  2153.157
 154  2545.18
 155  2059.995
 156  2138.4
 157  2647.135
 158  3462.705
 159  3068.484
 160  3345.694
 161  3069.587
 162  2320.295
 163  2615.128
 164  2317.056
 165  2683.437
 166  4016.967
 167  3913.174
 168  4026.747
 169  3660.817
 170  3156.155
 171  3100.996
 172  2962.562
 173  3584.484
 174  3803.263
 175  3541.022
 176  3744.356
 177  3422.767
 178  2900.027
 179  2593.59
 180  3274.182
 181  3415.377
 182  3085.878
 183  3181.623
 184  2505.324
 185  2155.303
 186  2834.344
 187  3389.609
 188  3263.463
 189  3014.061
 190  2429.394
 191  2116.132
 192  2450.108
 193  2159.964
 194  2052.993
 195  2494.115
 196  2274.16
 197  2058.511
 198  1925.626
 199  2149.512
 200  2057.61
 201  1414.47
 202  715.0071
 203  1110.152
 204  1574.77
 205  1157.199
 206  1739.404
 207  1614.558
 208  1172.731
 209  1221.61
 210  1167.07
 211  1670.141
 212  1373.4
 213  1848.717
 214  1270.154
 215  1144.28
 216  909.6192
 217  1387.282
 218  1722.805
 219  1920.506
 220  1968.773
 221  2284.124
 222  2180.507
 223  2482.064
 224  2280.997
 225  2542.347
 226  3328.201
 227  2961.628
 228  2527.646
 229  3067.282
 230  2409.129
 231  2409.525
 232  1731.345
 233  2326.52
 234  2872.05
 235  2697.309
 236  3355.865
 237  2017.563
 238  1852.532
 239  2692.04
 240  3613.46
 241  3487.724
 242  4125.055
 243  3989.258
 244  3313.152
 245  2600.023
 246  2992.891
 247  3326.745
 248  3864.834
 249  4585.23
 250  3949.098
 251  3980.2
 252  3327.307
 253  2566.654
 254  2494.332
 255  2570.416
 256  3431.778
 257  4077.068
 258  3798.119
 259  3699.939
 260  3608.813
 261  3250.379
 262  2731.301
 263  2673.922
 264  3563.339
 265  3147.503
 266  2500.127
 267  2258.198
 268  2090.316
 269  2229.287
 270  2560.204
 271  3496.986
 272  2984.595
 273  2538.29
 274  2629.816
 275  2428.09
 276  2449.829
 277  2605.197
 278  2759.361
 279  2083.188
 280  1416.263
 281  1266.422
 282  1325.666
 283  2514.583
 284  2600.591
 285  2793.17
 286  2399.888
 287  2151.882
 288  2091.228
 289  2803.343
 290  2925.91
 291  2707.199
 292  1901.021
 293  1785.668
 294  1187.452
 295  1302.008
 296  1790.376
 297  1987.097
 298  2184.133
 299  2261.206
 300  2616.312
 301  1574.579
 302  1923.426
 303  2095.344
 304  1771.293
 305  2133.806
 306  1764.954
 307  1822.637
 308  2049.707
 309  2224.967
 310  1343.967
 311  1546.783
 312  1788.221
 313  1991.96
 314  2870.895
 315  3436.674
 316  2697.495
 317  2481.123
 318  3084.061
 319  2930.25
 320  3339.304
 321  4338.946
 322  3724.569
 323  3826.25
 324  3826.13
 325  2945.754
 326  3267.464
 327  2840.452
 328  3156.552
 329  2659.072
 330  2622.103
 331  2976.404
 332  3377.516
 333  3077.653
 334  2571.038
 335  2842.469
 336  2712.989
 337  2506.443
 338  2383.363
 339  2610.158
 340  3145.013
 341  2850.571
 342  2488.127
 343  2324.892
 344  2154.034
 345  2477.86
 346  2778.47
 347  3054.537
 348  3003.901
 349  2869.222
 350  2870.006
 351  3021.774
 352  2902.826
 353  2856.624
 354  3053.965
 355  2921.04
 356  2883.97
 357  3047.057
 358  2333.338
 359  1729.536
 360  1923.738
 361  2375.824
 362  1976.492
 363  2997.322
 364  2631.974
 365  1798.923
 366  2555.768
 367  2043.574
 368  1747.825
 369  2921.009
 370  3376.214
 371  2873.079
 372  2012.016
 373  2614.92
 374  2396.835
 375  2751.578
 376  1951.348
 377  2701.947
 378  3321.557
 379  3476.531
 380  2582.169
 381  2336.824
 382  2248.168
 383  3152.495
 384  2954.894
 385  2097.828
 386  2068.473
 387  1543.129
 388  2497.673
 389  2939.739
 390  2819.562
 391  3019.418
 392  2464.019
 393  2705.765
 394  2563.477
 395  1934.266
 396  2220.528
 397  2843.745
 398  3149.352
 399  3226.895
 400  3654.711
 401  2703.662
 402  2194.898
 403  2436.751
 404  3316.176
 405  3385.855
 406  3096.146
 407  3675.583
 408  3331.585
 409  3023.691
 410  2325.206
 411  2465.934
 412  3077.71
 413  3159.056
 414  3364.599
 415  3556.203
 416  3039.204
 417  3949.479
 418  4124.822
 419  4020.087
 420  3619.221
 421  2917.324
 422  2701.214
 423  2338.312
 424  2565.376
 425  2069.428
 426  2158.099
 427  2721.346
 428  2816.865
 429  2857.691
 430  2113.182
 431  1697.114
 432  1839.245
 433  1771.532
 434  2432.984
 435  2155.381
 436  2570.393
 437  2658.725
 438  2118.585
 439  2137.764
 440  2370.342
 441  2275.56
 442  1603.399
 443  1935.044
 444  2625.752
 445  2165.664
 446  2007.722
 447  2392.368
 448  1838.517
 449  1991.553
 450  1853.352
 451  2207.383
 452  2218.573
 453  1628.521
 454  2184.81
 455  2215.423
 456  2242.202
 457  2236.094
 458  2098.874
 459  1769.389
 460  2349.766
 461  2117.919
 462  2162.845
 463  1535.529
 464  1444.681
 465  1936.104
 466  2441.143
 467  2611.411
 468  2112.113
 469  1577.374
 470  1926.919
 471  2176.104
 472  2721.252
 473  3200.263
 474  4026.161
 475  3806.649
 476  3341.909
 477  3685.665
 478  3014.336
 479  2315.218
 480  2030.096
 481  2815.787
 482  2685.257
 483  2608.911
 484  2892.334
 485  3098.139
 486  2764.823
 487  2906.997
 488  2240.385
 489  2064.52
 490  1646.178
 491  1316.536
 492  1255.255
 493  1441.024
 494  2097.958
 495  1799.821
 496  1893.202
 497  2291.722
 498  3216.358
 499  2344.188
 500  2329.033
 501  2404.812
 502  3124.604
 503  3380.612
 504  3010.058
 505  3123.341
 506  3184.635
 507  3259.207
 508  3149.424
 509  3145.217
 510  3559.647
 511  3381.657
