# Input file       =  1204792879.116628_cleaned.dat
# Candidate        =  PSR_0332+5434
# Telescope        =  AR
# Epoch_topo       =  58188.362246720229
# Epoch_bary       =  N/A
# T_sample         =  0.002
# Data Folded      =  7405568
# Data Avg         =  0.0158932759636548
# Data StdDev      =  1.00010476673917 
# Profile Bins     =  512
# Profile Avg      =  229.866949578923 
# Profile StdDev   =  120.278970942508 
# Reduced chi-sqr  =  2.069
# Prob(Noise)      <  2.55e-40   (~13.2 sigma)
# P_topo (ms)      =  714.578668186299  +/- 4.54e-05
# P'_topo (s/s)    =  -0                +/- 2.37e-11
# P''_topo (s/s^2) =  0                 +/- 1.04e-14
# P_bary (ms)      =  N/A
# P'_bary (s/s)    =  N/A
# P''_bary (s/s^2) =  N/A
# P_orb (s)        =  N/A
# asin(i)/c (s)    =  N/A
# eccentricity     =  N/A
# w (rad)          =  N/A
# T_peri           =  N/A
######################################################
   0  994.425
   1  956.3024
   2  709.1359
   3  562.6075
   4  321.7574
   5  165.435
   6  148.4798
   7  138.7173
   8  154.9471
   9  296.0442
  10  275.9002
  11  174.9707
  12  -5.991798
  13  68.44881
  14  233.8744
  15  199.4767
  16  213.7638
  17  350.8971
  18  472.7304
  19  440.3955
  20  294.0607
  21  287.8332
  22  35.38068
  23  67.03053
  24  38.22432
  25  113.6674
  26  222.7706
  27  212.7382
  28  95.86888
  29  4.728346
  30  -82.79537
  31  105.1032
  32  159.1762
  33  220.6723
  34  398.833
  35  333.9229
  36  322.9058
  37  271.8768
  38  216.6651
  39  144.1441
  40  108.1865
  41  192.6502
  42  138.1472
  43  106.5508
  44  142.275
  45  73.44799
  46  -49.70907
  47  104.1527
  48  55.17377
  49  64.99897
  50  207.2791
  51  362.6805
  52  378.648
  53  239.8591
  54  60.65312
  55  94.7666
  56  203.4543
  57  172.9119
  58  181.4782
  59  193.0104
  60  174.4095
  61  149.3109
  62  208.6621
  63  257.6315
  64  273.1102
  65  178.0907
  66  201.5823
  67  345.3235
  68  337.7824
  69  371.4266
  70  326.5519
  71  251.5772
  72  164.9272
  73  108.1356
  74  107.497
  75  179.7805
  76  240.244
  77  290.0462
  78  179.9738
  79  178.9225
  80  310.3898
  81  291.5715
  82  188.7872
  83  335.618
  84  410.5425
  85  269.7174
  86  368.4587
  87  316.6202
  88  288.1534
  89  284.0339
  90  110.5041
  91  126.6558
  92  153.4357
  93  258.8075
  94  184.2623
  95  201.8056
  96  237.4238
  97  218.069
  98  151.7839
  99  272.5567
 100  370.2203
 101  539.8024
 102  571.9185
 103  448.9412
 104  254.1447
 105  329.1761
 106  245.5682
 107  209.7909
 108  254.0321
 109  314.7932
 110  303.4464
 111  184.0837
 112  57.68919
 113  79.1548
 114  36.1407
 115  314.0064
 116  502.4356
 117  466.3692
 118  393.2504
 119  286.224
 120  167.1746
 121  126.6695
 122  128.8602
 123  316.5556
 124  354.4536
 125  154.7498
 126  259.0969
 127  178.0284
 128  137.9831
 129  152.9277
 130  148.1809
 131  196.2057
 132  256.3013
 133  235.2434
 134  394.8702
 135  236.848
 136  209.8042
 137  196.6508
 138  209.2069
 139  217.9379
 140  115.0072
 141  105.98
 142  247.215
 143  198.7938
 144  177.0045
 145  105.266
 146  104.1532
 147  203.0735
 148  165.9542
 149  321.3831
 150  333.7411
 151  252.7201
 152  328.3177
 153  291.9485
 154  241.2957
 155  189.7536
 156  212.4265
 157  120.6641
 158  150.0084
 159  265.9079
 160  123.8569
 161  155.2516
 162  225.4735
 163  251.7789
 164  227.7047
 165  303.1509
 166  480.1583
 167  462.0985
 168  404.4963
 169  202.0898
 170  140.4066
 171  148.371
 172  139.8578
 173  186.4761
 174  307.9089
 175  326.6682
 176  268.0818
 177  146.1827
 178  186.3484
 179  120.9127
 180  122.0584
 181  246.2308
 182  314.9056
 183  332.9536
 184  381.9892
 185  224.9304
 186  172.2914
 187  188.4051
 188  286.4245
 189  179.4746
 190  181.6565
 191  213.9133
 192  290.5896
 193  190.8025
 194  30.72553
 195  125.0305
 196  300.6512
 197  231.8974
 198  238.6857
 199  300.1961
 200  350.6351
 201  251.9775
 202  258.9186
 203  242.1299
 204  256.4325
 205  176.3571
 206  28.79158
 207  107.4932
 208  294.3432
 209  290.8609
 210  207.7524
 211  175.263
 212  222.8828
 213  43.43647
 214  92.4655
 215  230.1643
 216  359.723
 217  362.8366
 218  224.4987
 219  232.2606
 220  378.9413
 221  304.0181
 222  178.1263
 223  117.9381
 224  293.4184
 225  288.3397
 226  232.4895
 227  221.1429
 228  126.5356
 229  222.015
 230  338.108
 231  451.2521
 232  401.5952
 233  266.3271
 234  298.763
 235  341.2839
 236  268.7517
 237  270.9504
 238  319.1705
 239  206.2392
 240  156.709
 241  208.5411
 242  242.819
 243  188.8563
 244  75.95805
 245  67.43652
 246  209.5798
 247  245.9811
 248  247.1812
 249  393.4708
 250  400.1464
 251  421.9077
 252  204.1091
 253  182.656
 254  189.5493
 255  44.68134
 256  -8.318582
 257  132.55
 258  254.3085
 259  239.4021
 260  134.5179
 261  151.1407
 262  189.3758
 263  244.6687
 264  222.7647
 265  229.4627
 266  413.8695
 267  366.5784
 268  325.6783
 269  318.6136
 270  298.4972
 271  251.3553
 272  180.9192
 273  193.0844
 274  284.3592
 275  323.0871
 276  303.586
 277  202.5916
 278  249.2932
 279  236.0821
 280  230.956
 281  386.7053
 282  468.3326
 283  438.6684
 284  368.3315
 285  336.2368
 286  358.041
 287  274.5848
 288  230.2716
 289  258.4005
 290  346.2846
 291  267.8197
 292  177.0096
 293  136.7295
 294  139.8444
 295  235.2281
 296  210.2903
 297  259.6955
 298  289.5425
 299  472.9554
 300  392.0248
 301  349.8655
 302  276.8266
 303  175.3929
 304  187.9675
 305  135.3338
 306  45.01432
 307  168.345
 308  298.4546
 309  267.536
 310  188.0583
 311  291.0249
 312  275.1154
 313  165.5269
 314  358.819
 315  452.1284
 316  367.2633
 317  321.0322
 318  252.3108
 319  136.4257
 320  279.4395
 321  206.3754
 322  25.94916
 323  163.0616
 324  236.9543
 325  182.4495
 326  100.2761
 327  128.3617
 328  143.2196
 329  216.0389
 330  219.6457
 331  310.5716
 332  385.2692
 333  416.8646
 334  208.8166
 335  196.5678
 336  258.6432
 337  133.8701
 338  193.6977
 339  337.9579
 340  263.0457
 341  347.9362
 342  461.8461
 343  278.2336
 344  163.8477
 345  213.8096
 346  201.7027
 347  361.9769
 348  486.0233
 349  468.4263
 350  439.1843
 351  315.563
 352  275.7655
 353  139.5501
 354  147.0969
 355  89.93375
 356  153.7234
 357  232.6337
 358  111.6153
 359  102.2754
 360  148.9605
 361  54.39819
 362  123.2766
 363  304.0348
 364  444.1993
 365  385.5215
 366  458.1124
 367  422.5337
 368  228.8387
 369  104.625
 370  130.964
 371  172.3329
 372  216.7368
 373  319.4175
 374  317.7918
 375  198.2888
 376  128.1969
 377  76.77444
 378  56.6628
 379  191.2302
 380  225.2494
 381  306.1568
 382  458.2047
 383  318.7594
 384  180.4911
 385  108.8001
 386  90.50281
 387  135.8528
 388  180.8275
 389  274.9128
 390  249.9822
 391  313.1024
 392  159.8604
 393  69.82151
 394  101.0096
 395  160.5369
 396  139.1271
 397  167.6608
 398  423.981
 399  438.4821
 400  164.2214
 401  39.01165
 402  121.3619
 403  237.8989
 404  194.2248
 405  151.6897
 406  247.8773
 407  228.1605
 408  162.6138
 409  199.0081
 410  257.2029
 411  212.7144
 412  149.1799
 413  206.1607
 414  374.2341
 415  335.7771
 416  363.6972
 417  360.5842
 418  143.4198
 419  68.91603
 420  174.8032
 421  140.2086
 422  228.0988
 423  189.5261
 424  167.0259
 425  294.3969
 426  85.13049
 427  107.4152
 428  211.4146
 429  252.9152
 430  288.5211
 431  442.862
 432  363.7208
 433  336.6747
 434  275.7964
 435  302.665
 436  202.7161
 437  202.0831
 438  219.0175
 439  143.9073
 440  195.2948
 441  184.3087
 442  222.7724
 443  117.3065
 444  122.9128
 445  153.6355
 446  244.4431
 447  409.5823
 448  428.6347
 449  262.2263
 450  110.1313
 451  224.4096
 452  142.8095
 453  102.643
 454  102.1875
 455  41.30516
 456  107.9974
 457  177.5864
 458  127.6547
 459  35.13425
 460  87.45486
 461  157.1217
 462  84.07341
 463  188.2703
 464  292.9886
 465  288.8268
 466  213.2049
 467  48.07625
 468  127.6666
 469  116.5231
 470  -29.7442
 471  -45.71838
 472  82.99956
 473  139.2613
 474  34.00412
 475  -38.86958
 476  28.87527
 477  120.8949
 478  106.6313
 479  178.2129
 480  149.4462
 481  306.5427
 482  241.6287
 483  222.9654
 484  250.0994
 485  180.8266
 486  13.36659
 487  -38.1228
 488  73.86946
 489  147.6738
 490  157.0341
 491  248.9794
 492  348.0317
 493  253.3035
 494  191.7812
 495  255.2984
 496  211.2418
 497  175.5833
 498  189.3578
 499  145.5302
 500  116.4483
 501  197.8488
 502  227.8918
 503  186.3777
 504  126.6111
 505  272.429
 506  211.8141
 507  243.9521
 508  222.8495
 509  521.9318
 510  696.382
 511  875.2519
