# Input file       =  1204382832.118454_cleaned.dat
# Candidate        =  PSR_0332+5434
# Telescope        =  AR
# Epoch_topo       =  58183.616332389516
# Epoch_bary       =  N/A
# T_sample         =  0.002
# Data Folded      =  7340032
# Data Avg         =  0.318051933508416
# Data StdDev      =  15.826011191118  
# Profile Bins     =  256
# Profile Avg      =  9119.88169890221 
# Profile StdDev   =  2679.78815090069 
# Reduced chi-sqr  =  0.823
# Prob(Noise)      <  0.982   (~0.0 sigma)
# P_topo (ms)      =  714.579858705857  +/- 0.00057
# P'_topo (s/s)    =  -0                +/- 3.01e-10
# P''_topo (s/s^2) =  0                 +/- 1.33e-13
# P_bary (ms)      =  N/A
# P'_bary (s/s)    =  N/A
# P''_bary (s/s^2) =  N/A
# P_orb (s)        =  N/A
# asin(i)/c (s)    =  N/A
# eccentricity     =  N/A
# w (rad)          =  N/A
# T_peri           =  N/A
######################################################
   0  9386.079
   1  11733.4
   2  8851.771
   3  8070.637
   4  10745.78
   5  9065.697
   6  9219.959
   7  9079.889
   8  7724.281
   9  7873.362
  10  9441.962
  11  9780.897
  12  10444.51
  13  7817.699
  14  6985.836
  15  7394.233
  16  8682.715
  17  8383.228
  18  8616.501
  19  7302.797
  20  8742.73
  21  10676.72
  22  12315.26
  23  10486.89
  24  9330.736
  25  11757.95
  26  11763.04
  27  9292.826
  28  11432.02
  29  10995.9
  30  11680.78
  31  15723.44
  32  13075.33
  33  11266.68
  34  10730.79
  35  12518.16
  36  11114.34
  37  10520.23
  38  12258.24
  39  11918.3
  40  10111.45
  41  9590.086
  42  7467.858
  43  8297.142
  44  8191.621
  45  8365.792
  46  11092.25
  47  13327.27
  48  11761.53
  49  13623.47
  50  12078.4
  51  12352.23
  52  10798.19
  53  7542.784
  54  4830.86
  55  7198.632
  56  5352.32
  57  7265.484
  58  6538.668
  59  9642.798
  60  9896.29
  61  10152.54
  62  11811.36
  63  10765.36
  64  9432.479
  65  8957.577
  66  5668.746
  67  7356.986
  68  8189.182
  69  6057.505
  70  6812.376
  71  9174.941
  72  11866.88
  73  6095.788
  74  6463.934
  75  11650.8
  76  9879.199
  77  7735.451
  78  9681.473
  79  10952.66
  80  10317.67
  81  8215.521
  82  8643.299
  83  10018.69
  84  8027.552
  85  6097.541
  86  8671.834
  87  10022.39
  88  9265.771
  89  7064.276
  90  6168.301
  91  6786.839
  92  6669.978
  93  6616.557
  94  6695.565
  95  9015.62
  96  8407.621
  97  10280.33
  98  6702.465
  99  8709.43
 100  7777.33
 101  6267.328
 102  8230.449
 103  6107.918
 104  4994.585
 105  6771.789
 106  4209.67
 107  5545.455
 108  5991.858
 109  7514.812
 110  8023.176
 111  6925.168
 112  7520.965
 113  8359.104
 114  6419.972
 115  6401.06
 116  5579.08
 117  5936.951
 118  6358.413
 119  3473.795
 120  8189.11
 121  9639.854
 122  6690.973
 123  7884.463
 124  10562.33
 125  9858.271
 126  8918.45
 127  9008.152
 128  9802.507
 129  9209.796
 130  8672.91
 131  8896.766
 132  7350.346
 133  9255.787
 134  10224.35
 135  6936.245
 136  7643.562
 137  9276.56
 138  10540.04
 139  10250.33
 140  9473.148
 141  9287.266
 142  7777.515
 143  9451.9
 144  8737.546
 145  9265.044
 146  9641.451
 147  9034.585
 148  8247.551
 149  7582.828
 150  13962.55
 151  11635.57
 152  11098.57
 153  13925.8
 154  11961.76
 155  11321.86
 156  10364.88
 157  11612.18
 158  10057.02
 159  10917.91
 160  11346.83
 161  8476.215
 162  8855.964
 163  9366.992
 164  7571.332
 165  9415.16
 166  10022.92
 167  6225.052
 168  6729.613
 169  8272.611
 170  7223.534
 171  6133.672
 172  6449.728
 173  7786.147
 174  8553.384
 175  8306.768
 176  10065.31
 177  6663.369
 178  8535.367
 179  7810.687
 180  7400.388
 181  8389.961
 182  8133.435
 183  8457.866
 184  8413.151
 185  8028.667
 186  7288.233
 187  6636.954
 188  7061.992
 189  8576.216
 190  10104.43
 191  8840.95
 192  8868.572
 193  10274.26
 194  10425.83
 195  10810.3
 196  11383.06
 197  11056.4
 198  15022.08
 199  12561.24
 200  8477.415
 201  10998.53
 202  11110.58
 203  10907.36
 204  8789.4
 205  9746.836
 206  10781.78
 207  8854.139
 208  7141.547
 209  10645.59
 210  10557.5
 211  7845.268
 212  9826.978
 213  8992.701
 214  8254.609
 215  5602.068
 216  7923.693
 217  7338.938
 218  5812.426
 219  6709.01
 220  7716.03
 221  7856.806
 222  8930.784
 223  9601.095
 224  12235.08
 225  9846.058
 226  11448.51
 227  11455.9
 228  12020.36
 229  7576.164
 230  10183.1
 231  9432.696
 232  11128.9
 233  10710.74
 234  10541.78
 235  11191.1
 236  10209.49
 237  12526.04
 238  14220.64
 239  16649.39
 240  13862.59
 241  12569.37
 242  8682.333
 243  10286.89
 244  9596.026
 245  6492.708
 246  8965.174
 247  8852.819
 248  8978.794
 249  10487.13
 250  9132.755
 251  6526.351
 252  7808.532
 253  9954.438
 254  9682.626
 255  6263.729
