# Input file       =  1204893568.118315_cleaned.dat
# Candidate        =  PSR_0332+5434
# Telescope        =  AR
# Epoch_topo       =  58189.527628684198
# Epoch_bary       =  N/A
# T_sample         =  0.002
# Data Folded      =  7340032
# Data Avg         =  0.497925515791782
# Data StdDev      =  6.28346375967871 
# Profile Bins     =  256
# Profile Avg      =  14275.6657467919 
# Profile StdDev   =  1063.96687873259 
# Reduced chi-sqr  =  1.047
# Prob(Noise)      <  0.29   (~0.6 sigma)
# P_topo (ms)      =  714.57835924074   +/- 0.000727
# P'_topo (s/s)    =  -0                +/- 3.84e-10
# P''_topo (s/s^2) =  0                 +/- 1.69e-13
# P_bary (ms)      =  N/A
# P'_bary (s/s)    =  N/A
# P''_bary (s/s^2) =  N/A
# P_orb (s)        =  N/A
# asin(i)/c (s)    =  N/A
# eccentricity     =  N/A
# w (rad)          =  N/A
# T_peri           =  N/A
######################################################
   0  14814.29
   1  14690.11
   2  14325.12
   3  14782.17
   4  15454.16
   5  15022.82
   6  14708.78
   7  14580.46
   8  13975.74
   9  14040.41
  10  14324.15
  11  13475.91
  12  13829.58
  13  13883.3
  14  14010.94
  15  14910
  16  14819.3
  17  14181.09
  18  14308.31
  19  14079.21
  20  14070.55
  21  13986.62
  22  14306.3
  23  14172
  24  13878.35
  25  14146.95
  26  14704
  27  14850.34
  28  13859.05
  29  14567.56
  30  14752.92
  31  15243.67
  32  15039.68
  33  14648.94
  34  14095.53
  35  15211.05
  36  15244.33
  37  14546.07
  38  15699.32
  39  15072.07
  40  14978.94
  41  15244.39
  42  14749.3
  43  14743.93
  44  13969.65
  45  14181.55
  46  15016.78
  47  15755.58
  48  15404.25
  49  14330.66
  50  13281.77
  51  13973.65
  52  12751.32
  53  13133.37
  54  13164.73
  55  12737.05
  56  12906.06
  57  13210.14
  58  13256.21
  59  14043.51
  60  13585.03
  61  13182.81
  62  13250.76
  63  13354.27
  64  13348.96
  65  14148.31
  66  13744.34
  67  13216.6
  68  13568.91
  69  14030.04
  70  13455.99
  71  12987.41
  72  13746.21
  73  13891.76
  74  13740.77
  75  14804.43
  76  14462.31
  77  14999.07
  78  14160
  79  14457.96
  80  14658.86
  81  15582.45
  82  15597.97
  83  15245.02
  84  15451.15
  85  14802.07
  86  13831.81
  87  13895.47
  88  14052.29
  89  14125.27
  90  13309.85
  91  14010.02
  92  14433.58
  93  14894.89
  94  14220.13
  95  13884.1
  96  14256.37
  97  14196.75
  98  14028.41
  99  13862.55
 100  13614.71
 101  13581.3
 102  13588.99
 103  13946.44
 104  14473.05
 105  14059.36
 106  14155.59
 107  13810.65
 108  13856.93
 109  14001.51
 110  14450.68
 111  14290.01
 112  13778.82
 113  14295.48
 114  14149.31
 115  13864.06
 116  13442.01
 117  13965.74
 118  14614.15
 119  15278.58
 120  14890.92
 121  15124.79
 122  14895.99
 123  15262.96
 124  13997.62
 125  13393.32
 126  13511.98
 127  14687.8
 128  13700.1
 129  13216.36
 130  13789.68
 131  13530.81
 132  13945.3
 133  13709.78
 134  13511
 135  13768.84
 136  13139
 137  12608.34
 138  12908.02
 139  13074.33
 140  13812.76
 141  13714.25
 142  13519.93
 143  14539.01
 144  14076.29
 145  14820.12
 146  13988.88
 147  14235.28
 148  14711.71
 149  14997.22
 150  15562.13
 151  17176.43
 152  18038.25
 153  16635.96
 154  15064.46
 155  14574.06
 156  14513.11
 157  14903.8
 158  15394.22
 159  14658.54
 160  14941.38
 161  15447.92
 162  14644.32
 163  14839.89
 164  14397.77
 165  14749.6
 166  14658.52
 167  15236.49
 168  15432.62
 169  16114.3
 170  16308.2
 171  16517.63
 172  16918.43
 173  16907.68
 174  16560.78
 175  17216.31
 176  16977.02
 177  16887.4
 178  16311.18
 179  16146.42
 180  15789.99
 181  16068.62
 182  15265.58
 183  14913.45
 184  15052.64
 185  14644.78
 186  14369.36
 187  14123.43
 188  13398.96
 189  13248.57
 190  13025.78
 191  12643.86
 192  13147.99
 193  12505.77
 194  13131.63
 195  13959.87
 196  13856.85
 197  13826.74
 198  13591.49
 199  13975.26
 200  14194.54
 201  14156.5
 202  13554.41
 203  14240.59
 204  14163.53
 205  14458.27
 206  14065.34
 207  14150.53
 208  14451.01
 209  14341.14
 210  13942.01
 211  13612.95
 212  14156.31
 213  14358.38
 214  14786.12
 215  14721.11
 216  14673.28
 217  14420.63
 218  13940.3
 219  13809.23
 220  13972.85
 221  13997.98
 222  13495.03
 223  13359.02
 224  13942.45
 225  13999.88
 226  14611.38
 227  14430.5
 228  14989.09
 229  14795.27
 230  14512.32
 231  14128.03
 232  14952.95
 233  14353.96
 234  13692.79
 235  13839.83
 236  13362.87
 237  13268.23
 238  14181.14
 239  13649.32
 240  13466.89
 241  12954.05
 242  12030.6
 243  12731.56
 244  12653.21
 245  12880.91
 246  13540.75
 247  12751.99
 248  13012.08
 249  13026.14
 250  12855.68
 251  12644.35
 252  12843.11
 253  13234.54
 254  13860.51
 255  14158.81
