# Input file       =  1204822943.102232-PSRB0329-2ms-sampling-dd.dat
# Candidate        =  PSR_0332+5434
# Telescope        =  AR
# Epoch_topo       =  58188.710209516576
# Epoch_bary       =  N/A
# T_sample         =  0.002
# Data Folded      =  7340032
# Data Avg         =  3.2423988579409e-10
# Data StdDev      =  7.96240902783046 
# Profile Bins     =  512
# Profile Avg      =  0.187945071851709
# Profile StdDev   =  953.363409775915 
# Reduced chi-sqr  =  0.660
# Prob(Noise)      <  1   (~0.0 sigma)
# P_topo (ms)      =  714.578936794707  +/- 0.000541
# P'_topo (s/s)    =  -0                +/- 2.86e-10
# P''_topo (s/s^2) =  0                 +/- 1.26e-13
# P_bary (ms)      =  N/A
# P'_bary (s/s)    =  N/A
# P''_bary (s/s^2) =  N/A
# P_orb (s)        =  N/A
# asin(i)/c (s)    =  N/A
# eccentricity     =  N/A
# w (rad)          =  N/A
# T_peri           =  N/A
######################################################
   0  -589.6198
   1  -807.6925
   2  -350.9211
   3  80.56107
   4  70.35938
   5  238.8093
   6  11.32384
   7  -171.6276
   8  -121.0176
   9  -167.1041
  10  50.98546
  11  -178.8228
  12  -382.9003
  13  -532.3477
  14  -916.6596
  15  -644.9861
  16  -426.8206
  17  -322.6923
  18  -502.6461
  19  -253.9943
  20  138.1042
  21  14.64356
  22  -559.2173
  23  -534.5739
  24  8.899113
  25  -73.68842
  26  -71.11646
  27  -6.550205
  28  273.4295
  29  501.4229
  30  597.632
  31  710.5153
  32  397.4615
  33  23.31702
  34  378.6831
  35  743.1614
  36  846.0825
  37  643.0884
  38  6.754767
  39  -35.53392
  40  160.0914
  41  -48.01032
  42  -597.3276
  43  117.7608
  44  612.3572
  45  68.96258
  46  382.5268
  47  543.8327
  48  122.4729
  49  -348.2926
  50  -339.5432
  51  -208.8167
  52  -289.6926
  53  86.69844
  54  150.6837
  55  -53.74062
  56  118.8211
  57  84.4497
  58  -20.6585
  59  137.3183
  60  491.4264
  61  566.6183
  62  705.2535
  63  581.9333
  64  908.0331
  65  1175.598
  66  666.5252
  67  394.6953
  68  321.7426
  69  215.6416
  70  -124.7178
  71  184.1115
  72  632.392
  73  495.001
  74  748.6197
  75  919.8176
  76  895.873
  77  1161.72
  78  432.7332
  79  620.7849
  80  369.9535
  81  45.70704
  82  -23.92879
  83  126.5712
  84  276.746
  85  313.6085
  86  100.3723
  87  50.90116
  88  -114.0809
  89  -199.8331
  90  7.632836
  91  -106.3375
  92  348.2465
  93  167.7895
  94  460.9602
  95  821.8867
  96  471.1129
  97  609.3761
  98  485.5791
  99  188.997
 100  317.0949
 101  733.3837
 102  1108.398
 103  835.5474
 104  397.2409
 105  681.9968
 106  677.1362
 107  591.0623
 108  421.4362
 109  58.02561
 110  -337.6951
 111  -390.1042
 112  -790.9575
 113  -597.9294
 114  -222.3297
 115  -64.31857
 116  -169.5527
 117  -328.8847
 118  106.4111
 119  113.7899
 120  -246.7286
 121  -283.2444
 122  -274.8379
 123  -120.7559
 124  513.7391
 125  831.3806
 126  872.2802
 127  1073.254
 128  374.6749
 129  338.9415
 130  530.6678
 131  631.2913
 132  211.8654
 133  506.5129
 134  771.543
 135  -1.06921
 136  -136.5544
 137  -79.90733
 138  -257.7127
 139  -65.32748
 140  1033.934
 141  1233.773
 142  1417.384
 143  1597.641
 144  1785.842
 145  1453.871
 146  1249.854
 147  905.8297
 148  300.389
 149  295.2309
 150  442.2638
 151  702.2739
 152  259.1721
 153  32.93264
 154  65.98711
 155  -376.1916
 156  -452.1845
 157  41.22642
 158  671.8897
 159  546.5114
 160  290.2719
 161  82.55296
 162  -285.6584
 163  -356.6731
 164  -361.6161
 165  -493.9283
 166  -617.0085
 167  -633.4953
 168  -526.6691
 169  -362.0065
 170  -703.5099
 171  -666.2437
 172  -683.0838
 173  -227.7025
 174  224.024
 175  1.335063
 176  -249.8695
 177  -611.0789
 178  -687.3039
 179  -646.1219
 180  -202.8279
 181  121.8909
 182  -248.0013
 183  -27.03853
 184  16.42242
 185  -422.9352
 186  -1038.86
 187  -496.2842
 188  -443.2738
 189  -31.03677
 190  -60.02283
 191  90.38515
 192  -49.48678
 193  -170.4902
 194  -115.4386
 195  -381.394
 196  -492.4158
 197  -363.4591
 198  -157.1053
 199  565.6473
 200  774.7157
 201  242.9921
 202  -440.9482
 203  -604.9347
 204  -413.7297
 205  -153.2571
 206  248.5271
 207  155.7627
 208  193.5653
 209  168.1578
 210  -339.5384
 211  -494.6868
 212  -957.7654
 213  -715.9331
 214  -769.8794
 215  -818.8843
 216  -606.3071
 217  -663.4254
 218  -616.1496
 219  -727.6053
 220  -863.7709
 221  -824.0458
 222  -1087.344
 223  -774.7908
 224  -553.6375
 225  -315.8135
 226  -268.7046
 227  -527.8426
 228  -478.0087
 229  -766.8395
 230  -359.6913
 231  -109.4272
 232  130.8195
 233  8.262819
 234  -353.555
 235  -10.58243
 236  101.1771
 237  473.7069
 238  769.6815
 239  599.2506
 240  845.9236
 241  295.3764
 242  1769.147
 243  1511.625
 244  1695.514
 245  1442.034
 246  457.3844
 247  -46.11633
 248  -434.1129
 249  -414.6447
 250  -486.3697
 251  -301.8058
 252  -168.0763
 253  -342.5923
 254  -184.3978
 255  -461.0668
 256  -786.8799
 257  -370.781
 258  -230.8567
 259  157.7814
 260  270.7265
 261  99.45531
 262  -219.8761
 263  -677.8345
 264  -691.0087
 265  -554.6136
 266  140.6262
 267  -181.2998
 268  -502.1865
 269  -447.9424
 270  -220.5572
 271  -408.9907
 272  -164.3646
 273  204.7097
 274  4.122698
 275  -297.1964
 276  -343.9942
 277  163.9669
 278  80.92467
 279  -178.1578
 280  -32.98209
 281  -77.5741
 282  -66.60943
 283  -318.3567
 284  -35.56556
 285  -227.5033
 286  5.096739
 287  -231.5299
 288  -1026.83
 289  -709.3515
 290  -236.45
 291  -489.7728
 292  -354.8966
 293  28.77788
 294  -105.9179
 295  -700.3745
 296  -864.6998
 297  -519.6812
 298  -625.2487
 299  -715.7801
 300  -766.6148
 301  -1034.354
 302  -800.5035
 303  -685.3455
 304  -437.8299
 305  -958.0087
 306  -1072.508
 307  -1021.183
 308  -751.2261
 309  -702.4635
 310  -536.9916
 311  -76.72844
 312  -320.8982
 313  -309.3693
 314  -670.1664
 315  -382.1254
 316  -544.9177
 317  -1115.792
 318  -290.6805
 319  -203.3545
 320  -298.8402
 321  -696.5729
 322  156.3792
 323  818.1544
 324  1212.183
 325  1360.359
 326  623.9257
 327  483.7721
 328  535.116
 329  2003.169
 330  2593.287
 331  2729.254
 332  1520.777
 333  444.7213
 334  -175.8612
 335  -353.2113
 336  -302.6343
 337  -121.0674
 338  -96.65543
 339  -156.972
 340  170.2346
 341  101.5625
 342  205.9651
 343  -94.50671
 344  185.5879
 345  339.3149
 346  190.674
 347  -190.2005
 348  292.0576
 349  173.9144
 350  -37.67395
 351  10.63642
 352  425.4729
 353  489.2575
 354  64.26216
 355  -401.3951
 356  -189.5494
 357  -225.1241
 358  -188.1835
 359  -231.0471
 360  -138.3603
 361  -206.4997
 362  -650.7845
 363  -724.758
 364  -404.5069
 365  216.1137
 366  491.9995
 367  -23.10368
 368  -571.2077
 369  -661.8333
 370  -732.2618
 371  -347.0342
 372  -331.3456
 373  -276.4225
 374  -154.4458
 375  453.6049
 376  413.131
 377  -44.85944
 378  127.2411
 379  -109.4581
 380  -487.3798
 381  -490.0819
 382  -527.0577
 383  -660.3584
 384  -662.9066
 385  -463.7125
 386  -649.2596
 387  -284.2936
 388  -161.0245
 389  -291.2069
 390  -875.7771
 391  -703.3337
 392  -263.6319
 393  -569.4299
 394  -213.2559
 395  -515.7825
 396  -833.3689
 397  -737.5765
 398  -917.0753
 399  -925.3041
 400  -855.6285
 401  -284.926
 402  -394.5523
 403  -810.2911
 404  -1178.544
 405  -581.3695
 406  -393.8618
 407  -482.0673
 408  -154.0635
 409  47.59466
 410  -315.8949
 411  -401.8072
 412  -647.8566
 413  -727.7493
 414  -493.0544
 415  -17.71114
 416  542.7913
 417  332.726
 418  390.4104
 419  -104.2378
 420  141.8614
 421  -106.8246
 422  779.1536
 423  877.6373
 424  886.4296
 425  716.8658
 426  226.5557
 427  -30.84995
 428  -406.3728
 429  101.7582
 430  -89.62458
 431  -229.2111
 432  -63.93418
 433  182.6671
 434  453.0586
 435  -418.5156
 436  -367.8101
 437  -548.2485
 438  -558.2633
 439  -390.2267
 440  598.8076
 441  356.4109
 442  -283.3224
 443  -126.7576
 444  -164.8113
 445  -271.1968
 446  -275.1806
 447  310.1082
 448  -186.4651
 449  -32.8219
 450  -124.5545
 451  -140.352
 452  59.28189
 453  18.91258
 454  -226.3694
 455  -147.2556
 456  -71.80182
 457  -397.8817
 458  -699.4465
 459  -353.8193
 460  20.82501
 461  -332.0367
 462  -333.9353
 463  -106.348
 464  -71.93371
 465  138.8716
 466  76.39043
 467  384.387
 468  146.5487
 469  -134.4534
 470  166.2321
 471  108.0964
 472  97.24583
 473  653.832
 474  924.8171
 475  696.9051
 476  166.8143
 477  406.4291
 478  240.381
 479  360.6671
 480  415.7705
 481  340.692
 482  263.6949
 483  95.46951
 484  671.6911
 485  722.79
 486  690.0277
 487  613.5634
 488  954.7684
 489  1390.898
 490  852.3623
 491  812.0991
 492  702.9516
 493  706.6894
 494  788.301
 495  873.0628
 496  961.2819
 497  680.0895
 498  396.4314
 499  291.8081
 500  138.4491
 501  -160.6116
 502  -407.9458
 503  37.99474
 504  -368.4922
 505  -104.7262
 506  -403.002
 507  -364.8291
 508  -20.85391
 509  246.9319
 510  211.5256
 511  -38.16933
