# Input file       =  1204133086.10236_cleaned.dat
# Candidate        =  PSR_0332+5434
# Telescope        =  AR
# Epoch_topo       =  58180.725753499537
# Epoch_bary       =  N/A
# T_sample         =  0.002
# Data Folded      =  7340032
# Data Avg         =  0.164409558026819
# Data StdDev      =  5.77024451311245 
# Profile Bins     =  512
# Profile Avg      =  2356.98925426049 
# Profile StdDev   =  690.888896191329 
# Reduced chi-sqr  =  0.684
# Prob(Noise)      <  1   (~0.0 sigma)
# P_topo (ms)      =  714.580535197699  +/- 0.000674
# P'_topo (s/s)    =  -0                +/- 3.56e-10
# P''_topo (s/s^2) =  0                 +/- 1.57e-13
# P_bary (ms)      =  N/A
# P'_bary (s/s)    =  N/A
# P''_bary (s/s^2) =  N/A
# P_orb (s)        =  N/A
# asin(i)/c (s)    =  N/A
# eccentricity     =  N/A
# w (rad)          =  N/A
# T_peri           =  N/A
######################################################
   0  2533.52
   1  2426.176
   2  2544.615
   3  2544.913
   4  2467.841
   5  2633.16
   6  2180.148
   7  2198.249
   8  2597.065
   9  2467.03
  10  2488.029
  11  2434.614
  12  2405.041
  13  2197.595
  14  2044.049
  15  2292.883
  16  2315.527
  17  2193.398
  18  2109.41
  19  2246.909
  20  2303.845
  21  2619.76
  22  2549.83
  23  2171.242
  24  1951.44
  25  2101.482
  26  2007.837
  27  2243.77
  28  2599.59
  29  2198.42
  30  2318.426
  31  1929.597
  32  1986.058
  33  2126.449
  34  1977.925
  35  1855.058
  36  1776.955
  37  1842.994
  38  2319.442
  39  2376.307
  40  1875.353
  41  2056.081
  42  2349.495
  43  2362.038
  44  2253.171
  45  2080.448
  46  1736.175
  47  1631.06
  48  1972.699
  49  2034.086
  50  1556.835
  51  1778.586
  52  2287.513
  53  1876.534
  54  1501.151
  55  1188.431
  56  1424.098
  57  1863.253
  58  2035.636
  59  1734.145
  60  1320.023
  61  1327.61
  62  1739.968
  63  1545.501
  64  1531.327
  65  1579.051
  66  1530.378
  67  1457.31
  68  1206.774
  69  1433.764
  70  1735.446
  71  1597.755
  72  1752.389
  73  1732.11
  74  1409.268
  75  1805.148
  76  1885.061
  77  1692.415
  78  1934.289
  79  1679.417
  80  1979.743
  81  2004.951
  82  1744.182
  83  1459.118
  84  1362.171
  85  1455.415
  86  1667.017
  87  1810.213
  88  1850.446
  89  1594.796
  90  2014.52
  91  2151.127
  92  2260.409
  93  2522.353
  94  2267.073
  95  2098.088
  96  2589.009
  97  2777.406
  98  2396.133
  99  2446.048
 100  2841.028
 101  2504.252
 102  2717.192
 103  2961.123
 104  2705.983
 105  2275.413
 106  2260.977
 107  2349.577
 108  2340.349
 109  3189.6
 110  3118.152
 111  2864.928
 112  2703.455
 113  2321.3
 114  2530.552
 115  2536.966
 116  2449.044
 117  2583.901
 118  2669.003
 119  2522.568
 120  2095.014
 121  2280.298
 122  2495.785
 123  2302.007
 124  2802.057
 125  3080.606
 126  2967.386
 127  2452.569
 128  2399.369
 129  2268.599
 130  2212.419
 131  2637.034
 132  2645.999
 133  2770.23
 134  2634.212
 135  2467.737
 136  2504.594
 137  2597.175
 138  2875.234
 139  3252.805
 140  3107.548
 141  3033.578
 142  2521.063
 143  2285.843
 144  2609.018
 145  2676.326
 146  2606.232
 147  2272.356
 148  2254.048
 149  1966.463
 150  1813.913
 151  2266.976
 152  2408.837
 153  2500.369
 154  2418.023
 155  2332.898
 156  2158.342
 157  2098.483
 158  1478.76
 159  2103.059
 160  2312.231
 161  2304.165
 162  2429.933
 163  2460.559
 164  2168.083
 165  2321.963
 166  2105.693
 167  2182.361
 168  2092.936
 169  2015.162
 170  1925.71
 171  2206.075
 172  2435.453
 173  2303.644
 174  2047.09
 175  1947.476
 176  2065.312
 177  1912.137
 178  2002.252
 179  2178.113
 180  2375.471
 181  2701.166
 182  2818.707
 183  2627.594
 184  2326.075
 185  2289.629
 186  2135.532
 187  2298.257
 188  2272.241
 189  2272.404
 190  2226.362
 191  2640.936
 192  2458.926
 193  1933.535
 194  1661.842
 195  1511.89
 196  1925.951
 197  2072.233
 198  2389.528
 199  1940.502
 200  1657.081
 201  1871.249
 202  1548.163
 203  1685.352
 204  2186.985
 205  2162.416
 206  2163.778
 207  2059.054
 208  2222.124
 209  2266.261
 210  1940.96
 211  2141.648
 212  2353.132
 213  2403.585
 214  2053.387
 215  1471.646
 216  2207.785
 217  1854.807
 218  1789.333
 219  2107.145
 220  2187.17
 221  1993.888
 222  1867.448
 223  1778.767
 224  1899.841
 225  1882.829
 226  2318.392
 227  2395.047
 228  2227.869
 229  2068.902
 230  2168.019
 231  2276.271
 232  2353.756
 233  2508.724
 234  2751.87
 235  2051.49
 236  2368.011
 237  2065.252
 238  2169.823
 239  2165.166
 240  2355.218
 241  2631.987
 242  2544.577
 243  2511.887
 244  2426.887
 245  2436.651
 246  2557.333
 247  2663.087
 248  2626.7
 249  2482.975
 250  2621.814
 251  2494.547
 252  2553.557
 253  2460.894
 254  2951.435
 255  3083.757
 256  3177.344
 257  2747.917
 258  2250.706
 259  2389.606
 260  2635.016
 261  2518.25
 262  2440.528
 263  2326.718
 264  2460.453
 265  2484.146
 266  2248.408
 267  2130.713
 268  1844.923
 269  1965.884
 270  2367.563
 271  2237.114
 272  2469.681
 273  2494.409
 274  2500.796
 275  2625.892
 276  2313.806
 277  2582.778
 278  2942.904
 279  2678.431
 280  2747.057
 281  2768.931
 282  2709.879
 283  2228.569
 284  2100.795
 285  2595.928
 286  3004.885
 287  2791.442
 288  2432.832
 289  2414.274
 290  1855.598
 291  1765.168
 292  2113.045
 293  1967.96
 294  2045.402
 295  2276.825
 296  2450.953
 297  2472.474
 298  2212.104
 299  2393.027
 300  2441.678
 301  2487.812
 302  3056.637
 303  3668.26
 304  4131.322
 305  4562.418
 306  4179.888
 307  3649.812
 308  3067.776
 309  2806.254
 310  2614.176
 311  2467.174
 312  2620.029
 313  2449.552
 314  2378.518
 315  2220.203
 316  2724.147
 317  2217.921
 318  1748.345
 319  1926.669
 320  2010.768
 321  2530.088
 322  2421.209
 323  2589.797
 324  2702.631
 325  2634.301
 326  2346.811
 327  2234.527
 328  2305.159
 329  2574.344
 330  2523.911
 331  2185.595
 332  1778.617
 333  1801.965
 334  2120.013
 335  2102.297
 336  1989.191
 337  1837.269
 338  1941.219
 339  2249.732
 340  2245.824
 341  2466.001
 342  2333.396
 343  2908.835
 344  3043.643
 345  3217.373
 346  3033.194
 347  2650.244
 348  2884.7
 349  2878.802
 350  2789.913
 351  3139.65
 352  3068.281
 353  3303.799
 354  3104.428
 355  3006.056
 356  2928.184
 357  2548.399
 358  2744.144
 359  3049.952
 360  2790.121
 361  2683.802
 362  2511.738
 363  2655.215
 364  2473.318
 365  2399.829
 366  2121.18
 367  1932.545
 368  2361.572
 369  2705.19
 370  2530.139
 371  2292.401
 372  2054.97
 373  2281.095
 374  2411.149
 375  2450.951
 376  2046.732
 377  2072.668
 378  2222.584
 379  2281.218
 380  2225.635
 381  2087.332
 382  2088.867
 383  2015.85
 384  2131.89
 385  1958.496
 386  2527.209
 387  2665.111
 388  2535.052
 389  2353.21
 390  2306.235
 391  2238.414
 392  2440.231
 393  2426.786
 394  2323.959
 395  2295.99
 396  2575.892
 397  2735.826
 398  2745.957
 399  2795.13
 400  2756.553
 401  2611.795
 402  2116.202
 403  2556.031
 404  2356.612
 405  2752.8
 406  2809.163
 407  2628.472
 408  3104.706
 409  2883.646
 410  2400.467
 411  2565.652
 412  2651.348
 413  2747.68
 414  2437.937
 415  2313.076
 416  2098.836
 417  2229.24
 418  2418.825
 419  2597.55
 420  2611.767
 421  2389.604
 422  2626.911
 423  2564.082
 424  2365.918
 425  2376.011
 426  2425.065
 427  2823.703
 428  3215.575
 429  2719.808
 430  2472.554
 431  2500.871
 432  2345.408
 433  2403.057
 434  2728.529
 435  3086.93
 436  2817.928
 437  2664.992
 438  2515.568
 439  2545.296
 440  2683.287
 441  2462.061
 442  2538.413
 443  2612.061
 444  2034.006
 445  2248.277
 446  1992.509
 447  2291.719
 448  2383.654
 449  2704.696
 450  3224.064
 451  2976.787
 452  2667.513
 453  2404.223
 454  2640.148
 455  2679.527
 456  2822.054
 457  2444.213
 458  2401.14
 459  2603.079
 460  2778.869
 461  2581.073
 462  2329.886
 463  2384.043
 464  2549.298
 465  2348.425
 466  2258.724
 467  2476.864
 468  2396.16
 469  2251.558
 470  1997.91
 471  2474.496
 472  2776.412
 473  2502.302
 474  2555.153
 475  2174.113
 476  2121.053
 477  2154.506
 478  2081.513
 479  1978.594
 480  2104.95
 481  2324.051
 482  2435.711
 483  2447.594
 484  2469.689
 485  2249.668
 486  2051.651
 487  2527.889
 488  2334.014
 489  2512.452
 490  2435.098
 491  2254.948
 492  2679.676
 493  3150.985
 494  3146.647
 495  2982.379
 496  2723.358
 497  2379.43
 498  2457.187
 499  2533.68
 500  2750.142
 501  2772.33
 502  2344.876
 503  2426.8
 504  2102.934
 505  2328.305
 506  2428.865
 507  2699.691
 508  2793.676
 509  2690.186
 510  2332.127
 511  2151.391
