# Input file       =  1204397746.104123_cleaned.dat
# Candidate        =  PSR_0332+5434
# Telescope        =  AR
# Epoch_topo       =  58183.788947964385
# Epoch_bary       =  N/A
# T_sample         =  0.002
# Data Folded      =  7340032
# Data Avg         =  0.0213850949767003
# Data StdDev      =  1.00015812684419 
# Profile Bins     =  512
# Profile Avg      =  306.625339077975 
# Profile StdDev   =  119.751969383954 
# Reduced chi-sqr  =  1.359
# Prob(Noise)      <  1.06e-07   (~5.2 sigma)
# P_topo (ms)      =  714.58019870357   +/- 0.000145
# P'_topo (s/s)    =  -0                +/- 7.65e-11
# P''_topo (s/s^2) =  0                 +/- 3.38e-14
# P_bary (ms)      =  N/A
# P'_bary (s/s)    =  N/A
# P''_bary (s/s^2) =  N/A
# P_orb (s)        =  N/A
# asin(i)/c (s)    =  N/A
# eccentricity     =  N/A
# w (rad)          =  N/A
# T_peri           =  N/A
######################################################
   0  933.5583
   1  987.1805
   2  742.7864
   3  479.2703
   4  323.6311
   5  298.2205
   6  300.9294
   7  334.6949
   8  378.4072
   9  448.3661
  10  464.8727
  11  302.1478
  12  313.0026
  13  387.4026
  14  424.5158
  15  263.6945
  16  243.9661
  17  361.6382
  18  255.0526
  19  228.7049
  20  249.3782
  21  268.4567
  22  273.106
  23  240.3261
  24  299.687
  25  219.9677
  26  191.1077
  27  280.0896
  28  189.4174
  29  158.227
  30  258.4108
  31  362.6658
  32  282.6407
  33  258.5653
  34  305.8849
  35  222.0738
  36  61.34918
  37  270.6511
  38  272.3109
  39  340.9551
  40  298.6923
  41  268.386
  42  262.774
  43  289.9974
  44  313.9755
  45  323.8284
  46  239.9484
  47  337.6756
  48  461.0815
  49  282.8173
  50  363.5479
  51  373.3289
  52  349.203
  53  398.4444
  54  382.1289
  55  496.4465
  56  380.0173
  57  368.02
  58  396.7342
  59  467.1622
  60  435.249
  61  389.4817
  62  340.7305
  63  376.886
  64  401.0219
  65  238.6962
  66  314.5956
  67  301.6071
  68  288.7308
  69  362.1731
  70  404.8705
  71  193.7445
  72  157.3964
  73  225.99
  74  380.402
  75  261.6781
  76  187.1129
  77  319.5891
  78  236.2833
  79  216.1785
  80  222.5176
  81  198.8143
  82  292.7944
  83  320.9873
  84  282.4265
  85  278.9548
  86  371.3379
  87  419.6516
  88  493.1955
  89  406.545
  90  300.6994
  91  272.4521
  92  259.865
  93  328.741
  94  276.0429
  95  351.9699
  96  265.3574
  97  266.4426
  98  314.6711
  99  269.6926
 100  243.1806
 101  281.6959
 102  259.6094
 103  289.0733
 104  397.5964
 105  508.5495
 106  307.3282
 107  216.3116
 108  313.6226
 109  307.5557
 110  337.35
 111  327.3864
 112  355.0601
 113  387.4721
 114  299.8456
 115  256.1033
 116  193.2214
 117  267.7666
 118  303.5775
 119  360.4612
 120  335.7342
 121  415.1505
 122  272.4938
 123  120.3512
 124  229.8895
 125  320.5069
 126  369.2676
 127  243.0229
 128  333.4508
 129  470.7935
 130  365.4147
 131  136.8181
 132  183.5186
 133  258.944
 134  277.0079
 135  252.1111
 136  332.0797
 137  287.6921
 138  303.0854
 139  294.6573
 140  358.1102
 141  378.3663
 142  175.9918
 143  269.8351
 144  274.1083
 145  132.7608
 146  322.9851
 147  400.968
 148  420.3998
 149  358.4338
 150  188.6484
 151  144.023
 152  126.8179
 153  338.2762
 154  401.4995
 155  418.5356
 156  283.4954
 157  311.4628
 158  339.2191
 159  321.0427
 160  306.8305
 161  286.8273
 162  272.1757
 163  230.7917
 164  340.8484
 165  237.8729
 166  192.2989
 167  297.3609
 168  329.997
 169  275.3045
 170  186.6235
 171  275.4244
 172  227.3598
 173  379.6898
 174  404.8248
 175  390.4202
 176  264.3567
 177  151.2391
 178  182.8861
 179  244.6422
 180  317.7795
 181  293.61
 182  258.1675
 183  300.8907
 184  335.2467
 185  308.7602
 186  270.3092
 187  216.9112
 188  349.1798
 189  351.0475
 190  362.4606
 191  374.8544
 192  304.7882
 193  407.3256
 194  462.265
 195  378.4106
 196  304.786
 197  253.2164
 198  259.2881
 199  391.9013
 200  476.7105
 201  494.9554
 202  358.2072
 203  303.727
 204  356.4885
 205  438.6806
 206  295.6996
 207  348.7802
 208  426.8329
 209  374.8674
 210  314.7176
 211  282.2389
 212  323.887
 213  173.0467
 214  321.1405
 215  406.7959
 216  215.2983
 217  224.4118
 218  316.0679
 219  429.4844
 220  431.717
 221  326.1656
 222  366.0953
 223  503.7424
 224  469.594
 225  289.5435
 226  344.7487
 227  384.3913
 228  265.4726
 229  237.5396
 230  306.549
 231  296.7771
 232  353.5703
 233  314.2799
 234  274.467
 235  240.1914
 236  114.1915
 237  167.371
 238  315.3173
 239  302.9015
 240  301.5457
 241  295.0416
 242  248.2742
 243  233.969
 244  274.8016
 245  217.3991
 246  211.0357
 247  346.5921
 248  339.161
 249  314.5938
 250  379.8705
 251  339.8563
 252  296.8012
 253  390.5587
 254  331.657
 255  216.0424
 256  260.6049
 257  367.1164
 258  282.6743
 259  171.6224
 260  186.9581
 261  76.46704
 262  151.5704
 263  135.8625
 264  336.0221
 265  262.9467
 266  296.4816
 267  302.4777
 268  348.4874
 269  398.6133
 270  337.9442
 271  267.181
 272  312.8002
 273  358.6035
 274  357.5631
 275  225.9487
 276  236.2897
 277  315.5547
 278  219.8421
 279  327.1115
 280  356.8621
 281  278.7838
 282  211.0397
 283  312.0807
 284  363.1722
 285  452.6094
 286  415.2733
 287  339.1732
 288  327.7318
 289  386.79
 290  300.4734
 291  260.6616
 292  412.2726
 293  506.2981
 294  448.4645
 295  454.5711
 296  419.7197
 297  404.5473
 298  320.15
 299  308.8523
 300  394.0297
 301  427.7256
 302  408.4422
 303  320.7379
 304  275.5227
 305  207.7569
 306  258.0992
 307  274.0065
 308  256.9407
 309  235.9123
 310  114.419
 311  183.6636
 312  259.931
 313  256.8931
 314  350.1707
 315  393.9982
 316  220.0399
 317  245.4427
 318  294.3119
 319  298.3125
 320  339.7271
 321  329.0651
 322  329.3173
 323  248.027
 324  166.6059
 325  253.4554
 326  194.9574
 327  324.7992
 328  349.9972
 329  353.554
 330  316.1354
 331  263.7981
 332  157.1896
 333  213.1498
 334  202.4887
 335  202.259
 336  266.769
 337  245.9088
 338  327.9297
 339  325.2649
 340  225.8884
 341  164.5421
 342  221.8906
 343  308.6802
 344  318.6096
 345  272.2346
 346  94.68014
 347  256.6995
 348  300.4552
 349  277.1106
 350  338.1251
 351  299.867
 352  273.8549
 353  242.195
 354  309.0036
 355  210.6644
 356  239.7482
 357  388.3946
 358  387.6533
 359  330.2513
 360  366.8467
 361  374.6723
 362  279.1021
 363  229.4193
 364  227.484
 365  320.8342
 366  314.8499
 367  254.6323
 368  378.6901
 369  288.5089
 370  272.6738
 371  227.6747
 372  257.3899
 373  278.3601
 374  299.2034
 375  444.2762
 376  289.9889
 377  273.761
 378  297.0243
 379  275.8367
 380  301.9053
 381  387.8522
 382  334.0943
 383  305.3219
 384  274.9192
 385  304.5701
 386  339.7917
 387  348.1851
 388  310.7541
 389  346.1558
 390  366.0332
 391  288.8481
 392  257.2795
 393  283.6583
 394  359.6664
 395  374.3132
 396  293.6233
 397  336.0046
 398  337.6672
 399  301.4684
 400  231.8493
 401  140.7657
 402  236.8085
 403  212.3062
 404  223.1415
 405  221.1333
 406  215.9427
 407  239.2483
 408  169.9801
 409  185.0028
 410  262.8636
 411  286.3258
 412  275.8688
 413  365.2789
 414  350.2668
 415  305.5521
 416  238.4235
 417  322.4397
 418  300.8937
 419  426.4113
 420  255.9435
 421  188.9748
 422  279.0829
 423  390.2639
 424  359.1271
 425  179.8297
 426  190.1313
 427  268.1666
 428  249.403
 429  187.7227
 430  200.5634
 431  111.9176
 432  223.9201
 433  299.9739
 434  336.5064
 435  364.6983
 436  349.9104
 437  221.3681
 438  123.6233
 439  192.0278
 440  323.9658
 441  377.7198
 442  244.1983
 443  150.5607
 444  264.6402
 445  319.1885
 446  351.5096
 447  273.0379
 448  260.3953
 449  267.3023
 450  258.3166
 451  360.8658
 452  254.086
 453  241.5323
 454  201.6093
 455  323.7607
 456  396.2713
 457  92.41575
 458  149.1992
 459  343.0496
 460  294.4756
 461  145.8548
 462  134.3298
 463  281.56
 464  418.2881
 465  364.5453
 466  362.4403
 467  266.0373
 468  407.2423
 469  400.0486
 470  286.5522
 471  318.1663
 472  308.5698
 473  234.1516
 474  348.1928
 475  421.7022
 476  182.6535
 477  293.9834
 478  321.6254
 479  405.8514
 480  436.2194
 481  330.9787
 482  231.5528
 483  182.2999
 484  264.6293
 485  348.6444
 486  386.9305
 487  132.0312
 488  119.237
 489  173.3638
 490  289.0954
 491  349.2805
 492  378.4429
 493  414.5278
 494  191.1774
 495  199.3634
 496  265.7228
 497  315.1997
 498  284.891
 499  243.0494
 500  395.1266
 501  430.1654
 502  338.9428
 503  330.9398
 504  376.6598
 505  372.6671
 506  449.6771
 507  480.1606
 508  527.2744
 509  688.499
 510  927.3914
 511  897.8916
