# Input file       =  1204305439.103577_cleaned.dat
# Candidate        =  PSR_0332+5434
# Telescope        =  AR
# Epoch_topo       =  58182.720579902511
# Epoch_bary       =  N/A
# T_sample         =  0.002
# Data Folded      =  7340032
# Data Avg         =  0.0268852296562598
# Data StdDev      =  1.00000470335946 
# Profile Bins     =  512
# Profile Avg      =  385.43630284521  
# Profile StdDev   =  119.733599524275 
# Reduced chi-sqr  =  1.207
# Prob(Noise)      <  0.000875   (~3.1 sigma)
# P_topo (ms)      =  714.580235737108  +/- 0.00026
# P'_topo (s/s)    =  -0                +/- 1.37e-10
# P''_topo (s/s^2) =  0                 +/- 6.06e-14
# P_bary (ms)      =  N/A
# P'_bary (s/s)    =  N/A
# P''_bary (s/s^2) =  N/A
# P_orb (s)        =  N/A
# asin(i)/c (s)    =  N/A
# eccentricity     =  N/A
# w (rad)          =  N/A
# T_peri           =  N/A
######################################################
   0  513.5159
   1  538.4885
   2  492.3581
   3  507.4196
   4  440.765
   5  392.5626
   6  436.8258
   7  483.5772
   8  366.2883
   9  415.4941
  10  450.567
  11  495.6698
  12  450.4716
  13  364.1037
  14  376.0361
  15  455.3942
  16  589.6802
  17  525.0253
  18  358.115
  19  323.9607
  20  406.8362
  21  336.7486
  22  376.2304
  23  333.0714
  24  256.94
  25  244.5959
  26  329.5753
  27  265.8734
  28  269.5839
  29  259.5183
  30  273.4079
  31  330.5365
  32  429.2218
  33  402.1974
  34  457.7953
  35  401.9817
  36  341.7431
  37  389.3405
  38  517.1938
  39  559.792
  40  525.9044
  41  485.1584
  42  446.2925
  43  425.5529
  44  439.8538
  45  441.7052
  46  445.8481
  47  531.2492
  48  426.5407
  49  349.9599
  50  405.439
  51  306.3703
  52  316.1847
  53  315.6673
  54  329.1186
  55  327.2849
  56  374.1805
  57  313.9096
  58  436.7019
  59  454.9704
  60  431.2007
  61  366.9336
  62  436.3239
  63  335.6529
  64  419.6255
  65  532.2535
  66  482.7444
  67  414.6497
  68  372.2297
  69  447.3079
  70  480.3644
  71  492.5994
  72  450.0259
  73  430.7112
  74  405.1801
  75  280.8367
  76  342.0293
  77  445.7207
  78  424.5357
  79  434.828
  80  428.6889
  81  401.148
  82  360.76
  83  327.1544
  84  419.0587
  85  472.2463
  86  606.8001
  87  443.5045
  88  365.8307
  89  372.7762
  90  354.6127
  91  337.5331
  92  413.9754
  93  301.9405
  94  243.3425
  95  439.2904
  96  386.2433
  97  343.3084
  98  463.3427
  99  408.5476
 100  418.6539
 101  419.8619
 102  449.0839
 103  481.1642
 104  436.6022
 105  438.8875
 106  445.6626
 107  544.6777
 108  524.8286
 109  378.5986
 110  276.8162
 111  420.0249
 112  428.0322
 113  463.4585
 114  468.4144
 115  471.6907
 116  420.0702
 117  306.048
 118  406.1143
 119  394.7442
 120  361.0734
 121  357.0358
 122  275.7329
 123  314.3866
 124  449.2969
 125  411.3434
 126  370.5133
 127  304.0153
 128  303.8161
 129  329.8148
 130  249.6935
 131  355.096
 132  366.3748
 133  360.5589
 134  393.6416
 135  396.4118
 136  317.9951
 137  323.6472
 138  369.7145
 139  472.2265
 140  440.3658
 141  327.9211
 142  357.2952
 143  360.4405
 144  347.2668
 145  301.3245
 146  404.6476
 147  389.3625
 148  407.2371
 149  300.7573
 150  280.4157
 151  421.13
 152  378.458
 153  439.4006
 154  405.5415
 155  334.8232
 156  349.7003
 157  340.7826
 158  314.9442
 159  421.1711
 160  411.1254
 161  383.4297
 162  389.5917
 163  443.6909
 164  482.2311
 165  360.3591
 166  404.9374
 167  391.2901
 168  307.0687
 169  334.6506
 170  425.9315
 171  429.342
 172  612.2437
 173  668.3617
 174  425.2219
 175  280.3525
 176  336.3144
 177  303.4008
 178  271.1454
 179  297.545
 180  319.7958
 181  395.8089
 182  316.2095
 183  306.7517
 184  291.8743
 185  341.5737
 186  273.7607
 187  344.0775
 188  388.9419
 189  265.7407
 190  249.524
 191  369.9219
 192  318.0469
 193  226.4982
 194  263.1671
 195  422.1148
 196  377.0947
 197  220.1651
 198  235.9443
 199  279.0956
 200  228.9191
 201  349.4792
 202  357.5285
 203  339.2202
 204  380.5561
 205  327.0679
 206  237.6417
 207  183.1573
 208  189.3493
 209  137.5228
 210  219.3208
 211  159.0803
 212  270.2371
 213  440.9209
 214  401.5963
 215  236.3252
 216  249.0081
 217  254.382
 218  287.6127
 219  399.6286
 220  503.6704
 221  357.0645
 222  295.2201
 223  320.798
 224  315.1301
 225  275.0656
 226  351.0721
 227  350.3472
 228  341.9048
 229  376.7283
 230  252.0394
 231  292.6484
 232  231.2702
 233  296.5649
 234  453.2463
 235  510.054
 236  435.8109
 237  340.1642
 238  380.2564
 239  416.236
 240  233.9216
 241  386.2671
 242  401.433
 243  308.4019
 244  387.7729
 245  323.5545
 246  222.8971
 247  288.5205
 248  365.9669
 249  439.0109
 250  383.4492
 251  310.5032
 252  235.6759
 253  233.7491
 254  466.4409
 255  309.2094
 256  272.5566
 257  379.1338
 258  328.0161
 259  318.823
 260  430.663
 261  544.1477
 262  392.098
 263  317.9947
 264  265.4224
 265  330.4431
 266  339.0984
 267  507.1916
 268  311.2606
 269  403.3608
 270  565.208
 271  463.7879
 272  537.763
 273  499.1921
 274  397.5246
 275  442.211
 276  448.1856
 277  583.7278
 278  557.6336
 279  561.562
 280  473.1111
 281  390.8555
 282  437.5175
 283  363.9918
 284  335.0229
 285  341.0799
 286  408.8272
 287  418.0914
 288  342.6151
 289  377.4305
 290  326.6112
 291  396.6622
 292  403.2581
 293  557.7385
 294  564.6672
 295  477.8086
 296  512.3826
 297  470.3649
 298  369.8291
 299  371.2483
 300  385.2515
 301  390.5068
 302  346.4262
 303  381.8382
 304  484.4297
 305  303.393
 306  255.4696
 307  457.8542
 308  486.3176
 309  476.1391
 310  475.3174
 311  496.0369
 312  481.7953
 313  469.0853
 314  459.8359
 315  427.9552
 316  483.4197
 317  497.4449
 318  374.5552
 319  389.287
 320  482.9919
 321  408.8983
 322  502.7383
 323  511.7982
 324  402.1578
 325  405.7551
 326  483.5904
 327  542.9294
 328  389.4882
 329  210.1802
 330  295.3361
 331  297.1451
 332  319.7089
 333  297.1025
 334  234.7352
 335  348.1626
 336  307.0128
 337  236.2947
 338  216.271
 339  267.2699
 340  359.7206
 341  337.6494
 342  339.963
 343  322.2205
 344  333.9835
 345  450.923
 346  456.7195
 347  327.4326
 348  304.3249
 349  274.7863
 350  305.7576
 351  397.1169
 352  487.6096
 353  408.6435
 354  324.8116
 355  377.2684
 356  374.3666
 357  333.1681
 358  275.7208
 359  277.7048
 360  298.28
 361  375.1412
 362  291.8886
 363  260.5794
 364  414.614
 365  414.2763
 366  420.5953
 367  317.8525
 368  394.4953
 369  409.9942
 370  412.6886
 371  461.705
 372  238.604
 373  136.8035
 374  336.112
 375  414.4869
 376  418.8397
 377  483.8031
 378  460.1441
 379  422.96
 380  451.8859
 381  387.2815
 382  414.4371
 383  358.2773
 384  409.9648
 385  509.3462
 386  424.7668
 387  431.1092
 388  427.1816
 389  395.0201
 390  330.172
 391  385.2922
 392  351.8432
 393  444.9367
 394  488.0155
 395  513.4532
 396  341.1967
 397  316.3405
 398  320.9323
 399  349.9751
 400  365.6771
 401  296.7108
 402  244.706
 403  226.072
 404  363.1474
 405  406.3936
 406  389.8233
 407  475.0642
 408  441.4104
 409  447.4449
 410  382.5165
 411  254.2226
 412  354.125
 413  326.3276
 414  420.0607
 415  458.8241
 416  304.553
 417  348.9497
 418  492.3412
 419  454.7176
 420  403.5784
 421  395.478
 422  379.9552
 423  369.5443
 424  475.6339
 425  415.6961
 426  326.9367
 427  342.4675
 428  401.1918
 429  286.7569
 430  272.3671
 431  195.7339
 432  149.6662
 433  304.4243
 434  321.6805
 435  360.1558
 436  380.5476
 437  392.9366
 438  215.1989
 439  303.7269
 440  418.3937
 441  403.7518
 442  356.6439
 443  319.247
 444  388.2094
 445  394.7558
 446  447.0501
 447  414.8123
 448  449.0261
 449  573.8848
 450  457.8457
 451  418.1138
 452  392.4531
 453  362.2289
 454  263.5357
 455  228.0771
 456  267.6991
 457  340.5607
 458  266.6451
 459  399.8863
 460  476.2678
 461  553.685
 462  523.004
 463  518.7521
 464  546.5333
 465  732.4348
 466  884.9442
 467  882.5896
 468  817.8667
 469  751.0267
 470  517.8301
 471  505.1939
 472  388.0646
 473  272.1849
 474  298.9545
 475  394.8026
 476  490.0567
 477  299.5012
 478  385.6346
 479  508.4386
 480  415.3291
 481  411.4708
 482  495.9354
 483  371.7596
 484  327.8659
 485  384.9306
 486  464.3023
 487  442.7137
 488  471.9304
 489  525.4011
 490  467.3266
 491  404.6173
 492  281.7953
 493  310.2772
 494  412.0959
 495  408.8386
 496  365.4689
 497  464.27
 498  351.6988
 499  310.3674
 500  419.2455
 501  208.193
 502  238.0656
 503  356.1048
 504  348.6902
 505  223.0152
 506  345.0525
 507  490.1744
 508  441.5251
 509  406.9561
 510  381.7234
 511  439.6471
