# Input file       =  1204721893.107728_cleaned.dat
# Candidate        =  PSR_0332+5434
# Telescope        =  AR
# Epoch_topo       =  58187.540649394999
# Epoch_bary       =  N/A
# T_sample         =  0.002
# Data Folded      =  7340032
# Data Avg         =  0.176048709686646
# Data StdDev      =  10.668936768853  
# Profile Bins     =  512
# Profile Avg      =  2523.47067168942 
# Profile StdDev   =  1277.42419424649 
# Reduced chi-sqr  =  0.652
# Prob(Noise)      <  1   (~0.0 sigma)
# P_topo (ms)      =  714.578902249522  +/- 0.000568
# P'_topo (s/s)    =  -0                +/- 3e-10
# P''_topo (s/s^2) =  0                 +/- 1.32e-13
# P_bary (ms)      =  N/A
# P'_bary (s/s)    =  N/A
# P''_bary (s/s^2) =  N/A
# P_orb (s)        =  N/A
# asin(i)/c (s)    =  N/A
# eccentricity     =  N/A
# w (rad)          =  N/A
# T_peri           =  N/A
######################################################
   0  2013.429
   1  2907.854
   2  3424.775
   3  2680.196
   4  2490.663
   5  3086.458
   6  2933.467
   7  3345.429
   8  4353.386
   9  3720.219
  10  3837.815
  11  3796.423
  12  2947.089
  13  3258.772
  14  2848.294
  15  3148.458
  16  2655.122
  17  2628.859
  18  2976.109
  19  3381.866
  20  3062.229
  21  2576.602
  22  2846.81
  23  2693.75
  24  2522.733
  25  2368.349
  26  2630.243
  27  3150.482
  28  2832.087
  29  2493.931
  30  2305.889
  31  2154.151
  32  2491.777
  33  2799.578
  34  3044.294
  35  2998.613
  36  2859.393
  37  2883.855
  38  3019.056
  39  2903.177
  40  2858.001
  41  3070.67
  42  2884.121
  43  2902.332
  44  3044.926
  45  2314.075
  46  1722.691
  47  1943.042
  48  2360.968
  49  1998.191
  50  2996.183
  51  2613.639
  52  1805.186
  53  2577.79
  54  2008.089
  55  1763.581
  56  2945.758
  57  3381.114
  58  2838.295
  59  2025.543
  60  2618.038
  61  2379.177
  62  2764.068
  63  1934.113
  64  2737.723
  65  3331.257
  66  3456.181
  67  2579.376
  68  2323.501
  69  2252.493
  70  3173.038
  71  2925.399
  72  2097.775
  73  2055.138
  74  1550.818
  75  2529.006
  76  2940.91
  77  2802.271
  78  3022.935
  79  2457.011
  80  2723.008
  81  2543.565
  82  1926.387
  83  2233.752
  84  2865.892
  85  3133.428
  86  3255.828
  87  3642.169
  88  2690.629
  89  2177.854
  90  2458.25
  91  3332.206
  92  3375.152
  93  3091.16
  94  3697.446
  95  3317.342
  96  3001.824
  97  2312.594
  98  2485.977
  99  3090.637
 100  3154.352
 101  3378.813
 102  3544.598
 103  3054.786
 104  3962.895
 105  4115.85
 106  4017.049
 107  3608.161
 108  2901.391
 109  2689.965
 110  2344.654
 111  2563.501
 112  2058.428
 113  2170.785
 114  2724.088
 115  2825.103
 116  2846.781
 117  2093.246
 118  1701.02
 119  1842.676
 120  1767.934
 121  2443.409
 122  2150.785
 123  2590.356
 124  2649.209
 125  2105.167
 126  2150.068
 127  2377.312
 128  2242.949
 129  1614.034
 130  1946.149
 131  2640.11
 132  2127.398
 133  2033.866
 134  2379.646
 135  1835.997
 136  1987.803
 137  1871.169
 138  2214.425
 139  2201.535
 140  1618.086
 141  2201.741
 142  2208.998
 143  2262.147
 144  2221.671
 145  2091.852
 146  1782.052
 147  2339.55
 148  2114.511
 149  2165.271
 150  1522.597
 151  1450.686
 152  1950.684
 153  2451.565
 154  2603.339
 155  2092.026
 156  1574.924
 157  1938.136
 158  2203.308
 159  2714.501
 160  3227.657
 161  4027.745
 162  3805.087
 163  3330.643
 164  3686.126
 165  2987.843
 166  2317.073
 167  2026.74
 168  2834.136
 169  2667.902
 170  2635.125
 171  2884.512
 172  3083.383
 173  2785.962
 174  2891.44
 175  2226.048
 176  2053.769
 177  1638.279
 178  1310.464
 179  1260.291
 180  1449.497
 181  2115.258
 182  1781.439
 183  1892.819
 184  2323.371
 185  3217.305
 186  2327.162
 187  2324.529
 188  2424.313
 189  3151.454
 190  3357.484
 191  3014.618
 192  3120.594
 193  3200.419
 194  3248.637
 195  3147.495
 196  3141.063
 197  3579.225
 198  3365.037
 199  3049.946
 200  2484.497
 201  2508.924
 202  2547.887
 203  2509.569
 204  3214.379
 205  3934.775
 206  3125.402
 207  2544.185
 208  2374.17
 209  1989.014
 210  1666.339
 211  2546.698
 212  3075.016
 213  3337.582
 214  2697.282
 215  2475.845
 216  3072.892
 217  2705.666
 218  2415.925
 219  2213.311
 220  2562.234
 221  3022.824
 222  3582.131
 223  3627.357
 224  3837.995
 225  3658.32
 226  3824.326
 227  3893.408
 228  4468.378
 229  3540.605
 230  3033.401
 231  3241.844
 232  3459.386
 233  3018.592
 234  2608.471
 235  2942.562
 236  3084.22
 237  2311.433
 238  1638.971
 239  1974.589
 240  2674.619
 241  3059.958
 242  3703.397
 243  3268.177
 244  2917.906
 245  3239.152
 246  2943.525
 247  2884.824
 248  2601.099
 249  2634.424
 250  2843.198
 251  3255.497
 252  3428.473
 253  2186.033
 254  908.3011
 255  1038.518
 256  2363.627
 257  2455.524
 258  1910.536
 259  1781.074
 260  1690.305
 261  1630.484
 262  2233.306
 263  3368.804
 264  3705.996
 265  2549.53
 266  1641.225
 267  1548.982
 268  842.3173
 269  1478.017
 270  2604.69
 271  1997.282
 272  1269.763
 273  745.516
 274  697.1789
 275  439.4299
 276  166.8884
 277  717.4698
 278  1490.761
 279  1172.713
 280  490.7211
 281  907.0001
 282  319.1706
 283  739.5092
 284  1558.965
 285  2650.958
 286  2691.45
 287  1677.324
 288  1642.404
 289  1587.25
 290  1978.803
 291  2370.812
 292  2378.706
 293  2991.723
 294  2661.99
 295  2955.437
 296  1896.562
 297  1853.78
 298  2306.02
 299  1913.975
 300  2184.046
 301  2656.079
 302  3853.246
 303  3092.476
 304  2935.097
 305  3662.244
 306  3700.917
 307  3421.987
 308  2799.272
 309  2671.762
 310  2342.718
 311  1555.974
 312  2427.971
 313  2131.37
 314  1974.013
 315  2078.238
 316  2284.063
 317  2355.589
 318  1577.056
 319  1349.008
 320  1097.773
 321  835.3257
 322  1313.665
 323  2030.928
 324  2124.04
 325  2002.719
 326  2375.214
 327  2323.787
 328  2547.37
 329  1909.192
 330  2096.78
 331  2630.162
 332  2404.456
 333  3121.086
 334  3365.562
 335  3442.289
 336  2855.265
 337  2578.102
 338  2390.812
 339  2439.792
 340  2950.991
 341  2797.078
 342  2352.416
 343  2515.416
 344  2460.26
 345  1910.48
 346  1288.85
 347  1123.192
 348  1943.129
 349  1996.913
 350  1869.96
 351  1991.125
 352  2163.827
 353  2558.484
 354  2050.377
 355  2128.775
 356  2680.882
 357  3456.41
 358  3068.701
 359  3351.794
 360  3048.034
 361  2321.427
 362  2623.804
 363  2298.777
 364  2733.322
 365  4025.09
 366  3899.343
 367  4023.173
 368  3649.953
 369  3157.212
 370  3089.34
 371  2965.781
 372  3615.29
 373  3792.107
 374  3537.867
 375  3747.366
 376  3402.166
 377  2897.547
 378  2584.267
 379  3303.155
 380  3405.111
 381  3091.204
 382  3168.963
 383  2483.393
 384  2160.994
 385  2865.809
 386  3384.63
 387  3256.021
 388  3017.176
 389  2405.962
 390  2116.574
 391  2442.925
 392  2159.986
 393  2065.566
 394  2490.65
 395  2262.009
 396  2057.856
 397  1938.385
 398  2141.21
 399  2056.148
 400  1380.996
 401  716.1696
 402  1132.771
 403  1567.395
 404  1169.939
 405  1743.938
 406  1594.74
 407  1175.838
 408  1225.005
 409  1171.078
 410  1662.72
 411  1376.181
 412  1849.483
 413  1262.221
 414  1143.722
 415  922.0539
 416  1392.212
 417  1723.72
 418  1916.866
 419  1983.141
 420  2291.135
 421  2183.05
 422  2470.125
 423  2290.705
 424  2547.316
 425  3349.496
 426  2933.615
 427  2548.187
 428  3057.498
 429  2395.66
 430  2402
 431  1718.207
 432  2364.122
 433  2860.918
 434  2710.833
 435  3357.006
 436  1981.364
 437  1867.641
 438  2712.146
 439  3623.464
 440  3501.243
 441  4115.695
 442  4002.329
 443  3274.219
 444  2603.406
 445  3001.758
 446  3334.511
 447  3884.524
 448  4590.403
 449  3927.364
 450  3988.806
 451  3307.397
 452  2548.561
 453  2496.638
 454  2576.571
 455  3464.122
 456  4067.942
 457  3795.052
 458  3710.794
 459  3605.604
 460  3224.681
 461  2719.583
 462  2691.397
 463  3586.398
 464  3112.072
 465  2498.478
 466  2247.096
 467  2100.376
 468  2219.291
 469  2584.861
 470  3508.929
 471  2971.55
 472  2529.775
 473  2625.986
 474  2428.271
 475  2455.4
 476  2604.025
 477  2757.47
 478  2065.481
 479  1409.3
 480  1245.805
 481  1348.134
 482  2540.015
 483  2601.995
 484  2796.976
 485  2379.227
 486  2146.5
 487  2099.424
 488  2825.594
 489  2917.74
 490  2702.821
 491  1874.783
 492  1777.766
 493  1186.285
 494  1317.977
 495  1788.362
 496  2001.758
 497  2173.351
 498  2284.439
 499  2588.152
 500  1579.046
 501  1930.79
 502  2094.891
 503  1767.104
 504  2139.038
 505  1746.6
 506  1841.049
 507  2044.772
 508  2218.119
 509  1330.214
 510  1576.015
 511  1768.418
