# Input file       =  1204620467.112361_cleaned.dat
# Candidate        =  PSR_0332+5434
# Telescope        =  AR
# Epoch_topo       =  58186.366737411583
# Epoch_bary       =  N/A
# T_sample         =  0.002
# Data Folded      =  7208960
# Data Avg         =  0.222819187938744
# Data StdDev      =  5.0623971175817  
# Profile Bins     =  512
# Profile Avg      =  3137.43573456752 
# Profile StdDev   =  600.699869511789 
# Reduced chi-sqr  =  2.024
# Prob(Noise)      <  9.57e-38   (~12.8 sigma)
# P_topo (ms)      =  714.579164508827  +/- 2.54e-05
# P'_topo (s/s)    =  -0                +/- 1.36e-11
# P''_topo (s/s^2) =  0                 +/- 6.14e-15
# P_bary (ms)      =  N/A
# P'_bary (s/s)    =  N/A
# P''_bary (s/s^2) =  N/A
# P_orb (s)        =  N/A
# asin(i)/c (s)    =  N/A
# eccentricity     =  N/A
# w (rad)          =  N/A
# T_peri           =  N/A
######################################################
   0  3498.465
   1  3707.877
   2  3169.409
   3  3053.244
   4  3481.878
   5  3254.594
   6  2373.303
   7  2384.623
   8  2595.526
   9  2862.709
  10  3084.793
  11  3570.139
  12  4176.999
  13  4309.802
  14  3463.234
  15  2847.046
  16  2503.088
  17  3034.043
  18  3192.949
  19  2735.619
  20  2966.458
  21  3318.315
  22  2811.469
  23  1918.633
  24  1613.471
  25  2262.136
  26  3029.709
  27  3562.12
  28  4265.838
  29  4497.245
  30  3502.516
  31  2766.002
  32  2821.001
  33  2756.588
  34  3078.913
  35  3217.29
  36  3174.24
  37  3527.531
  38  3131.97
  39  2424.353
  40  1646.546
  41  2148.947
  42  2739.164
  43  2713.292
  44  3476.762
  45  4192.851
  46  4075.147
  47  3068.973
  48  2857.728
  49  2752.456
  50  3106.444
  51  3178.76
  52  2620.2
  53  3082.3
  54  3205.407
  55  2797.512
  56  2069.781
  57  2137.679
  58  2153.696
  59  2643.876
  60  3175.476
  61  3704.563
  62  4060.096
  63  3126.954
  64  2811.831
  65  2600.565
  66  3269.779
  67  3036.268
  68  2418.867
  69  2609.425
  70  3026.913
  71  2864.637
  72  2298.259
  73  1825.107
  74  2257.395
  75  2595.198
  76  3109.716
  77  3287.545
  78  3986.705
  79  3894.203
  80  3560.2
  81  3135.466
  82  2752.596
  83  3111.913
  84  3099.349
  85  3161.875
  86  3235.653
  87  3301.775
  88  2939.012
  89  2346.416
  90  2190.658
  91  2421.902
  92  3562.182
  93  3549.304
  94  3955.24
  95  4156.671
  96  3574.941
  97  2961.279
  98  2525.405
  99  3059.669
 100  3057.3
 101  3159.145
 102  2725.343
 103  3117.272
 104  3335.469
 105  2531.917
 106  2018.193
 107  2443.535
 108  3128.516
 109  3038.804
 110  3395.376
 111  4445.13
 112  3939.6
 113  3591.638
 114  3014.064
 115  2785.461
 116  3072.943
 117  3408.571
 118  3001.81
 119  3164.078
 120  3145.935
 121  2369.308
 122  1848.35
 123  1843.619
 124  2509.305
 125  2772.916
 126  3136.965
 127  3526.114
 128  4219.679
 129  3841.31
 130  2829.058
 131  3088.436
 132  3322.912
 133  3510.448
 134  3042.363
 135  2510.036
 136  2962.201
 137  2898.061
 138  2215.717
 139  1675.679
 140  1821.933
 141  2450.934
 142  2498.705
 143  3243.433
 144  3730.293
 145  3646.601
 146  2987.618
 147  2661.874
 148  3021.094
 149  3117.457
 150  3226.685
 151  2554.95
 152  2903.099
 153  3371.032
 154  2703.136
 155  1793.669
 156  2134.905
 157  2688.399
 158  2515.512
 159  2872.021
 160  3808.868
 161  4401.31
 162  4281.208
 163  3770.977
 164  3167.989
 165  3387.265
 166  3508.399
 167  2986.79
 168  2530.282
 169  2862.05
 170  3333.443
 171  2742.643
 172  1882.99
 173  2466.276
 174  2456.049
 175  2794.795
 176  3050.865
 177  3864.26
 178  4111.991
 179  3529.857
 180  2903.911
 181  2818.948
 182  3623.899
 183  3373.856
 184  3180.215
 185  3077.469
 186  3166.65
 187  2562.866
 188  1721.759
 189  2174.59
 190  3032.295
 191  3312.119
 192  3375.653
 193  3890.226
 194  4527.905
 195  4068.052
 196  3570.058
 197  2958.64
 198  3207.452
 199  3751.003
 200  3149.241
 201  2839.047
 202  3181.255
 203  3440.823
 204  2052.003
 205  2113.534
 206  2590.976
 207  2812.906
 208  3223.531
 209  3567.269
 210  4071.898
 211  4209.075
 212  3670.603
 213  2956.846
 214  2726.779
 215  3302.843
 216  3520.225
 217  2900.056
 218  3405.441
 219  3412.171
 220  2930.799
 221  1859.548
 222  1538.556
 223  2529.193
 224  3016.964
 225  3200.349
 226  3630.31
 227  4026.536
 228  3877.194
 229  3090.883
 230  2791.217
 231  2978.021
 232  3488.492
 233  3015.322
 234  2447.661
 235  3286.351
 236  3667.195
 237  3035.507
 238  1751.518
 239  2096.569
 240  2791.753
 241  2778.825
 242  3418.269
 243  3842.091
 244  4546.264
 245  3760.969
 246  3366.847
 247  3089.229
 248  3242.767
 249  3485.252
 250  3093.667
 251  3042.321
 252  3484.3
 253  3551.039
 254  2187.335
 255  2114.601
 256  2565.807
 257  2995.51
 258  3136.988
 259  3715.819
 260  4410.288
 261  3697.344
 262  3308.952
 263  2741.668
 264  3285.392
 265  3354.969
 266  3111.073
 267  2971.826
 268  3510.475
 269  3715.562
 270  2836.384
 271  1966.726
 272  2305.989
 273  2986.735
 274  2962.36
 275  3152.945
 276  4195.685
 277  4132.843
 278  3516.105
 279  3261.381
 280  3094.847
 281  3492.529
 282  3559.431
 283  3138.553
 284  3287.204
 285  3817.564
 286  3098.95
 287  1954.892
 288  2147.897
 289  2953.627
 290  3574.123
 291  3720.677
 292  4119.146
 293  4378.105
 294  3795.23
 295  3388.365
 296  3168.831
 297  3618.133
 298  4027.102
 299  3647.873
 300  3486.181
 301  4178.405
 302  4317.239
 303  3829.909
 304  3782.284
 305  3508.249
 306  3967.969
 307  4016.158
 308  3715.674
 309  4201.808
 310  4244.127
 311  3956.862
 312  3171.237
 313  3192.005
 314  3349.529
 315  3533.635
 316  3320.359
 317  3179.623
 318  3704.713
 319  3518.668
 320  2399.414
 321  1988.682
 322  2511.442
 323  2769.948
 324  3169.296
 325  3817.211
 326  4373.958
 327  4213.965
 328  3277.879
 329  3016.912
 330  3228.681
 331  3692.892
 332  3182.953
 333  3127.899
 334  3804.013
 335  3473.227
 336  2590.292
 337  2006.654
 338  2322.026
 339  2874.509
 340  3114.146
 341  3442.677
 342  4330.534
 343  4395.776
 344  3829.099
 345  3158.903
 346  2607.373
 347  2977.664
 348  3310.221
 349  3037.759
 350  3224.678
 351  3725.661
 352  3317.773
 353  2090.035
 354  1802.198
 355  2649.92
 356  3175.749
 357  3477.366
 358  3880.383
 359  4304.463
 360  4195.749
 361  3733.448
 362  3303.445
 363  3158.191
 364  3599.362
 365  3349.516
 366  3041.963
 367  3353.163
 368  3633.948
 369  3037.421
 370  2132.468
 371  2004.31
 372  2789.349
 373  3356.31
 374  3500.949
 375  4264.795
 376  4489.04
 377  3779.792
 378  3239.999
 379  3200.207
 380  3553.216
 381  3502.009
 382  3273.679
 383  3028.499
 384  3474.108
 385  3144.287
 386  2316.971
 387  1805.383
 388  2357.007
 389  3081.502
 390  3301.268
 391  3323.89
 392  3754.29
 393  3757.442
 394  3438.608
 395  2791.071
 396  3075.762
 397  3265.101
 398  3157.573
 399  3141.626
 400  3126.211
 401  3510.947
 402  2919.637
 403  1922.928
 404  1801.08
 405  2522.884
 406  2899.665
 407  3276.663
 408  3762.287
 409  4138.875
 410  3620.534
 411  2985.171
 412  2839.761
 413  2997.664
 414  3375.963
 415  3233.046
 416  3319.504
 417  3392.628
 418  2842.724
 419  1980.558
 420  1919.981
 421  2551.214
 422  2943.959
 423  3205.151
 424  3562.939
 425  4090.511
 426  3961.611
 427  3564.247
 428  2859.017
 429  2866.886
 430  3545.252
 431  3481.35
 432  3299.866
 433  3021.817
 434  3130.634
 435  2605.192
 436  2067.126
 437  2127.96
 438  2866.904
 439  3620.683
 440  3888.261
 441  4229.038
 442  4231.759
 443  3799.239
 444  3324.907
 445  3184.095
 446  3268.706
 447  3421.91
 448  3326.706
 449  3122.85
 450  3347.937
 451  2854.742
 452  2388.667
 453  2158.07
 454  2387.428
 455  2978.935
 456  3581.563
 457  3978.697
 458  4148.142
 459  4198.083
 460  3756.603
 461  3009.044
 462  3048.39
 463  3257.821
 464  3425.974
 465  3184.511
 466  3422.484
 467  3673.313
 468  2846.886
 469  1903.256
 470  2156.058
 471  2320.233
 472  3044.259
 473  3552.418
 474  4359.136
 475  4223.452
 476  3716.311
 477  3142.951
 478  3068.294
 479  3072.098
 480  3393.507
 481  3010.75
 482  3024.464
 483  3087.101
 484  3124.938
 485  2047.744
 486  1618.248
 487  1997.734
 488  2583.946
 489  2965.088
 490  3514.568
 491  4082.595
 492  3797.721
 493  3197.064
 494  2979.003
 495  3090.082
 496  3041.714
 497  3056.016
 498  2501.558
 499  2976.876
 500  3429.024
 501  2816.94
 502  1776.482
 503  1534.103
 504  2433.221
 505  3004.908
 506  3231.854
 507  3794.087
 508  3881.387
 509  3431.001
 510  2840.156
 511  2745.762
