# Input file       =  1204367855.101803_cleaned.dat
# Candidate        =  PSR_0332+5434
# Telescope        =  AR
# Epoch_topo       =  58183.442987289389
# Epoch_bary       =  N/A
# T_sample         =  0.002
# Data Folded      =  7340032
# Data Avg         =  0.0486416356164096
# Data StdDev      =  3.39092315565174 
# Profile Bins     =  256
# Profile Avg      =  1389.27708260879 
# Profile StdDev   =  574.178520626232 
# Reduced chi-sqr  =  1.499
# Prob(Noise)      <  4.04e-07   (~4.9 sigma)
# P_topo (ms)      =  714.579720151088  +/- 4.71e-05
# P'_topo (s/s)    =  -0                +/- 2.49e-11
# P''_topo (s/s^2) =  0                 +/- 1.1e-14
# P_bary (ms)      =  N/A
# P'_bary (s/s)    =  N/A
# P''_bary (s/s^2) =  N/A
# P_orb (s)        =  N/A
# asin(i)/c (s)    =  N/A
# eccentricity     =  N/A
# w (rad)          =  N/A
# T_peri           =  N/A
######################################################
   0  780.2709
   1  1018.387
   2  1635.06
   3  851.0646
   4  452.9096
   5  1283.948
   6  1197.296
   7  1483.099
   8  823.2947
   9  991.5389
  10  1147.422
  11  1178.631
  12  705.5453
  13  479.6366
  14  1333.25
  15  2472.632
  16  1569.615
  17  964.7417
  18  1585.555
  19  2254.223
  20  624.5475
  21  1081.063
  22  1367.926
  23  1456.286
  24  1213.24
  25  1718.57
  26  1327.951
  27  1807.993
  28  1765.934
  29  882.683
  30  1124.342
  31  1408.507
  32  1509.22
  33  1201.309
  34  601.2141
  35  847.8774
  36  1677.887
  37  1632.884
  38  1478.173
  39  1675.742
  40  2009.969
  41  1344.298
  42  1507.169
  43  1923.824
  44  1821.472
  45  1562.574
  46  1206.907
  47  1549.067
  48  2335.839
  49  1950.689
  50  1483.709
  51  973.1868
  52  1502.636
  53  885.8464
  54  713.1857
  55  1423.948
  56  2350.151
  57  1860.724
  58  1812.323
  59  1540.605
  60  3127.415
  61  1954.467
  62  1568.016
  63  1196.447
  64  2339.987
  65  2356.968
  66  1458.019
  67  1822.288
  68  1668.09
  69  2043.764
  70  1638.646
  71  1337.52
  72  1445.188
  73  2064.222
  74  1281.222
  75  2233.844
  76  1829.215
  77  1686.325
  78  1472.832
  79  1119.812
  80  742.3378
  81  1808.624
  82  1186.565
  83  1632.664
  84  2144.884
  85  2223.543
  86  1059.362
  87  1132.355
  88  1441.227
  89  1796.816
  90  1732.835
  91  941.0961
  92  1429.049
  93  1443.515
  94  1651.425
  95  948.5961
  96  1406.961
  97  2246.36
  98  2325.166
  99  2024.083
 100  1610.037
 101  2161.323
 102  1961.321
 103  1111.095
 104  917.696
 105  1100.935
 106  2444.431
 107  921.8133
 108  1331.316
 109  1689.423
 110  2192.803
 111  1171.167
 112  908.3732
 113  1244.153
 114  2133.389
 115  1492.087
 116  905.1472
 117  1135.695
 118  1469.718
 119  1680.007
 120  1708.446
 121  903.3527
 122  1483.841
 123  1574.101
 124  1330.578
 125  1406.812
 126  1031.091
 127  1503.151
 128  1603.74
 129  1021.192
 130  1313.854
 131  1416.022
 132  1162.524
 133  1454.079
 134  1183.089
 135  1588
 136  705.1362
 137  113.2343
 138  604.5735
 139  2514.381
 140  1549.649
 141  1000.54
 142  1606.864
 143  1953.994
 144  1676.637
 145  832.0426
 146  761.7073
 147  1969.228
 148  2078.553
 149  1666.799
 150  2044.852
 151  3525.724
 152  5382.324
 153  3153.299
 154  1862.912
 155  2397.643
 156  2129.065
 157  1292.654
 158  1500.087
 159  1632.06
 160  1245.846
 161  1089.736
 162  1026.689
 163  1663.12
 164  1563.234
 165  1242.689
 166  772.8764
 167  648.0991
 168  1335.7
 169  1277.39
 170  673.1815
 171  1273.491
 172  1854.086
 173  641.9542
 174  952.4783
 175  461.2297
 176  1161.618
 177  913.8533
 178  1262.701
 179  954.3483
 180  1263.603
 181  1520.977
 182  1004.486
 183  1010.581
 184  880.2277
 185  1013.282
 186  378.701
 187  1226.344
 188  745.4167
 189  907.9114
 190  611.5502
 191  975.0883
 192  822.3018
 193  704.215
 194  471.2671
 195  348.19
 196  478.1956
 197  1128.904
 198  230.6433
 199  469.0079
 200  440.4297
 201  641.1969
 202  322.7933
 203  452.4557
 204  702.1076
 205  1437.946
 206  760.3208
 207  1049.408
 208  682.6157
 209  1684.467
 210  580.3956
 211  780.0416
 212  778.2891
 213  2108.716
 214  1654.376
 215  1408.094
 216  417.0106
 217  1398.483
 218  1467.127
 219  1507.943
 220  1009.339
 221  2036.377
 222  1326.797
 223  1525.702
 224  1557.695
 225  2061.014
 226  2277.779
 227  1785.016
 228  1119.706
 229  1829.778
 230  2043.57
 231  1532.489
 232  839.5587
 233  2046.13
 234  1946.106
 235  1527.034
 236  946.7074
 237  1626.931
 238  2750.061
 239  1221.086
 240  1345.002
 241  1085.499
 242  1760.812
 243  908.6208
 244  1078.219
 245  1113.203
 246  1891.441
 247  1585.124
 248  939.6759
 249  1133.316
 250  1847.307
 251  910.1193
 252  319.4261
 253  70.22277
 254  1907.068
 255  1720.468
