# Input file       =  1204893568.118315-PSRB0329-2ms-sampling-dd.dat
# Candidate        =  PSR_0332+5434
# Telescope        =  AR
# Epoch_topo       =  58189.527628684198
# Epoch_bary       =  N/A
# T_sample         =  0.002
# Data Folded      =  7340032
# Data Avg         =  5.49385582300225e-10
# Data StdDev      =  7.7728642835829  
# Profile Bins     =  512
# Profile Avg      =  -0.3086428288788 
# Profile StdDev   =  930.668642017898 
# Reduced chi-sqr  =  0.537
# Prob(Noise)      <  1   (~0.0 sigma)
# P_topo (ms)      =  714.578359210045  +/- 0.000885
# P'_topo (s/s)    =  -0                +/- 4.67e-10
# P''_topo (s/s^2) =  0                 +/- 2.06e-13
# P_bary (ms)      =  N/A
# P'_bary (s/s)    =  N/A
# P''_bary (s/s^2) =  N/A
# P_orb (s)        =  N/A
# asin(i)/c (s)    =  N/A
# eccentricity     =  N/A
# w (rad)          =  N/A
# T_peri           =  N/A
######################################################
   0  -177.8562
   1  -70.05412
   2  -60.87478
   3  -88.78333
   4  -240.3245
   5  -232.6042
   6  -427.8361
   7  -135.475
   8  -30.26882
   9  37.51382
  10  -62.10147
  11  -14.91077
  12  -76.70119
  13  77.45336
  14  -42.03415
  15  -100.4765
  16  5.542844
  17  -20.72468
  18  -106.4999
  19  -169.2483
  20  158.9686
  21  -17.33233
  22  -33.83738
  23  -175.4356
  24  -696.951
  25  -119.5952
  26  397.8794
  27  573.6091
  28  444.1827
  29  774.093
  30  -176.1434
  31  75.96336
  32  -41.13347
  33  136.0231
  34  189.2535
  35  124.4237
  36  35.50192
  37  -0.1940813
  38  -138.6124
  39  -176.3976
  40  -447.3395
  41  -152.0168
  42  61.33733
  43  283.9774
  44  93.68736
  45  -47.97672
  46  -120.6146
  47  -182.286
  48  30.2761
  49  101.8061
  50  231.5546
  51  126.8543
  52  184.368
  53  432.5073
  54  195.5987
  55  212.6444
  56  136.8817
  57  432.5849
  58  616.9351
  59  423.7719
  60  165.8067
  61  128.8824
  62  6.000895
  63  -513.2805
  64  -120.8288
  65  328.2019
  66  440.1296
  67  451.1881
  68  269.5434
  69  111.4133
  70  -409.3454
  71  -140.0425
  72  129.7184
  73  233.061
  74  171.8045
  75  65.70426
  76  -71.86888
  77  89.97836
  78  -113.1585
  79  -288.4119
  80  -180.6601
  81  -409.4021
  82  -432.7468
  83  -778.5338
  84  -537.0212
  85  -813.506
  86  -960.8271
  87  -388.9594
  88  -340.0561
  89  -563.2003
  90  -498.8001
  91  -639.0356
  92  -473.6591
  93  -69.12066
  94  -122.8383
  95  -196.4993
  96  -756.0247
  97  -841.8467
  98  -592.0853
  99  -754.6765
 100  -735.4951
 101  -691.1844
 102  -996.4527
 103  -1179.157
 104  -1003.519
 105  -852.3499
 106  -328.4996
 107  -211.1785
 108  -269.4983
 109  -438.4537
 110  431.4291
 111  600.9739
 112  679.6912
 113  957.4355
 114  921.8722
 115  696.4884
 116  577.7538
 117  477.3192
 118  300.9659
 119  351.8759
 120  583.5067
 121  755.9774
 122  889.9401
 123  828.5355
 124  539.4741
 125  412.8607
 126  484.2722
 127  278.1164
 128  56.11222
 129  -208.6123
 130  -350.666
 131  -293.4932
 132  24.61972
 133  148.058
 134  134.7447
 135  54.7709
 136  -520.4495
 137  -259.7741
 138  -223.222
 139  -20.46724
 140  144.8987
 141  -180.9483
 142  205.2944
 143  396.73
 144  508.0907
 145  438.2302
 146  453.0269
 147  477.1101
 148  265.2842
 149  275.5214
 150  281.8978
 151  36.54669
 152  -214.6189
 153  93.42496
 154  -55.26122
 155  -47.25086
 156  208.8617
 157  133.9961
 158  7.455178
 159  -124.8806
 160  -55.67196
 161  -279.8456
 162  -405.15
 163  -130.5239
 164  -293.535
 165  -37.8925
 166  91.41828
 167  176.46
 168  102.7169
 169  -584.3509
 170  -412.0161
 171  -106.2901
 172  114.2512
 173  272.3988
 174  233.6549
 175  256.8488
 176  551.0071
 177  353.305
 178  518.3973
 179  269.3794
 180  38.32651
 181  -43.4202
 182  -67.88641
 183  243.1425
 184  82.73669
 185  256.1407
 186  417.0105
 187  -69.42898
 188  156.0778
 189  533.821
 190  947.6099
 191  918.7651
 192  865.1771
 193  1235.722
 194  1210.694
 195  916.5328
 196  705.3398
 197  924.8728
 198  1236.123
 199  1036.25
 200  861.2032
 201  668.4485
 202  395.0601
 203  433.2245
 204  317.144
 205  613.2209
 206  719.5969
 207  686.0346
 208  831.1227
 209  843.8107
 210  542.4384
 211  486.0404
 212  138.4051
 213  -363.3104
 214  -591.8685
 215  -329.5314
 216  -367.5685
 217  -707.5773
 218  -550.8705
 219  -606.6627
 220  -576.8885
 221  -847.7122
 222  -641.6566
 223  -659.3799
 224  -1043.748
 225  -976.455
 226  -741.5975
 227  -467.342
 228  -640.3704
 229  -408.0757
 230  -281.0612
 231  -205.1145
 232  -104.6608
 233  -485.8807
 234  -266.0506
 235  -214.7379
 236  -794.9169
 237  -785.9033
 238  -651.9398
 239  -635.2111
 240  -614.6646
 241  -673.2899
 242  -408.3062
 243  -47.13629
 244  -193.382
 245  -350.6004
 246  -591.7359
 247  -559.4522
 248  -692.3958
 249  -581.8597
 250  -125.4194
 251  -111.7752
 252  144.5668
 253  -107.1039
 254  -559.5634
 255  -463.9325
 256  -735.1575
 257  -548.0599
 258  -267.5093
 259  -244.1744
 260  -431.2382
 261  -495.4417
 262  -415.8773
 263  -92.82529
 264  158.6154
 265  141.7102
 266  -168.0101
 267  268.6233
 268  355.8396
 269  75.98981
 270  -392.4791
 271  -183.8319
 272  408.8383
 273  283.8063
 274  244.1495
 275  359.5183
 276  797.0306
 277  912.1174
 278  497.4813
 279  192.6012
 280  85.02693
 281  3.266853
 282  297.2827
 283  2.914521
 284  -350.5998
 285  -441.8582
 286  -229.4332
 287  -101.3248
 288  -392.8198
 289  -299.4707
 290  -411.2664
 291  -427.1628
 292  -340.4753
 293  -324.6964
 294  -319.9626
 295  -280.9145
 296  235.4033
 297  53.98423
 298  -285.0782
 299  120.7452
 300  -5.847198
 301  -129.8383
 302  -167.4404
 303  -547.9092
 304  -401.4829
 305  -373.7318
 306  -401.3938
 307  -301.948
 308  35.62566
 309  74.67773
 310  -238.3607
 311  -350.9859
 312  -318.9576
 313  -565.6344
 314  -483.9055
 315  10.73507
 316  -129.0365
 317  -129.5591
 318  -26.62281
 319  -349.7778
 320  -433.4823
 321  -135.3068
 322  -305.9012
 323  -225.8458
 324  -384.2862
 325  -101.0065
 326  -320.0707
 327  -413.9595
 328  -331.0703
 329  -305.7583
 330  -522.6864
 331  -331.568
 332  -7.197852
 333  -86.8121
 334  427.0688
 335  549.7095
 336  252.9156
 337  -189.9866
 338  -94.82868
 339  -12.70766
 340  102.2286
 341  -24.61824
 342  -27.64507
 343  -268.3894
 344  -439.6555
 345  -749.6317
 346  -752.4172
 347  -538.0215
 348  -333.4924
 349  158.8428
 350  -89.94354
 351  399.1951
 352  269.6759
 353  215.1706
 354  165.9034
 355  285.1698
 356  390.2578
 357  223.5977
 358  138.1126
 359  272.42
 360  550.1029
 361  393.5646
 362  -327.381
 363  -441.9476
 364  -170.2663
 365  -348.8768
 366  -156.7577
 367  374.3887
 368  550.3206
 369  101.9303
 370  -271.619
 371  -419.3807
 372  -364.7631
 373  -72.7683
 374  -31.35376
 375  -475.3131
 376  -228.1921
 377  -199.6894
 378  -266.5719
 379  -433.8786
 380  -328.1545
 381  -497.66
 382  -619.3572
 383  -168.9219
 384  -465.215
 385  -601.3113
 386  -612.5557
 387  -786.4808
 388  -948.3949
 389  -818.1757
 390  -940.6301
 391  -921.8293
 392  -699.5151
 393  -655.451
 394  -446.8564
 395  -422.134
 396  -629.0989
 397  -691.2342
 398  -377.867
 399  -17.49465
 400  148.8194
 401  -461.5757
 402  -474.7076
 403  -78.565
 404  62.30312
 405  -344.1691
 406  -442.3065
 407  -510.8904
 408  -193.1811
 409  -63.56001
 410  37.99411
 411  -35.43462
 412  52.54906
 413  273.9156
 414  363.2784
 415  1011.638
 416  1415.253
 417  1813.742
 418  1593.147
 419  1389.283
 420  819.6867
 421  536.8575
 422  362.8792
 423  5.981385
 424  290.3473
 425  267.9109
 426  6.443965
 427  50.98844
 428  497.7021
 429  742.5814
 430  571.1108
 431  572.3439
 432  84.75026
 433  223.5453
 434  328.6484
 435  405.9964
 436  720.4832
 437  533.5149
 438  317.2199
 439  562.625
 440  272.3987
 441  201.6333
 442  -81.19152
 443  126.5076
 444  396.7328
 445  367.0893
 446  574.6415
 447  601.8312
 448  426.8055
 449  410.6362
 450  496.3265
 451  564.7172
 452  889.5981
 453  851.4534
 454  747.744
 455  814.2927
 456  779.4755
 457  922.9165
 458  1086.907
 459  1235.255
 460  988.8449
 461  977.2137
 462  672.7751
 463  774.3085
 464  1084.936
 465  1163.962
 466  982.3496
 467  828.1565
 468  1174.212
 469  743.9261
 470  724.6193
 471  688.4634
 472  889.406
 473  750.2898
 474  597.1841
 475  616.6075
 476  632.3428
 477  259.7489
 478  139.8677
 479  51.44109
 480  157.3995
 481  265.4381
 482  153.5917
 483  -157.1346
 484  -81.8798
 485  -185.2471
 486  -438.028
 487  -406.6049
 488  -483.905
 489  -673.6349
 490  -755.2347
 491  -641.1627
 492  -750.027
 493  -665.9286
 494  -897.077
 495  -895.8625
 496  -795.6481
 497  -691.1599
 498  -363.7068
 499  -721.8581
 500  -842.5098
 501  -634.7853
 502  -334.7734
 503  -163.2326
 504  -6.782593
 505  -94.62354
 506  -262.7209
 507  -272.2571
 508  -36.72552
 509  -204.7281
 510  -366.0612
 511  -184.8616
