# Input file       =  1204620467.112361_cleaned.dat
# Candidate        =  PSR_0332+5434
# Telescope        =  AR
# Epoch_topo       =  58186.366737411583
# Epoch_bary       =  N/A
# T_sample         =  0.002
# Data Folded      =  7208960
# Data Avg         =  0.222819187938744
# Data StdDev      =  5.0623971175817  
# Profile Bins     =  256
# Profile Avg      =  6274.87146913504 
# Profile StdDev   =  849.517902379321 
# Reduced chi-sqr  =  2.449
# Prob(Noise)      <  5.66e-33   (~11.9 sigma)
# P_topo (ms)      =  714.579164508827  +/- 2.89e-05
# P'_topo (s/s)    =  -0                +/- 1.55e-11
# P''_topo (s/s^2) =  0                 +/- 6.98e-15
# P_bary (ms)      =  N/A
# P'_bary (s/s)    =  N/A
# P''_bary (s/s^2) =  N/A
# P_orb (s)        =  N/A
# asin(i)/c (s)    =  N/A
# eccentricity     =  N/A
# w (rad)          =  N/A
# T_peri           =  N/A
######################################################
   0  7206.341
   1  6222.654
   2  6736.472
   3  4757.926
   4  5458.235
   5  6654.932
   6  8486.8
   7  6310.281
   8  5537.131
   9  5928.568
  10  6284.773
  11  4730.102
  12  3875.608
  13  6591.83
  14  8763.083
  15  6268.518
  16  5577.588
  17  6296.204
  18  6701.771
  19  5556.322
  20  3795.494
  21  5452.456
  22  7669.613
  23  7144.12
  24  5610.183
  25  6285.204
  26  5702.5
  27  6002.92
  28  4207.46
  29  4797.572
  30  6880.039
  31  7187.05
  32  5412.396
  33  6306.046
  34  5028.292
  35  5891.55
  36  4123.366
  37  4852.592
  38  6397.261
  39  7880.908
  40  6695.666
  41  5864.509
  42  6261.224
  43  6537.427
  44  5285.428
  45  4612.56
  46  7111.486
  47  8111.911
  48  6536.22
  49  5585.074
  50  6216.445
  51  5842.614
  52  5867.385
  53  4461.728
  54  6167.32
  55  7840.506
  56  7531.238
  57  5799.525
  58  6481.514
  59  6165.888
  60  5515.243
  61  3691.969
  62  5282.221
  63  6663.079
  64  8060.989
  65  5917.493
  66  6833.36
  67  5552.4
  68  5860.261
  69  3891.396
  70  4272.867
  71  5742.138
  72  7376.894
  73  5649.492
  74  6138.551
  75  5781.635
  76  6274.132
  77  4496.805
  78  4823.304
  79  5387.533
  80  8210.178
  81  8052.185
  82  6555.254
  83  6495.188
  84  5392.333
  85  6076.085
  86  4349.266
  87  5250.844
  88  6915.125
  89  7641.848
  90  5722.859
  91  6997.755
  92  6257.684
  93  5729.516
  94  3896.35
  95  6344.415
  96  7265.879
  97  8595.957
  98  6528.698
  99  6958.455
 100  5988.288
 101  6622.078
 102  4165.537
 103  5403.882
 104  6790.799
 105  8280.973
 106  6627.449
 107  6029.623
 108  6420.281
 109  6817.612
 110  4790.347
 111  4067.749
 112  6217.313
 113  7656.846
 114  6968.076
 115  5769.239
 116  6503.814
 117  5734.013
 118  6702.702
 119  3848.088
 120  5570.579
 121  7260.36
 122  8307.233
 123  6456.077
 124  6728.019
 125  6135.988
 126  7035.339
 127  4301.936
 128  5561.317
 129  6852.806
 130  8107.632
 131  6050.62
 132  6640.361
 133  6082.899
 134  7226.037
 135  4803.11
 136  5292.723
 137  6115.305
 138  8328.527
 139  6777.486
 140  6587.376
 141  6697.985
 142  7104.768
 143  5053.842
 144  5101.525
 145  7294.8
 146  8497.252
 147  7183.595
 148  6786.964
 149  7674.975
 150  7664.587
 151  8147.147
 152  7290.533
 153  7984.127
 154  7917.481
 155  8200.989
 156  6363.242
 157  6883.164
 158  6499.982
 159  7223.381
 160  4388.095
 161  5281.39
 162  6986.507
 163  8587.924
 164  6294.791
 165  6921.573
 166  6310.852
 167  7277.24
 168  4596.946
 169  5196.535
 170  6556.823
 171  8726.311
 172  6988.001
 173  5585.037
 174  6347.98
 175  6950.339
 176  5407.808
 177  4452.119
 178  6653.115
 179  8184.846
 180  7929.197
 181  6461.636
 182  6948.878
 183  6395.126
 184  6671.369
 185  4136.777
 186  6145.658
 187  7765.745
 188  8268.833
 189  6440.206
 190  7055.226
 191  6302.179
 192  6618.396
 193  4122.354
 194  5438.508
 195  6625.158
 196  7511.732
 197  6229.679
 198  6340.863
 199  6299.199
 200  6637.158
 201  4842.564
 202  4323.964
 203  6176.328
 204  7901.163
 205  6605.705
 206  5837.425
 207  6609.009
 208  6712.132
 209  4823.282
 210  4471.195
 211  6149.11
 212  7653.449
 213  7525.858
 214  5725.903
 215  7026.603
 216  6321.684
 217  5735.826
 218  4195.086
 219  6487.587
 220  8117.3
 221  8030.999
 222  6509.002
 223  6690.617
 224  6449.556
 225  6202.678
 226  4546.737
 227  5366.364
 228  7560.26
 229  8346.225
 230  6765.647
 231  6306.212
 232  6610.485
 233  7095.797
 234  4750.142
 235  4476.291
 236  6596.676
 237  8582.588
 238  6859.262
 239  6140.392
 240  6404.257
 241  6111.565
 242  5172.682
 243  3615.981
 244  5549.034
 245  7597.163
 246  6994.786
 247  6069.085
 248  6097.73
 249  5478.434
 250  6245.964
 251  3310.585
 252  5438.129
 253  7025.942
 254  7312.388
 255  5585.919
