# Input file       =  1204133086.10236_cleaned.dat
# Candidate        =  PSR_0332+5434
# Telescope        =  AR
# Epoch_topo       =  58180.725753499537
# Epoch_bary       =  N/A
# T_sample         =  0.002
# Data Folded      =  7340032
# Data Avg         =  0.164409558026819
# Data StdDev      =  5.77024451311245 
# Profile Bins     =  256
# Profile Avg      =  4713.97850852099 
# Profile StdDev   =  977.064447086754 
# Reduced chi-sqr  =  0.880
# Prob(Noise)      <  0.916   (~0.0 sigma)
# P_topo (ms)      =  714.580535197699  +/- 0.000697
# P'_topo (s/s)    =  -0                +/- 3.68e-10
# P''_topo (s/s^2) =  0                 +/- 1.62e-13
# P_bary (ms)      =  N/A
# P'_bary (s/s)    =  N/A
# P''_bary (s/s^2) =  N/A
# P_orb (s)        =  N/A
# asin(i)/c (s)    =  N/A
# eccentricity     =  N/A
# w (rad)          =  N/A
# T_peri           =  N/A
######################################################
   0  4959.696
   1  5089.528
   2  5101.001
   3  4378.396
   4  5064.094
   5  4922.642
   6  4602.636
   7  4336.932
   8  4508.925
   9  4356.319
  10  4923.604
  11  4721.071
  12  4052.923
  13  4251.607
  14  4798.01
  15  4248.022
  16  4112.507
  17  3832.983
  18  3619.95
  19  4695.749
  20  3931.434
  21  4711.532
  22  4333.619
  23  3367.235
  24  4006.785
  25  3335.422
  26  4164.047
  27  2689.582
  28  3287.35
  29  3769.78
  30  2647.634
  31  3285.469
  32  3110.377
  33  2987.688
  34  2640.537
  35  3333.201
  36  3484.499
  37  3214.416
  38  3577.476
  39  3613.706
  40  3984.694
  41  3203.3
  42  2817.586
  43  3477.23
  44  3445.242
  45  4165.647
  46  4782.762
  47  4365.161
  48  5366.415
  49  4842.181
  50  5345.28
  51  5678.315
  52  4981.396
  53  4610.554
  54  5529.949
  55  5983.081
  56  5024.755
  57  5067.518
  58  5032.946
  59  5191.571
  60  4375.312
  61  4797.792
  62  5882.664
  63  5419.955
  64  4667.968
  65  4849.453
  66  5416.229
  67  5101.949
  68  5101.769
  69  6128.039
  70  6141.126
  71  4806.906
  72  5285.343
  73  4878.588
  74  4220.51
  75  4080.889
  76  4909.206
  77  4750.921
  78  4256.825
  79  3581.819
  80  4616.396
  81  4890.492
  82  4490.045
  83  4288.054
  84  4108.098
  85  4131.785
  86  4739.096
  87  3994.565
  88  3977.448
  89  4180.365
  90  5076.637
  91  5446.301
  92  4615.705
  93  4433.789
  94  4544.645
  95  4867.298
  96  4392.46
  97  3173.731
  98  3998.184
  99  4330.03
 100  3528.331
 101  3233.516
 102  4349.401
 103  4222.832
 104  4488.385
 105  4082.607
 106  4756.717
 107  3525.033
 108  4062.593
 109  3896.478
 110  4181.058
 111  3646.215
 112  3782.67
 113  4713.439
 114  4296.771
 115  4444.289
 116  4862.48
 117  4803.359
 118  4433.263
 119  4334.989
 120  4987.205
 121  5056.464
 122  4863.538
 123  5220.42
 124  5109.675
 125  5116.36
 126  5014.451
 127  6035.192
 128  5925.26
 129  4640.312
 130  5153.265
 131  4767.245
 132  4944.599
 133  4379.122
 134  3810.807
 135  4604.677
 136  4964.09
 137  5126.688
 138  4896.583
 139  5621.334
 140  5515.988
 141  4938.449
 142  4696.723
 143  5796.328
 144  4847.105
 145  3620.767
 146  4081.006
 147  4322.227
 148  4923.427
 149  4605.13
 150  4929.49
 151  6724.897
 152  8693.74
 153  7829.7
 154  5874.03
 155  5081.35
 156  5069.581
 157  4598.721
 158  4942.068
 159  3675.014
 160  4540.856
 161  5011.007
 162  5336.932
 163  4581.338
 164  4879.503
 165  4709.505
 166  3580.582
 167  4222.31
 168  3826.459
 169  4190.951
 170  4711.826
 171  5242.231
 172  6261.016
 173  5683.438
 174  5763.502
 175  5929.563
 176  6372.08
 177  6110.484
 178  5476.583
 179  5794.096
 180  5473.923
 181  5166.953
 182  4873.147
 183  4053.725
 184  5066.762
 185  4822.54
 186  4336.065
 187  4862.1
 188  4119.4
 189  4503.802
 190  4312.967
 191  4104.717
 192  4090.386
 193  5192.32
 194  4888.262
 195  4544.649
 196  4867.017
 197  4619.949
 198  5311.718
 199  5541.086
 200  5368.349
 201  4672.233
 202  5109.413
 203  5437.635
 204  5988.352
 205  4966.119
 206  5399.028
 207  4751.013
 208  4328.077
 209  5016.375
 210  5001.371
 211  5190.993
 212  4741.93
 213  5248.768
 214  5935.383
 215  4973.425
 216  4748.465
 217  5815.458
 218  5482.92
 219  5060.864
 220  5145.348
 221  5150.474
 222  4282.283
 223  4284.228
 224  5088.349
 225  6200.852
 226  5071.736
 227  5319.675
 228  5266.267
 229  5004.22
 230  5359.942
 231  4713.929
 232  4897.723
 233  4735.588
 234  4647.718
 235  4472.407
 236  5278.714
 237  4729.265
 238  4275.559
 239  4060.107
 240  4429.002
 241  4883.305
 242  4719.357
 243  4579.54
 244  4846.466
 245  4690.045
 246  5830.662
 247  6129.026
 248  5102.788
 249  4990.867
 250  5522.472
 251  4771.677
 252  4431.24
 253  5128.556
 254  5483.862
 255  4483.518
