# Input file       =  1204047531.110057_cleaned.dat
# Candidate        =  PSR_0332+5434
# Telescope        =  AR
# Epoch_topo       =  58179.735533681218
# Epoch_bary       =  N/A
# T_sample         =  0.002
# Data Folded      =  7340032
# Data Avg         =  0.143956726815045
# Data StdDev      =  5.35435477284368 
# Profile Bins     =  256
# Profile Avg      =  4127.59707928299 
# Profile StdDev   =  906.642634249992 
# Reduced chi-sqr  =  0.639
# Prob(Noise)      <  1   (~0.0 sigma)
# P_topo (ms)      =  714.580675378422  +/- 0.000345
# P'_topo (s/s)    =  -0                +/- 1.82e-10
# P''_topo (s/s^2) =  0                 +/- 8.03e-14
# P_bary (ms)      =  N/A
# P'_bary (s/s)    =  N/A
# P''_bary (s/s^2) =  N/A
# P_orb (s)        =  N/A
# asin(i)/c (s)    =  N/A
# eccentricity     =  N/A
# w (rad)          =  N/A
# T_peri           =  N/A
######################################################
   0  3589.861
   1  3831.317
   2  4492.116
   3  4426.443
   4  4182.791
   5  4289.932
   6  4427.989
   7  4219.9
   8  3538.4
   9  3674.862
  10  3977.874
  11  3944.338
  12  3514.222
  13  4409.354
  14  3779.76
  15  4351.142
  16  4835.61
  17  3810.06
  18  4400.217
  19  4061.142
  20  3627.013
  21  3483.414
  22  3855.077
  23  3688.063
  24  3109.641
  25  4089.917
  26  4739.672
  27  4535.705
  28  4372.935
  29  3634.934
  30  4375.438
  31  4224.588
  32  3613.511
  33  3956.279
  34  4528.832
  35  4683.232
  36  4341.439
  37  4133.914
  38  4289.7
  39  3852.257
  40  3509.875
  41  4717.693
  42  4453.917
  43  4177.044
  44  4829.805
  45  4757.085
  46  3841.758
  47  3278.97
  48  3522.518
  49  3771.021
  50  3864.455
  51  4045.779
  52  4294.373
  53  3858.44
  54  3295.216
  55  3284.871
  56  3707.423
  57  3541.497
  58  4363.967
  59  4420.62
  60  4464.229
  61  4688.567
  62  4470.203
  63  4693.548
  64  4390.453
  65  3808.948
  66  4097.117
  67  4251.141
  68  3754.777
  69  4112.636
  70  4632.756
  71  4184.831
  72  4610.19
  73  4115.233
  74  4184.894
  75  3994.346
  76  4103.437
  77  4430.55
  78  4180.63
  79  3954.376
  80  3895.551
  81  4295.526
  82  3851.614
  83  3315.531
  84  3822.721
  85  3651.993
  86  3962.727
  87  4079.079
  88  4548.599
  89  3337.547
  90  3376.256
  91  3097.416
  92  3487.737
  93  3197.342
  94  3481.204
  95  4741.339
  96  4526.804
  97  4342.122
  98  4309.969
  99  4452.43
 100  4628.811
 101  3954.088
 102  4370.17
 103  4920.865
 104  4417.163
 105  4515.576
 106  4483.913
 107  4496.45
 108  4622.102
 109  5729.579
 110  4772.234
 111  4053.484
 112  3730.546
 113  3730.752
 114  4546.185
 115  5214.981
 116  5160.758
 117  5020.657
 118  5115.297
 119  4985.153
 120  4679.145
 121  4240.184
 122  4530.091
 123  4476.264
 124  4554.788
 125  4587.686
 126  3713.013
 127  4042.333
 128  4474.17
 129  4392.513
 130  4375.367
 131  4244.76
 132  5385.221
 133  4818.256
 134  5190.655
 135  4415.533
 136  4079.139
 137  3129.61
 138  3934.161
 139  3869.516
 140  2535.467
 141  3857.143
 142  4618.948
 143  4210.548
 144  4302.75
 145  4784.864
 146  4053.152
 147  4928.108
 148  5128.601
 149  5011.97
 150  5004.898
 151  5912.706
 152  6084.931
 153  5759.402
 154  4548.03
 155  3975.083
 156  3364.194
 157  3602.886
 158  3615.883
 159  4198.107
 160  3727.027
 161  3292.719
 162  4283.807
 163  3912.452
 164  3786.878
 165  3601.877
 166  4491.159
 167  4340.035
 168  4668.578
 169  4440.077
 170  3913.763
 171  3639.737
 172  3449.147
 173  3899.834
 174  3803.419
 175  4779.69
 176  4306.99
 177  3966.854
 178  3949.218
 179  3993.28
 180  3666.148
 181  3973.728
 182  4540.243
 183  4648.403
 184  4175.599
 185  4241.087
 186  5084.312
 187  5160.156
 188  5370.416
 189  5282.995
 190  5500.209
 191  5909.2
 192  4838.339
 193  4132.029
 194  4399.407
 195  3973.927
 196  3579.273
 197  3330.298
 198  3908.351
 199  3598.246
 200  3745.876
 201  3663.449
 202  4913.73
 203  4885.875
 204  4881.706
 205  4420.59
 206  4763.042
 207  3764.316
 208  3582.961
 209  3874.962
 210  3356.481
 211  4198.659
 212  4349.887
 213  4537.04
 214  5549.73
 215  5021.166
 216  3533.522
 217  3245.419
 218  3725.879
 219  3018.625
 220  3041.79
 221  3415.396
 222  3184.488
 223  3947.638
 224  4426.287
 225  5399.779
 226  4657.651
 227  3820.484
 228  3826.714
 229  3723.332
 230  3236.775
 231  3650.695
 232  2865.929
 233  3281.879
 234  3423.108
 235  3454.911
 236  3287.758
 237  3823.004
 238  4119.612
 239  3537.011
 240  2814.67
 241  2793.082
 242  3207.746
 243  2391.017
 244  3202.976
 245  3485.766
 246  2983.913
 247  3509.897
 248  4223.124
 249  4033.356
 250  3390.59
 251  4193.465
 252  4642.729
 253  3459.983
 254  3075.389
 255  4116.666
