# Input file       =  1204994642.105844_cleaned.dat
# Candidate        =  PSR_0332+5434
# Telescope        =  AR
# Epoch_topo       =  58190.697466502825
# Epoch_bary       =  N/A
# T_sample         =  0.002
# Data Folded      =  7340032
# Data Avg         =  0.0179391767003298
# Data StdDev      =  1.00003928616761 
# Profile Bins     =  512
# Profile Avg      =  257.113202473295 
# Profile StdDev   =  119.737740228902 
# Reduced chi-sqr  =  1.145
# Prob(Noise)      <  0.0126   (~2.2 sigma)
# P_topo (ms)      =  714.578345747214  +/- 0.000279
# P'_topo (s/s)    =  -0                +/- 1.47e-10
# P''_topo (s/s^2) =  0                 +/- 6.5e-14
# P_bary (ms)      =  N/A
# P'_bary (s/s)    =  N/A
# P''_bary (s/s^2) =  N/A
# P_orb (s)        =  N/A
# asin(i)/c (s)    =  N/A
# eccentricity     =  N/A
# w (rad)          =  N/A
# T_peri           =  N/A
######################################################
   0  197.4859
   1  121.5037
   2  67.55537
   3  237.17
   4  288.3089
   5  304.5213
   6  221.536
   7  134.5975
   8  291.0332
   9  383.4518
  10  254.4853
  11  199.1856
  12  127.9487
  13  111.2062
  14  139.4946
  15  285.6917
  16  267.5453
  17  251.5551
  18  208.3124
  19  132.443
  20  111.273
  21  187.5636
  22  195.3064
  23  196.2626
  24  249.9608
  25  251.1912
  26  300.881
  27  265.6733
  28  207.3616
  29  241.1591
  30  402.8628
  31  265.5754
  32  163.5047
  33  133.7376
  34  262.6817
  35  214.3318
  36  137.5064
  37  146.9103
  38  148.4062
  39  228.0186
  40  190.8522
  41  193.1807
  42  167.3011
  43  367.8587
  44  321.6927
  45  216.1706
  46  235.9548
  47  246.8189
  48  313.2467
  49  319.9587
  50  196.9649
  51  288.0272
  52  381.3796
  53  271.782
  54  245.0605
  55  119.7135
  56  186.5958
  57  250.3993
  58  243.14
  59  273.2837
  60  208.8039
  61  261.183
  62  241.6763
  63  243.8925
  64  305.2794
  65  172.1663
  66  62.26093
  67  166.2282
  68  251.7874
  69  193.3482
  70  192.368
  71  112.1534
  72  216.564
  73  280.4923
  74  182.9158
  75  195.3886
  76  165.8155
  77  124.6146
  78  143.0713
  79  288.5723
  80  209.2893
  81  230.5879
  82  181.4132
  83  152.7738
  84  155.3345
  85  176.9018
  86  195.4547
  87  229.1842
  88  293.2274
  89  273.7208
  90  298.1659
  91  312.2821
  92  210.8034
  93  137.6554
  94  155.7779
  95  257.5103
  96  360.3795
  97  274.431
  98  351.4289
  99  271.9674
 100  250.812
 101  440.0031
 102  466.1956
 103  576.6169
 104  821.3226
 105  915.2288
 106  832.8804
 107  517.0378
 108  357.4635
 109  460.3611
 110  319.6272
 111  204.4735
 112  224.3784
 113  247.0628
 114  374.6523
 115  356.0371
 116  404.2688
 117  449.3123
 118  318.0732
 119  327.063
 120  382.0625
 121  330.5567
 122  288.1173
 123  230.3801
 124  243.4847
 125  216.0364
 126  207.2364
 127  223.4299
 128  241.5582
 129  126.2505
 130  122.3971
 131  95.71596
 132  100.7497
 133  158.116
 134  301.5798
 135  326.9598
 136  319.0735
 137  190.415
 138  235.7972
 139  156.5453
 140  215.2381
 141  60.78198
 142  165.6461
 143  185.5126
 144  138.7142
 145  146.5437
 146  187.0788
 147  268.614
 148  121.8099
 149  185.9583
 150  186.7865
 151  113.9701
 152  174.4348
 153  218.7836
 154  133.3096
 155  132.9721
 156  164.1005
 157  134.3967
 158  154.3166
 159  194.0181
 160  228.5721
 161  199.1438
 162  217.8048
 163  215.8717
 164  186.7979
 165  178.7303
 166  163.5417
 167  147.7165
 168  302.8815
 169  418.9301
 170  284.6652
 171  278.4919
 172  271.0584
 173  232.574
 174  275.6794
 175  176.0396
 176  124.8209
 177  241.7618
 178  235.1522
 179  149.3362
 180  283.1063
 181  296.9033
 182  256.8881
 183  253.351
 184  301.9665
 185  330.3101
 186  393.924
 187  336.9707
 188  260.1698
 189  306.2064
 190  322.5242
 191  155.6703
 192  197.5412
 193  343.2845
 194  346.5414
 195  318.7223
 196  295.9514
 197  300.9036
 198  290.2593
 199  213.221
 200  239.452
 201  209.5053
 202  136.8084
 203  125.7862
 204  86.55937
 205  124.8834
 206  116.6187
 207  44.07985
 208  90.39009
 209  126.6816
 210  259.2547
 211  150.3566
 212  296.6247
 213  321.0648
 214  312.9332
 215  259.268
 216  108.2407
 217  147.6001
 218  251.9544
 219  269.6099
 220  239.1514
 221  202.3638
 222  276.6246
 223  315.1699
 224  235.7585
 225  351.4788
 226  282.0435
 227  240.3325
 228  339.7878
 229  338.3824
 230  359.8181
 231  346.5585
 232  301.796
 233  257.8503
 234  205.1304
 235  211.0459
 236  241.5655
 237  203.9535
 238  256.5015
 239  284.1433
 240  354.4189
 241  277.2123
 242  226.1268
 243  178.2064
 244  161.8578
 245  248.1434
 246  258.8297
 247  396.8632
 248  425.6924
 249  375.7902
 250  301.8615
 251  359.6581
 252  186.6136
 253  197.5352
 254  352.052
 255  305.7921
 256  250.5239
 257  258.9819
 258  343.368
 259  403.3548
 260  351.3725
 261  299.7948
 262  372.1712
 263  291.1603
 264  246.0179
 265  276.385
 266  295.2418
 267  266.9165
 268  241.1751
 269  238.1267
 270  319.251
 271  311.6458
 272  195.0982
 273  222.8581
 274  243.8588
 275  249.9986
 276  250.7815
 277  248.1077
 278  166.9053
 279  202.3043
 280  412.155
 281  355.0563
 282  263.1892
 283  270.6546
 284  353.0349
 285  293.3966
 286  313.8696
 287  360.8701
 288  236.1366
 289  235.3407
 290  254.9945
 291  259.4281
 292  225.0001
 293  341.0165
 294  378.3792
 295  349.0518
 296  203.2538
 297  192.8715
 298  247.2508
 299  379.185
 300  338.1901
 301  345.9087
 302  269.3799
 303  331.0412
 304  343.5731
 305  287.9551
 306  260.6647
 307  365.1131
 308  456.9362
 309  347.9562
 310  230.6205
 311  207.9709
 312  243.716
 313  227.0372
 314  307.5174
 315  343.7809
 316  246.2043
 317  297.4323
 318  252.2796
 319  299.9547
 320  327.5097
 321  299.94
 322  230.7022
 323  169.2515
 324  385.9991
 325  250.2231
 326  286.0883
 327  200.2777
 328  166.4149
 329  298.057
 330  316.9787
 331  350.7664
 332  151.9867
 333  212.0552
 334  303.4542
 335  328.2448
 336  392.1969
 337  345.0025
 338  296.3546
 339  260.9944
 340  256.6302
 341  177.0715
 342  185.6629
 343  218.8476
 344  289.3586
 345  302.0969
 346  224.9183
 347  288.573
 348  386.5122
 349  287.3518
 350  262.9922
 351  395.5573
 352  305.4904
 353  236.8617
 354  314.2656
 355  329.4908
 356  279.2743
 357  294.0193
 358  438.1348
 359  356.1739
 360  181.6747
 361  177.513
 362  278.5511
 363  343.3724
 364  294.8414
 365  379.4533
 366  280.9716
 367  183.2502
 368  211.0891
 369  197.5704
 370  291.9219
 371  278.7792
 372  111.072
 373  158.8455
 374  220.2098
 375  258.7775
 376  187.8865
 377  220.2965
 378  220.9366
 379  361.4395
 380  391.2294
 381  304.7428
 382  313.4631
 383  194.9754
 384  167.7237
 385  211.0482
 386  248.7462
 387  245.8257
 388  335.2245
 389  224.8923
 390  262.4196
 391  239.6907
 392  212.1959
 393  160.0991
 394  255.2967
 395  366.8642
 396  276.6397
 397  184.2147
 398  369.0525
 399  445.1916
 400  378.1199
 401  396.8784
 402  315.3873
 403  203.74
 404  179.6005
 405  142.3807
 406  300.5842
 407  289.1192
 408  241.1728
 409  295.6118
 410  204.3646
 411  258.8279
 412  228.5985
 413  148.4113
 414  283.0477
 415  422.3005
 416  314.7793
 417  327.3977
 418  384.7759
 419  358.9372
 420  319.7613
 421  268.2511
 422  335.7181
 423  388.4893
 424  327.273
 425  306.4909
 426  362.7482
 427  368.4282
 428  341.424
 429  258.5382
 430  238.4035
 431  253.5267
 432  217.426
 433  260.4601
 434  195.3211
 435  224.5733
 436  240.5803
 437  171.1273
 438  102.0471
 439  207.125
 440  356.0692
 441  367.4923
 442  226.0723
 443  125.425
 444  164.231
 445  282.8677
 446  282.8264
 447  256.0459
 448  239.7484
 449  223.4734
 450  232.5942
 451  205.6691
 452  213.5531
 453  242.6953
 454  213.7517
 455  166.4893
 456  153.2559
 457  87.41563
 458  139.1193
 459  241.8826
 460  243.1631
 461  241.0169
 462  193.2432
 463  255.2581
 464  253.4299
 465  231.2135
 466  203.8992
 467  209.2899
 468  216.7587
 469  220.2617
 470  219.0175
 471  318.6837
 472  386.8209
 473  437.3828
 474  371.5758
 475  197.8467
 476  301.9355
 477  336.0569
 478  226.9275
 479  286.8223
 480  385.081
 481  320.9802
 482  301.5838
 483  291.4805
 484  217.4824
 485  310.2922
 486  277.2935
 487  148.3059
 488  233.9351
 489  223.9604
 490  210.6851
 491  251.6059
 492  179.5109
 493  176.7886
 494  308.9521
 495  360.0471
 496  234.9894
 497  192.9619
 498  155.8805
 499  116.0694
 500  70.95508
 501  159.3226
 502  277.4141
 503  274.9064
 504  198.0121
 505  141.1638
 506  164.3781
 507  282.9387
 508  284.9431
 509  330.3369
 510  247.3461
 511  305.2522
