# Input file       =  1204994642.105844-PSRB0329-2ms-sampling-dd.dat
# Candidate        =  PSR_0332+5434
# Telescope        =  AR
# Epoch_topo       =  58190.697466502825
# Epoch_bary       =  N/A
# T_sample         =  0.002
# Data Folded      =  7340032
# Data Avg         =  2.89596927530667e-10
# Data StdDev      =  8.33236532479136 
# Profile Bins     =  512
# Profile Avg      =  -0.238783842052669
# Profile StdDev   =  997.659400537749 
# Reduced chi-sqr  =  0.525
# Prob(Noise)      <  1   (~0.0 sigma)
# P_topo (ms)      =  714.578345747214  +/- 0.000531
# P'_topo (s/s)    =  -0                +/- 2.8e-10
# P''_topo (s/s^2) =  0                 +/- 1.24e-13
# P_bary (ms)      =  N/A
# P'_bary (s/s)    =  N/A
# P''_bary (s/s^2) =  N/A
# P_orb (s)        =  N/A
# asin(i)/c (s)    =  N/A
# eccentricity     =  N/A
# w (rad)          =  N/A
# T_peri           =  N/A
######################################################
   0  378.9046
   1  13.60693
   2  -668.681
   3  -402.8136
   4  -218.3592
   5  191.5928
   6  214.7528
   7  94.64507
   8  308.1547
   9  146.1879
  10  -212.5971
  11  -205.5464
  12  -544.7463
  13  -264.9048
  14  -397.1499
  15  563.3497
  16  371.6921
  17  613.8467
  18  609.7686
  19  53.67001
  20  7.565237
  21  -37.79068
  22  -27.01128
  23  -61.94751
  24  13.363
  25  188.3903
  26  292.2479
  27  279.4236
  28  44.36589
  29  -50.77592
  30  339.4029
  31  -51.26162
  32  -272.0688
  33  170.5591
  34  459.128
  35  391.0081
  36  121.8305
  37  -758.2546
  38  -1332.304
  39  -895.6663
  40  -54.24165
  41  32.61848
  42  -181.8597
  43  563.2654
  44  -149.625
  45  -708.2277
  46  -886.2474
  47  -350.8957
  48  89.51673
  49  106.7405
  50  53.41728
  51  29.13214
  52  -38.94734
  53  -652.8469
  54  -453.6491
  55  -246.1125
  56  82.70251
  57  445.7607
  58  288.0379
  59  -141.1707
  60  -200.2183
  61  460.0889
  62  973.5808
  63  746.2218
  64  902.2498
  65  477.0638
  66  -410.9339
  67  -356.7526
  68  55.78952
  69  46.76602
  70  160.0726
  71  -234.088
  72  30.9749
  73  -196.1082
  74  -747.436
  75  -802.9366
  76  -505.9184
  77  -403.1879
  78  -568.8843
  79  -181.1259
  80  -382.9906
  81  -261.4017
  82  -365.707
  83  -239.0911
  84  -234.0907
  85  -64.74741
  86  -166.4506
  87  -161.4425
  88  -197.8265
  89  -485.8227
  90  108.2682
  91  220.8675
  92  52.78844
  93  13.28992
  94  240.4443
  95  -33.44495
  96  -104.0081
  97  -131.9405
  98  331.2567
  99  492.0474
 100  488.0116
 101  1125.879
 102  979.0233
 103  1248.827
 104  2110.003
 105  2156.049
 106  1909.663
 107  907.4766
 108  485.0824
 109  888.4329
 110  358.9434
 111  282.6495
 112  475.0758
 113  646.134
 114  1313.304
 115  1186.278
 116  225.0384
 117  581.2156
 118  35.11156
 119  908.7401
 120  1338.1
 121  1083.876
 122  645.5315
 123  -201.4175
 124  -400.0077
 125  -1146.436
 126  -501.4888
 127  -180.7097
 128  -176.5317
 129  -581.9077
 130  -767.1385
 131  -919.5879
 132  -778.2106
 133  -530.7243
 134  -411.8557
 135  -544.7656
 136  -465.0556
 137  -869.8539
 138  -547.1108
 139  -827.802
 140  -480.2027
 141  -1121.732
 142  -716.9021
 143  -532.26
 144  -515.7281
 145  -608.2703
 146  -528.9053
 147  -249.963
 148  -466.7351
 149  -334.0254
 150  -326.3721
 151  -318.2285
 152  -118.282
 153  135.5438
 154  -76.5739
 155  -218.4027
 156  -322.7861
 157  -499.4211
 158  -238.3526
 159  -240.0485
 160  -272.5363
 161  -426.0634
 162  60.21794
 163  36.76664
 164  -151.2576
 165  -104.7537
 166  -320.5757
 167  -613.3953
 168  -28.50116
 169  631.2141
 170  31.068
 171  114.1058
 172  35.03011
 173  125.3967
 174  -76.27775
 175  -382.4993
 176  -359.3831
 177  -47.41391
 178  172.2764
 179  -19.69294
 180  612.1293
 181  479.5331
 182  200.3589
 183  466.4583
 184  515.3738
 185  691.2308
 186  680.967
 187  437.4022
 188  95.62045
 189  437.6272
 190  645.6215
 191  -140.7596
 192  -535.1962
 193  37.82463
 194  62.31707
 195  139.1565
 196  -210.3434
 197  -104.5977
 198  102.628
 199  -344.1576
 200  -418.9238
 201  -577.8432
 202  -428.7684
 203  -809.7124
 204  -886.3473
 205  -587.4877
 206  -697.795
 207  -1080.976
 208  -1030.925
 209  -1182.597
 210  -677.1573
 211  -890.6296
 212  117.4205
 213  10.74702
 214  -135.1723
 215  110.1664
 216  -344.3338
 217  -445.854
 218  -68.26276
 219  122.7786
 220  -103.4463
 221  -207.8856
 222  102.8632
 223  172.7518
 224  -64.10368
 225  366.8671
 226  499.3606
 227  589.0182
 228  534.6425
 229  542.3032
 230  565.321
 231  404.5021
 232  303.6061
 233  216.3602
 234  241.0113
 235  273.651
 236  115.3745
 237  78.10344
 238  105.1309
 239  19.11743
 240  245.8301
 241  471.4795
 242  160.0875
 243  -431.5294
 244  -394.4748
 245  -195.9359
 246  -114.2324
 247  235.5986
 248  596.8421
 249  608.1017
 250  90.21685
 251  294.4262
 252  -366.2279
 253  -546.5354
 254  -324.1105
 255  308.8008
 256  148.3022
 257  88.43935
 258  22.43996
 259  -125.1103
 260  -308.8345
 261  -744.3905
 262  -260.5992
 263  -397.125
 264  -202.0564
 265  -69.20824
 266  -176.2823
 267  -570.6799
 268  -762.8762
 269  -400.474
 270  -354.8462
 271  11.0354
 272  -261.0785
 273  -92.85287
 274  -146.0739
 275  -461.0377
 276  -287.2084
 277  -42.90597
 278  -191.0038
 279  30.97812
 280  495.0658
 281  149.6971
 282  72.42322
 283  -81.98257
 284  145.3583
 285  -30.50172
 286  254.8159
 287  460.9194
 288  -275.6654
 289  -306.2274
 290  -686.9463
 291  -359.6053
 292  -563.2384
 293  -296.8455
 294  253.6336
 295  -44.52777
 296  -605.1266
 297  -873.6995
 298  -628.2274
 299  -326.7192
 300  -540.907
 301  51.20611
 302  -200.2514
 303  -27.8309
 304  -112.9
 305  -114.6621
 306  -158.3975
 307  213.1466
 308  244.6187
 309  14.85871
 310  -392.4274
 311  -579.1305
 312  -560.6461
 313  -352.9185
 314  151.7499
 315  283.1326
 316  -12.53867
 317  -82.54507
 318  -265.4185
 319  99.59346
 320  248.1404
 321  145.2634
 322  146.7337
 323  95.6127
 324  336.5146
 325  -315.1731
 326  -14.07194
 327  -319.9763
 328  -89.50176
 329  189.0941
 330  304.989
 331  -29.64342
 332  -889.5056
 333  -468.5229
 334  -251.7563
 335  -10.30409
 336  181.4959
 337  -29.69217
 338  -170.5141
 339  -496.1193
 340  -644.3783
 341  -737.483
 342  -925.4078
 343  -539.4263
 344  -458.9143
 345  -198.2531
 346  -567.8015
 347  -212.9321
 348  204.2183
 349  -258.4876
 350  -376.4497
 351  -174.9375
 352  -140.3151
 353  -245.2152
 354  89.27403
 355  468.4943
 356  -46.55635
 357  -3.845386
 358  659.022
 359  664.0148
 360  239.8298
 361  218.4105
 362  461.7646
 363  572.3811
 364  2.370988
 365  94.9651
 366  -511.3191
 367  -659.9656
 368  -341.0031
 369  -328.0247
 370  288.1687
 371  156.7444
 372  -483.4569
 373  -301.7437
 374  -451.646
 375  -456.9227
 376  -921.347
 377  -345.1761
 378  -565.4337
 379  -218.2725
 380  -50.20819
 381  -461.6919
 382  -501.772
 383  -937.583
 384  -923.2726
 385  -668.6811
 386  -492.7188
 387  -775.7089
 388  -564.2897
 389  -761.2374
 390  -581.2097
 391  -583.2924
 392  -453.3168
 393  -830.3853
 394  -546.3145
 395  -376.1059
 396  -591.6212
 397  -673.8531
 398  142.3627
 399  467.3139
 400  173.2949
 401  81.4001
 402  -51.02718
 403  -206.0654
 404  -358.723
 405  -455.271
 406  349.5651
 407  373.0316
 408  114.3298
 409  443.8772
 410  -133.4059
 411  -25.06295
 412  -413.1553
 413  -613.5623
 414  -133.9699
 415  14.59614
 416  -81.78403
 417  -117.6421
 418  58.12434
 419  170.2139
 420  -51.7522
 421  -343.4544
 422  -113.1672
 423  259.6215
 424  282.8268
 425  39.86536
 426  290.9559
 427  478.3654
 428  23.77491
 429  -318.3365
 430  -632.3818
 431  -580.775
 432  -785.5342
 433  -498.1739
 434  -630.6223
 435  -742.4044
 436  -146.5355
 437  -180.8701
 438  -175.1443
 439  250.9162
 440  -8.71892
 441  193.778
 442  -7.334979
 443  -9.596157
 444  471.1285
 445  958.0688
 446  960.6778
 447  741.9406
 448  790.6218
 449  752.6336
 450  -100.9348
 451  -359.0661
 452  -67.92592
 453  523.6357
 454  645.9734
 455  604.3043
 456  523.0334
 457  -157.7272
 458  -417.6745
 459  189.6372
 460  535.0976
 461  915.3494
 462  453.815
 463  653.4357
 464  333.3904
 465  -230.7234
 466  236.5731
 467  198.2148
 468  479.844
 469  310.1526
 470  112.8441
 471  61.72215
 472  266.1366
 473  1070.228
 474  1312.134
 475  815.2024
 476  971.5685
 477  868.6536
 478  367.6308
 479  -10.42298
 480  831.7673
 481  1287.169
 482  1231.791
 483  1385.614
 484  1266.753
 485  1261.467
 486  1179.577
 487  1218.177
 488  2084.18
 489  1056.451
 490  1218.185
 491  1288.89
 492  658.9776
 493  651.521
 494  968.484
 495  1361.902
 496  320.8601
 497  189.9645
 498  202.735
 499  -462.9579
 500  -545.6684
 501  -505.7274
 502  288.9081
 503  288.7523
 504  188.1622
 505  301.5364
 506  111.2099
 507  71.98447
 508  -106.4424
 509  414.9301
 510  485.8109
 511  775.7471
