# Input file       =  1204367855.101803_cleaned.dat
# Candidate        =  PSR_0332+5434
# Telescope        =  AR
# Epoch_topo       =  58183.442987289389
# Epoch_bary       =  N/A
# T_sample         =  0.002
# Data Folded      =  7340032
# Data Avg         =  0.0154517329588644
# Data StdDev      =  0.999969558126076
# Profile Bins     =  512
# Profile Avg      =  220.822175969478 
# Profile StdDev   =  119.729391478768 
# Reduced chi-sqr  =  1.400
# Prob(Noise)      <  5.35e-09   (~5.7 sigma)
# P_topo (ms)      =  714.579719153186  +/- 0.000183
# P'_topo (s/s)    =  -0                +/- 9.64e-11
# P''_topo (s/s^2) =  0                 +/- 4.26e-14
# P_bary (ms)      =  N/A
# P'_bary (s/s)    =  N/A
# P''_bary (s/s^2) =  N/A
# P_orb (s)        =  N/A
# asin(i)/c (s)    =  N/A
# eccentricity     =  N/A
# w (rad)          =  N/A
# T_peri           =  N/A
######################################################
   0  970.2274
   1  846.0801
   2  491.8373
   3  302.9024
   4  432.0064
   5  330.1559
   6  344.7362
   7  289.745
   8  135.2922
   9  177.6148
  10  211.6087
  11  273.3672
  12  310.3371
  13  315.9864
  14  210.1019
  15  257.92
  16  143.8213
  17  156.3941
  18  149.0636
  19  146.3665
  20  227.3872
  21  232.2384
  22  217.791
  23  216.4753
  24  137.1001
  25  163.2103
  26  169.1906
  27  134.2256
  28  172.8857
  29  150.4708
  30  125.4797
  31  141.4161
  32  306.9494
  33  288.8614
  34  257.7982
  35  193.1845
  36  174.3521
  37  219.9289
  38  165.9934
  39  270.3929
  40  246.7579
  41  110.5483
  42  96.8204
  43  147.0318
  44  164.4255
  45  188.8373
  46  61.65374
  47  157.0312
  48  59.80237
  49  122.9552
  50  212.0274
  51  257.2981
  52  239.6229
  53  242.7106
  54  177.8139
  55  81.37228
  56  216.7921
  57  261.6096
  58  234.8138
  59  235.8324
  60  166.7246
  61  232.7442
  62  118.6891
  63  165.933
  64  69.6266
  65  127.479
  66  203.552
  67  174.2014
  68  104.3337
  69  208.6209
  70  272.7624
  71  159.5312
  72  -19.68985
  73  31.31515
  74  147.966
  75  66.56985
  76  127.428
  77  248.3624
  78  244.0506
  79  97.24938
  80  188.9737
  81  127.4812
  82  111.3091
  83  114.5198
  84  180.2397
  85  135.921
  86  179.0617
  87  137.1079
  88  87.92253
  89  45.92917
  90  203.6843
  91  70.27284
  92  2.208068
  93  76.91035
  94  211.9244
  95  135.1779
  96  95.01244
  97  156.832
  98  55.82673
  99  35.72245
 100  110.2582
 101  93.5244
 102  52.75358
 103  40.53975
 104  198.0771
 105  186.6981
 106  207.5764
 107  123.9637
 108  125.7132
 109  151.0293
 110  170.8113
 111  122.9924
 112  127.3801
 113  160.653
 114  243.0584
 115  220.5112
 116  32.49549
 117  126.0125
 118  117.9507
 119  107.8242
 120  137.4611
 121  256.2222
 122  287.1019
 123  192.8708
 124  275.4665
 125  318.2585
 126  143.2129
 127  43.50307
 128  49.74111
 129  142.1388
 130  120.9914
 131  159.5933
 132  260.9151
 133  279.2483
 134  276.8227
 135  164.0816
 136  192.2187
 137  261.5447
 138  207.8494
 139  136.1529
 140  138.1725
 141  242.5753
 142  141.4109
 143  164.3828
 144  247.4272
 145  309.7704
 146  266.1767
 147  332.0159
 148  359.1887
 149  299.236
 150  341.069
 151  206.6576
 152  177.4673
 153  285.3928
 154  277.6094
 155  239.1505
 156  254.1624
 157  189.0465
 158  230.5155
 159  184.2464
 160  174.4422
 161  253.3431
 162  375.4119
 163  286.4756
 164  248.5216
 165  296.6495
 166  233.4208
 167  202.0606
 168  235.0499
 169  220.4388
 170  319.1125
 171  425.9531
 172  447.4841
 173  282.157
 174  175.2196
 175  168.0717
 176  235.3563
 177  80.95675
 178  198.5693
 179  237.3239
 180  227.6504
 181  227.9635
 182  116.3744
 183  157.1353
 184  187.1001
 185  208.519
 186  189.3797
 187  212.0547
 188  181.2356
 189  232.0719
 190  288.8685
 191  179.9231
 192  156.0684
 193  186.2505
 194  237.6715
 195  250.7887
 196  282.5079
 197  202.888
 198  114.5309
 199  186.3002
 200  5.68223
 201  -32.77389
 202  83.49877
 203  239.5792
 204  291.6456
 205  298.0155
 206  177.9265
 207  126.7013
 208  140.6178
 209  220.0106
 210  272.433
 211  302.404
 212  270.4428
 213  131.4918
 214  96.17855
 215  75.07491
 216  167.8961
 217  258.3841
 218  232.9497
 219  279.8229
 220  88.9701
 221  158.6984
 222  168.2903
 223  148.7077
 224  172.0162
 225  166.6864
 226  151.791
 227  191.4056
 228  181.9874
 229  136.5906
 230  197.1123
 231  149.913
 232  200.0586
 233  151.8695
 234  121.144
 235  262.6687
 236  242.6023
 237  351.5033
 238  397.8399
 239  217.8736
 240  305.8001
 241  205.0836
 242  149.4819
 243  193.9521
 244  198.8794
 245  337.3245
 246  271.9827
 247  129.3561
 248  98.75168
 249  134.9493
 250  304.1676
 251  294.5604
 252  266.5596
 253  263.3209
 254  104.7367
 255  167.3421
 256  229.7442
 257  317.8437
 258  316.7383
 259  289.6749
 260  196.8777
 261  139.3322
 262  244.9964
 263  354.0099
 264  232.1132
 265  143.0004
 266  194.4403
 267  291.9429
 268  238.5183
 269  206.4222
 270  102.0778
 271  191.4678
 272  290.2639
 273  260.8462
 274  239.5306
 275  185.5909
 276  114.9104
 277  126.6033
 278  207.1335
 279  236.3087
 280  361.6469
 281  354.287
 282  328.9129
 283  292.3542
 284  272.588
 285  275.9753
 286  195.535
 287  163.4246
 288  217.9926
 289  236.4017
 290  258.171
 291  250.0532
 292  184.7927
 293  256.7608
 294  246.1819
 295  216.3364
 296  255.5914
 297  257.5807
 298  289.9222
 299  275.328
 300  239.1836
 301  243.719
 302  211.0083
 303  225.5916
 304  391.7978
 305  312.9247
 306  258.9041
 307  340.1364
 308  220.2722
 309  157.9315
 310  167.6274
 311  185.7261
 312  228.2073
 313  193.8396
 314  224.1906
 315  207.0228
 316  175.4759
 317  190.8994
 318  265.5612
 319  341.7284
 320  405.4614
 321  366.2098
 322  261.393
 323  285.7971
 324  318.3616
 325  309.6297
 326  188.1572
 327  335.1149
 328  490.2255
 329  407.3997
 330  244.2142
 331  309.5023
 332  323.7758
 333  281.7615
 334  215.7758
 335  248.5557
 336  346.5837
 337  410.1547
 338  318.8943
 339  327.9399
 340  271.6281
 341  362.4486
 342  362.003
 343  217.2383
 344  241.1978
 345  265.9396
 346  297.0895
 347  286.7117
 348  287.2396
 349  250.5485
 350  212.2774
 351  189.6788
 352  184.1308
 353  241.0331
 354  215.3583
 355  180.9233
 356  216.8168
 357  335.2304
 358  383.9594
 359  340.7132
 360  230.7796
 361  211.0281
 362  234.9746
 363  260.414
 364  305.7708
 365  226.2613
 366  221.5408
 367  75.43882
 368  148.727
 369  205.1076
 370  137.2737
 371  153.6973
 372  193.1953
 373  368.84
 374  321.9342
 375  302.7401
 376  380.5381
 377  311.0625
 378  189.3815
 379  103.2835
 380  102.7087
 381  209.1802
 382  288.0977
 383  281.6884
 384  241.8573
 385  283.5812
 386  225.7713
 387  227.4769
 388  272.9925
 389  101.3585
 390  183.7825
 391  181.2021
 392  174.1437
 393  134.6563
 394  180.4988
 395  351.7237
 396  201.4137
 397  182.5248
 398  128.2306
 399  125.6171
 400  368.7981
 401  334.045
 402  225.7517
 403  239.8396
 404  267.6719
 405  300.6296
 406  323.233
 407  314.9001
 408  281.0541
 409  299.6077
 410  272.9758
 411  211.4962
 412  258.7349
 413  296.0765
 414  147.6075
 415  224.4316
 416  110.58
 417  10.96584
 418  180.2071
 419  307.7113
 420  214.5069
 421  188.9845
 422  83.96873
 423  83.07018
 424  221.3261
 425  287.4499
 426  274.2685
 427  308.7464
 428  320.237
 429  189.4935
 430  279.2833
 431  192.9397
 432  149.7379
 433  193.9821
 434  231.2488
 435  271.5316
 436  242.7722
 437  230.2229
 438  197.4019
 439  258.4242
 440  165.6492
 441  181.5956
 442  178.9814
 443  214.9575
 444  85.22457
 445  195.1184
 446  264.6235
 447  315.5826
 448  338.4271
 449  188.4067
 450  209.2482
 451  207.8557
 452  132.599
 453  192.8627
 454  284.5368
 455  255.2907
 456  266.4311
 457  240.628
 458  259.4624
 459  177.8322
 460  81.79622
 461  182.9125
 462  244.4268
 463  320.2993
 464  239.1558
 465  237.4238
 466  157.4631
 467  97.84895
 468  160.2006
 469  125.2951
 470  187.5174
 471  159.8356
 472  195.1446
 473  257.4997
 474  256.2728
 475  203.5488
 476  136.6465
 477  147.5445
 478  188.5683
 479  186.6406
 480  35.59424
 481  42.97355
 482  64.52858
 483  64.43885
 484  101.3196
 485  321.5686
 486  413.4326
 487  323.4062
 488  102.5653
 489  168.7528
 490  122.6183
 491  194.9048
 492  394.5754
 493  306.8655
 494  293.4373
 495  230.611
 496  324.347
 497  249.6427
 498  127.557
 499  128.6162
 500  233.3781
 501  303.2013
 502  245.1581
 503  343.1059
 504  375.6279
 505  308.9669
 506  288.8376
 507  351.1173
 508  404.2495
 509  514.2554
 510  683.7446
 511  930.455
