# Input file       =  1204650021.107856_cleaned.dat
# Candidate        =  PSR_0332+5434
# Telescope        =  AR
# Epoch_topo       =  58186.708797544627
# Epoch_bary       =  N/A
# T_sample         =  0.002
# Data Folded      =  7340032
# Data Avg         =  0.0236898808381049
# Data StdDev      =  1.00004113707285 
# Profile Bins     =  512
# Profile Avg      =  339.62785989392  
# Profile StdDev   =  119.737961843406 
# Reduced chi-sqr  =  1.054
# Prob(Noise)      <  0.191   (~0.9 sigma)
# P_topo (ms)      =  714.579428603871  +/- 0.00033
# P'_topo (s/s)    =  -0                +/- 1.74e-10
# P''_topo (s/s^2) =  0                 +/- 7.68e-14
# P_bary (ms)      =  N/A
# P'_bary (s/s)    =  N/A
# P''_bary (s/s^2) =  N/A
# P_orb (s)        =  N/A
# asin(i)/c (s)    =  N/A
# eccentricity     =  N/A
# w (rad)          =  N/A
# T_peri           =  N/A
######################################################
   0  707.6653
   1  715.8387
   2  559.2214
   3  535.3006
   4  429.9339
   5  377.0643
   6  377.1104
   7  338.5868
   8  338.1999
   9  422.2891
  10  359.1431
  11  217.7261
  12  203.8649
  13  270.5005
  14  439.7661
  15  411.4106
  16  320.988
  17  359.5966
  18  255.2818
  19  249.4981
  20  237.022
  21  231.1299
  22  287.291
  23  308.3931
  24  250.4196
  25  370.7997
  26  443.3093
  27  341.4553
  28  270.1742
  29  303.3345
  30  263.218
  31  217.2744
  32  316.5019
  33  372.8055
  34  218.8085
  35  247.5394
  36  408.8172
  37  430.8373
  38  380.2305
  39  318.0008
  40  387.3913
  41  469.8313
  42  362.0807
  43  291.0585
  44  237.2363
  45  170.1887
  46  236.7637
  47  307.5322
  48  329.4519
  49  295.2003
  50  280.8603
  51  231.3563
  52  288.7549
  53  477.1094
  54  418.2554
  55  325.3022
  56  282.3047
  57  250.329
  58  313.6355
  59  395.2106
  60  390.4738
  61  380.4557
  62  487.3293
  63  414.9369
  64  362.1533
  65  421.8419
  66  466.8079
  67  341.3839
  68  439.1501
  69  517.5983
  70  439.782
  71  289.2522
  72  221.9752
  73  286.6144
  74  258.4397
  75  219.4081
  76  256.1434
  77  366.4283
  78  371.7863
  79  370.6315
  80  249.3852
  81  158.8644
  82  251.3478
  83  343.0576
  84  255.089
  85  191.1635
  86  226.9952
  87  291.8087
  88  279.9748
  89  324.6674
  90  455.1301
  91  380.3298
  92  369.025
  93  295.8295
  94  337.0751
  95  361.1902
  96  487.3205
  97  439.7539
  98  178.9354
  99  207.0971
 100  294.9295
 101  322.3673
 102  319.8649
 103  343.1021
 104  355.4426
 105  415.015
 106  452.7082
 107  320.008
 108  310.0032
 109  292.2048
 110  281.5444
 111  391.9453
 112  413.3492
 113  296.0164
 114  211.0796
 115  202.4697
 116  172.8427
 117  277.6208
 118  393.6387
 119  454.3521
 120  386.3755
 121  291.9619
 122  259.9768
 123  270.7073
 124  306.3278
 125  483.8449
 126  443.9447
 127  377.1024
 128  387.0457
 129  449.5021
 130  471.0888
 131  382.9974
 132  332.3687
 133  300.2026
 134  393.5713
 135  459.4796
 136  490.2435
 137  341.2419
 138  311.1213
 139  320.0013
 140  394.6464
 141  369.7302
 142  303.0609
 143  329.4157
 144  354.108
 145  248.0562
 146  375.1926
 147  555.5639
 148  501.379
 149  438.5361
 150  329.7974
 151  407.9779
 152  386.9784
 153  324.1146
 154  400.3836
 155  373.5017
 156  459.0952
 157  469.7137
 158  453.8476
 159  475.9449
 160  426.8535
 161  360.5541
 162  376.3273
 163  290.4361
 164  177.049
 165  293.1608
 166  255.3023
 167  342.3843
 168  437.9352
 169  413.0365
 170  344.8732
 171  251.6777
 172  342.9596
 173  394.8548
 174  337.2377
 175  397.0729
 176  394.7094
 177  382.1257
 178  307.6293
 179  315.9901
 180  282.476
 181  378.602
 182  319.9566
 183  327.6556
 184  450.9663
 185  303.3739
 186  295.107
 187  317.5233
 188  258.0583
 189  295.5811
 190  264.806
 191  225.8488
 192  199.5492
 193  197.2312
 194  330.3285
 195  312.4834
 196  308.4368
 197  236.882
 198  387.5999
 199  409.0639
 200  415.8578
 201  364.551
 202  361.083
 203  491.0402
 204  570.3555
 205  430.1407
 206  410.5901
 207  296.495
 208  305.6691
 209  463.1395
 210  370.8389
 211  328.7327
 212  295.0246
 213  338.3676
 214  402.1457
 215  461.706
 216  384.5682
 217  350.1885
 218  283.0475
 219  259.7019
 220  227.6664
 221  248.5645
 222  270.855
 223  325.727
 224  367.848
 225  333.6159
 226  435.9446
 227  334.4647
 228  295.3546
 229  435.213
 230  348.4305
 231  436.6026
 232  406.5228
 233  398.0913
 234  320.7782
 235  365.6537
 236  306.9329
 237  328.992
 238  295.5598
 239  502.0327
 240  486.5742
 241  394.7701
 242  395.2008
 243  331.211
 244  339.81
 245  305.9897
 246  330.27
 247  302.5098
 248  334.7974
 249  292.3686
 250  415.8276
 251  421.3875
 252  426.614
 253  384.2523
 254  324.8739
 255  264.5571
 256  395.9515
 257  420.1656
 258  466.9167
 259  340.6165
 260  364.7344
 261  438.6451
 262  502.8794
 263  350.4477
 264  202.3762
 265  210.2082
 266  341.4383
 267  462.1268
 268  300.4122
 269  289.2309
 270  303.0771
 271  404.6601
 272  428.9689
 273  379.502
 274  435.6372
 275  444.7339
 276  297.7463
 277  318.8087
 278  264.9631
 279  281.981
 280  285.6517
 281  290.5652
 282  376.3757
 283  301.0775
 284  360.8365
 285  503.1463
 286  422.8448
 287  377.0658
 288  293.7672
 289  323.6958
 290  312.8846
 291  187.0538
 292  177.5288
 293  223.5502
 294  251.8638
 295  246.8968
 296  248.1954
 297  270.0926
 298  267.9927
 299  344.1157
 300  406.8686
 301  291.4317
 302  291.9153
 303  331.4841
 304  301.5251
 305  318.2852
 306  276.7877
 307  247.8161
 308  291.4012
 309  277.6845
 310  261.4374
 311  173.791
 312  389.3485
 313  500.4916
 314  368.562
 315  359.7909
 316  287.2055
 317  255.5606
 318  170.1648
 319  145.914
 320  278.5507
 321  277.2103
 322  203.9084
 323  226.5277
 324  345.6938
 325  310.0752
 326  282.5002
 327  329.5311
 328  295.4621
 329  300.5249
 330  431.3845
 331  425.2477
 332  269.2282
 333  264.5811
 334  330.468
 335  269.89
 336  258.8568
 337  216.8568
 338  260.4736
 339  315.2003
 340  242.7039
 341  211.4673
 342  304.2278
 343  382.802
 344  390.4281
 345  288.3451
 346  322.5296
 347  434.0381
 348  380.1844
 349  347.652
 350  388.9389
 351  239.2633
 352  337.0354
 353  398.4882
 354  282.0921
 355  385.7097
 356  410.3379
 357  431.5848
 358  400.003
 359  372.5535
 360  330.6031
 361  372.8516
 362  288.9205
 363  293.2623
 364  388.6147
 365  282.8765
 366  245.8606
 367  302.297
 368  279.3813
 369  179.9997
 370  204.1639
 371  189.4049
 372  277.2143
 373  340.0096
 374  306.2074
 375  307.7785
 376  308.9417
 377  486.6123
 378  366.4773
 379  400.222
 380  483.1479
 381  459.7297
 382  403.3437
 383  430.2883
 384  293.4011
 385  330.1458
 386  369.5241
 387  343.041
 388  371.4492
 389  490.1468
 390  426.648
 391  299.828
 392  325.872
 393  319.6952
 394  200.9306
 395  251.5856
 396  388.2953
 397  336.5855
 398  343.2462
 399  318.6489
 400  359.8369
 401  451.4182
 402  356.1093
 403  248.5836
 404  325.4759
 405  404.4873
 406  367.104
 407  251.7673
 408  246.4317
 409  271.4801
 410  254.9291
 411  348.581
 412  371.965
 413  324.3495
 414  299.378
 415  298.8719
 416  304.6015
 417  287.6987
 418  257.6129
 419  267.7967
 420  338.2711
 421  442.015
 422  381.4522
 423  226.1017
 424  264.9751
 425  264.8664
 426  238.6956
 427  290.364
 428  272.0415
 429  288.0803
 430  281.5568
 431  361.3238
 432  421.9045
 433  348.6068
 434  327.8493
 435  372.4591
 436  268.8483
 437  403.2038
 438  392.8214
 439  271.7968
 440  301.7015
 441  307.1392
 442  331.4268
 443  428.1754
 444  370.1445
 445  280.1506
 446  73.4144
 447  179.5301
 448  305.3286
 449  307.0844
 450  313.9858
 451  316.1888
 452  292.3119
 453  416.612
 454  390.4998
 455  189.547
 456  171.1387
 457  239.1184
 458  279.9684
 459  265.1105
 460  291.3964
 461  292.2929
 462  349.9538
 463  300.7579
 464  407.9503
 465  348.1713
 466  332.0399
 467  451.7906
 468  354.6
 469  347.535
 470  352.1475
 471  289.7736
 472  387.5765
 473  394.9246
 474  265.7365
 475  347.3024
 476  362.9654
 477  374.1038
 478  332.4909
 479  309.1456
 480  389.9232
 481  284.0976
 482  366.867
 483  340.5432
 484  331.2534
 485  284.1096
 486  200.1837
 487  338.8617
 488  445.8691
 489  383.084
 490  318.5602
 491  358.9142
 492  310.8407
 493  224.9636
 494  333.1235
 495  495.9268
 496  416.5864
 497  370.3206
 498  402.2198
 499  283.7817
 500  231.459
 501  300.3466
 502  353.325
 503  346.6248
 504  358.9012
 505  402.9574
 506  463.339
 507  422.6461
 508  470.5216
 509  585.5018
 510  832.5728
 511  959.2973
