# Input file       =  1204822943.102232_cleaned.dat
# Candidate        =  PSR_0332+5434
# Telescope        =  AR
# Epoch_topo       =  58188.710209516576
# Epoch_bary       =  N/A
# T_sample         =  0.002
# Data Folded      =  7340032
# Data Avg         =  0.025516073910782
# Data StdDev      =  1.00006132637662 
# Profile Bins     =  512
# Profile Avg      =  365.834434554439 
# Profile StdDev   =  119.740379170049 
# Reduced chi-sqr  =  1.314
# Prob(Noise)      <  2.13e-06   (~4.6 sigma)
# P_topo (ms)      =  714.578936794707  +/- 0.000346
# P'_topo (s/s)    =  -0                +/- 1.82e-10
# P''_topo (s/s^2) =  0                 +/- 8.05e-14
# P_bary (ms)      =  N/A
# P'_bary (s/s)    =  N/A
# P''_bary (s/s^2) =  N/A
# P_orb (s)        =  N/A
# asin(i)/c (s)    =  N/A
# eccentricity     =  N/A
# w (rad)          =  N/A
# T_peri           =  N/A
######################################################
   0  305.6181
   1  253.6114
   2  272.5926
   3  329.4275
   4  378.3461
   5  427.7292
   6  432.1917
   7  411.1722
   8  527.1973
   9  492.683
  10  499.0138
  11  418.5171
  12  373.5527
  13  377.304
  14  238.6164
  15  321.1023
  16  403.2931
  17  443.8105
  18  315.9844
  19  333.9553
  20  478.5682
  21  529.1433
  22  372.3533
  23  281.1152
  24  363.0166
  25  346.0392
  26  415.5581
  27  381.8079
  28  422.8846
  29  522.0722
  30  466.2988
  31  467.6173
  32  448.7868
  33  331.0146
  34  465.6015
  35  552.2518
  36  601.9394
  37  488.6991
  38  407.3198
  39  350.8553
  40  376.8482
  41  392.7235
  42  221.0187
  43  341.4863
  44  339.2822
  45  311.4608
  46  334.276
  47  436.0814
  48  401.9403
  49  440.3379
  50  461.8091
  51  429.4557
  52  341.3925
  53  461.2538
  54  471.6633
  55  380.8874
  56  483.8238
  57  516.9203
  58  398.8816
  59  330.7814
  60  433.9491
  61  478.6747
  62  504.9849
  63  476.2675
  64  471.9936
  65  491.1512
  66  423.1807
  67  395.0459
  68  384.4117
  69  349.1281
  70  302.1403
  71  313.3996
  72  348.2656
  73  293.0448
  74  362.8602
  75  418.2317
  76  424.8311
  77  513.1028
  78  341.8053
  79  418.1291
  80  370.7321
  81  327.7432
  82  349.7726
  83  421.3474
  84  446.304
  85  357.4015
  86  315.4095
  87  419.1678
  88  421.9033
  89  393.311
  90  344.915
  91  322.0674
  92  408.9147
  93  333.4744
  94  391.728
  95  505.8884
  96  383.2289
  97  311.8932
  98  322.9709
  99  327.2448
 100  476.8884
 101  508.046
 102  511.3328
 103  408.32
 104  343.0185
 105  484.2899
 106  514.6837
 107  526.2108
 108  450.5918
 109  349.78
 110  291.13
 111  297.9324
 112  174.368
 113  248.9661
 114  469.7441
 115  484.9633
 116  407.0389
 117  264.103
 118  307.0091
 119  388.9008
 120  260.9275
 121  341.5602
 122  382.8092
 123  322.1343
 124  439.8237
 125  475.4443
 126  421.2629
 127  506.0478
 128  388.5131
 129  476.8814
 130  511.9971
 131  521.4976
 132  452.7565
 133  442.4346
 134  441.2952
 135  318.3213
 136  404.3024
 137  433.5748
 138  374.4425
 139  374.969
 140  606.5165
 141  606.7018
 142  699.3177
 143  797.4471
 144  988.2648
 145  865.6478
 146  789.1197
 147  664.5526
 148  424.4908
 149  447.1106
 150  467.1118
 151  479.2451
 152  340.2295
 153  350.9027
 154  424.3769
 155  326.6071
 156  313.3665
 157  375.8755
 158  498.7793
 159  464.3469
 160  415.0345
 161  396.1189
 162  353.0443
 163  410.3677
 164  389.8281
 165  355.2644
 166  275.4582
 167  231.3658
 168  226.3609
 169  359.2638
 170  333.6484
 171  304.7001
 172  247.0528
 173  452.0176
 174  493.2061
 175  357.9187
 176  350.0133
 177  353.3177
 178  326.5898
 179  339.1513
 180  437.3271
 181  495.1855
 182  418.169
 183  474.8875
 184  465.2117
 185  352.3916
 186  246.1797
 187  368.7088
 188  407.7252
 189  519.6404
 190  450.6432
 191  392.6864
 192  370.8744
 193  379.1907
 194  437.601
 195  396.7524
 196  382.0489
 197  423.8004
 198  404.1633
 199  447.9702
 200  477.8458
 201  376.7678
 202  294.6744
 203  383.9148
 204  432.9889
 205  407.4652
 206  426.5879
 207  362.2148
 208  385.5638
 209  472.4498
 210  402.3693
 211  279.6501
 212  205.5195
 213  368.3571
 214  309.951
 215  284.4173
 216  269.8331
 217  270.6399
 218  337.1486
 219  311.4852
 220  314.742
 221  303.9116
 222  251.08
 223  267.6551
 224  338.3892
 225  416.3256
 226  367.7505
 227  305.8538
 228  332.8375
 229  278.9511
 230  393.6577
 231  452.5837
 232  445.0224
 233  455.0291
 234  331.7482
 235  322.3443
 236  340.6402
 237  352.6861
 238  267.631
 239  264.8824
 240  368.0529
 241  364.2036
 242  396.5799
 243  355.5734
 244  343.3416
 245  288.8669
 246  346.835
 247  350.9018
 248  298.8512
 249  325.2444
 250  268.0175
 251  309.33
 252  322.972
 253  273.8967
 254  331.6705
 255  305.4666
 256  160.7519
 257  225.4773
 258  263.6537
 259  270.9482
 260  323.5435
 261  283.326
 262  266.4924
 263  209.22
 264  287.3963
 265  249.0355
 266  373.2694
 267  280.619
 268  235.2717
 269  323.3398
 270  371.6682
 271  394.5387
 272  344.2551
 273  486.4846
 274  406.3499
 275  318.4295
 276  333.312
 277  429.7018
 278  365.2729
 279  326.3968
 280  375.1765
 281  295.32
 282  299.1848
 283  345.7466
 284  333.5042
 285  252.2272
 286  313.3718
 287  283.8317
 288  140.4116
 289  249.4185
 290  318.2674
 291  225.9973
 292  198.55
 293  328.4807
 294  326.7833
 295  240.023
 296  232.1144
 297  338.1539
 298  238.6477
 299  250.3628
 300  272.6165
 301  198.0795
 302  271.2051
 303  298.0226
 304  285.7781
 305  145.9453
 306  157.2367
 307  148.5848
 308  329.6592
 309  332.6272
 310  273.2597
 311  298.0746
 312  239.8718
 313  278.5189
 314  260.827
 315  395.4037
 316  323.1415
 317  184.8432
 318  428.1624
 319  336.3981
 320  301.9402
 321  304.0023
 322  334.0919
 323  323.7065
 324  306.5193
 325  301.2953
 326  330.8396
 327  342.62
 328  324.7545
 329  345.6336
 330  410.4878
 331  430.1171
 332  386.4776
 333  288.1069
 334  373.5305
 335  342.9815
 336  377.5231
 337  454.0242
 338  485.3432
 339  364.0066
 340  410.2288
 341  351.439
 342  388.3875
 343  327.9729
 344  417.9409
 345  492.5597
 346  367.1886
 347  271.0211
 348  363.267
 349  333.1319
 350  404.2785
 351  448.2305
 352  523.4901
 353  446.0262
 354  394.5807
 355  293.7655
 356  333.0493
 357  331.2495
 358  373.6702
 359  396.9303
 360  376.0688
 361  358.9427
 362  172.1804
 363  198.5491
 364  288.6403
 365  460.5167
 366  507.4193
 367  403.3982
 368  251.052
 369  135.7014
 370  179.9706
 371  328.7742
 372  430.1439
 373  371.8937
 374  439.4535
 375  525.8137
 376  462.4803
 377  378.8761
 378  437.6579
 379  483.9469
 380  385.6748
 381  264.7361
 382  242.829
 383  227.9853
 384  286.0892
 385  271.9442
 386  161.7868
 387  287.0993
 388  384.6026
 389  339.3543
 390  141.1936
 391  184.8865
 392  327.2789
 393  297.0029
 394  429.8965
 395  390.6798
 396  247.9839
 397  362.3916
 398  264.0412
 399  157.6893
 400  226.8617
 401  314.6561
 402  270.1283
 403  219.5691
 404  153.6182
 405  194.1246
 406  211.4354
 407  208.273
 408  317.0237
 409  355.8875
 410  352.1682
 411  420.4602
 412  367.7581
 413  228.0476
 414  272.3167
 415  241.966
 416  415.2687
 417  398.401
 418  374.3813
 419  246.5055
 420  376.7148
 421  474.2698
 422  501.6632
 423  465.5161
 424  426.2762
 425  377.578
 426  328.7477
 427  307.05
 428  365.7658
 429  496.4738
 430  447.9945
 431  327.2562
 432  282.3232
 433  407.7743
 434  429.3681
 435  198.5236
 436  273.9413
 437  301.3584
 438  308.2719
 439  346.0006
 440  543.9344
 441  494.2086
 442  301.4769
 443  308.0168
 444  369.5813
 445  332.4004
 446  436.2813
 447  521.2719
 448  374.803
 449  397.4183
 450  351.1655
 451  360.6475
 452  312.9597
 453  343.1126
 454  311.4383
 455  367.0394
 456  429.5489
 457  363.8509
 458  312.1671
 459  377.8872
 460  466.9344
 461  352.59
 462  380.0757
 463  387.102
 464  347.3322
 465  377.4179
 466  311.9064
 467  433.0435
 468  311.4356
 469  296.8291
 470  394.7899
 471  426.5562
 472  410.0403
 473  492.9705
 474  525.2776
 475  439.6884
 476  301.5275
 477  257.8935
 478  296.3871
 479  368.0602
 480  333.8965
 481  251.3992
 482  140.5082
 483  178.4952
 484  340.4291
 485  378.8287
 486  398.7218
 487  407.8547
 488  479.9014
 489  503.9352
 490  400.4523
 491  397.6115
 492  418.4016
 493  403.4002
 494  467.7456
 495  493.2518
 496  540.7113
 497  473.8323
 498  386.992
 499  365.1669
 500  340.1458
 501  221.3264
 502  191.2481
 503  363.8877
 504  284.4443
 505  310.6581
 506  245.4781
 507  209.8703
 508  367.7566
 509  390.9058
 510  337.2144
 511  424.7794
