# Input file       =  1204908475.111136_cleaned.dat
# Candidate        =  PSR_0332+5434
# Telescope        =  AR
# Epoch_topo       =  58189.700163323330
# Epoch_bary       =  N/A
# T_sample         =  0.002
# Data Folded      =  7340032
# Data Avg         =  0.152073722158094
# Data StdDev      =  4.91472785765099 
# Profile Bins     =  512
# Profile Avg      =  2180.27880414103 
# Profile StdDev   =  588.455289362032 
# Reduced chi-sqr  =  0.860
# Prob(Noise)      <  0.99   (~0.0 sigma)
# P_topo (ms)      =  714.578642742733  +/- 0.00126
# P'_topo (s/s)    =  -0                +/- 6.66e-10
# P''_topo (s/s^2) =  0                 +/- 2.94e-13
# P_bary (ms)      =  N/A
# P'_bary (s/s)    =  N/A
# P''_bary (s/s^2) =  N/A
# P_orb (s)        =  N/A
# asin(i)/c (s)    =  N/A
# eccentricity     =  N/A
# w (rad)          =  N/A
# T_peri           =  N/A
######################################################
   0  2504.191
   1  2640.411
   2  2275.734
   3  2330.711
   4  2423.315
   5  2627.522
   6  2368.204
   7  2144.794
   8  2081.735
   9  2201.264
  10  2479.696
  11  2577.634
  12  2852.799
  13  2836.091
  14  2521.035
  15  2109.642
  16  1753.535
  17  1906.137
  18  1925.957
  19  2208.762
  20  2190.354
  21  2237.433
  22  2348.356
  23  2439.653
  24  2591.173
  25  2120.585
  26  2187.957
  27  2388.284
  28  2176.89
  29  2037.005
  30  2388.029
  31  2230.969
  32  1986.149
  33  2321.385
  34  2645.728
  35  2240.047
  36  1940.726
  37  1912.511
  38  1604.597
  39  1737.21
  40  2247.892
  41  1819.399
  42  1979.413
  43  2197.618
  44  1857.007
  45  2419.64
  46  2090.063
  47  2099.427
  48  1631.487
  49  1748.85
  50  2352
  51  2659.927
  52  2236.748
  53  2160.663
  54  2032.361
  55  2156.342
  56  2448.864
  57  2151.546
  58  1670.882
  59  1833.583
  60  1842.454
  61  1922.659
  62  1673.988
  63  1752.254
  64  1821.993
  65  1599.295
  66  2177.9
  67  2319.579
  68  2126.773
  69  1896.64
  70  1860.486
  71  1582.914
  72  1780.833
  73  2024.933
  74  1741.138
  75  1652.56
  76  1334.484
  77  1251.205
  78  1509.481
  79  1602.476
  80  1631.253
  81  2191.259
  82  1867.521
  83  1900.525
  84  1653.37
  85  1420.171
  86  1273.742
  87  1575.091
  88  1567.491
  89  1383.894
  90  1731.514
  91  1919.156
  92  1996.368
  93  2122.917
  94  2367.644
  95  1808.685
  96  1785.669
  97  1658.435
  98  1535.282
  99  1696.413
 100  2186.088
 101  2222.432
 102  2049.471
 103  1813.404
 104  1512.058
 105  1817.073
 106  2019.861
 107  1806.815
 108  1774.588
 109  1831.06
 110  1700.576
 111  1730.253
 112  1744.56
 113  2004.374
 114  2262.566
 115  2045.8
 116  1644.936
 117  1811.056
 118  1777.607
 119  1887.668
 120  2158.68
 121  2066.147
 122  2057.458
 123  2142.193
 124  2274.075
 125  2207.33
 126  1678.132
 127  2020.721
 128  2484.599
 129  2171.791
 130  2230.111
 131  2239.263
 132  2125.035
 133  2129.359
 134  2140.891
 135  2306.517
 136  2190.24
 137  2064.244
 138  2098.4
 139  2250.777
 140  2452.861
 141  2273.805
 142  2099.055
 143  1949.622
 144  1885.615
 145  1698.228
 146  1650.954
 147  1812.899
 148  1859.076
 149  1997.446
 150  1867.703
 151  1903.081
 152  2307.243
 153  2001.887
 154  1938.172
 155  2187.564
 156  2306.253
 157  1938.001
 158  2145.244
 159  2173.156
 160  2325.385
 161  2487.33
 162  2217.628
 163  2470.454
 164  2338.742
 165  2500.63
 166  2558.962
 167  2488.443
 168  2347.599
 169  2380.94
 170  2384.058
 171  2425.372
 172  2697.748
 173  2628.227
 174  2761.021
 175  2522.212
 176  1804.229
 177  2566.266
 178  2294.44
 179  2177.969
 180  2142.595
 181  1898.859
 182  2208.558
 183  2008.569
 184  2016.076
 185  1560.471
 186  1543.987
 187  1548.039
 188  1650.105
 189  1744.637
 190  1632.402
 191  1639.394
 192  1633.773
 193  1676.277
 194  1981.387
 195  1685.334
 196  1590.154
 197  1825.632
 198  1843.916
 199  1909.976
 200  1932.474
 201  2009.257
 202  2080.083
 203  2315.285
 204  2294.461
 205  1712.445
 206  1955.409
 207  2138.061
 208  2262.991
 209  1962.234
 210  2189.316
 211  1837.835
 212  2005.037
 213  2008.055
 214  2228.68
 215  2185.721
 216  1736.158
 217  1880.828
 218  1771.112
 219  1845.223
 220  1809.718
 221  2031.428
 222  1890.316
 223  2187.41
 224  2695.161
 225  2213.538
 226  1962.875
 227  2173.116
 228  2206.421
 229  1742.389
 230  2183.541
 231  2420.696
 232  2287.748
 233  2340.687
 234  2285.993
 235  2090.216
 236  1781.751
 237  1736.374
 238  1916.027
 239  1926.022
 240  2083.506
 241  2208.102
 242  2140.784
 243  2116.738
 244  2466.478
 245  2238.403
 246  2130.514
 247  2203.378
 248  2425.635
 249  2174.306
 250  2131.58
 251  2137.461
 252  2089.457
 253  2163.823
 254  2327.115
 255  2351.319
 256  2335.623
 257  2323.912
 258  2102.36
 259  2111.607
 260  2379.357
 261  1908.336
 262  2162.582
 263  2098.123
 264  2336.357
 265  2772.911
 266  2286.37
 267  2137.649
 268  2651.418
 269  2769.63
 270  2440.527
 271  2696.673
 272  2713.807
 273  2305.675
 274  2440.003
 275  2846.554
 276  2868.615
 277  2717.622
 278  2827.595
 279  2775.179
 280  2872.038
 281  2605.47
 282  3104.704
 283  2998.166
 284  2632.194
 285  2671.915
 286  2569.415
 287  2560.481
 288  2638.501
 289  2724.382
 290  2657.756
 291  2628.985
 292  2428.284
 293  2458.827
 294  2179.661
 295  2463.549
 296  2556.112
 297  3048.059
 298  3448.214
 299  3520.802
 300  3516.25
 301  3172.469
 302  3638.693
 303  4226.579
 304  4646.858
 305  4382.5
 306  3813.882
 307  3110.093
 308  2705.486
 309  2871.48
 310  2677.591
 311  2674.95
 312  2787.005
 313  2398.505
 314  2043.18
 315  2276.736
 316  2786.452
 317  2794.367
 318  2641.451
 319  3133.652
 320  3168.791
 321  2594.651
 322  2434.096
 323  2321.797
 324  2321.795
 325  2293.362
 326  2406.824
 327  2229.097
 328  2392.836
 329  2287.725
 330  2324.388
 331  2031.405
 332  2079.722
 333  1994.121
 334  1824.922
 335  1950.447
 336  1948.09
 337  2215.812
 338  2166.275
 339  2501.237
 340  2484.292
 341  2593.299
 342  2561.198
 343  2327.169
 344  2258.637
 345  2253.258
 346  2225.947
 347  2140.978
 348  2315.095
 349  2626.8
 350  2252.189
 351  1960.043
 352  2231.535
 353  2632.047
 354  2386.469
 355  2532.641
 356  2381.705
 357  2284.056
 358  2104.115
 359  2143.241
 360  2514.415
 361  2289.865
 362  2511.752
 363  2394.915
 364  2424.13
 365  2106.869
 366  2573.384
 367  2422.438
 368  1862.637
 369  2017.029
 370  2174.934
 371  2573.817
 372  2204.815
 373  2224.206
 374  2022.209
 375  2183.796
 376  2345.997
 377  1625.954
 378  1524.753
 379  2101.733
 380  1673.737
 381  1911.433
 382  1849.632
 383  1932.367
 384  2101.808
 385  2028.406
 386  1803.579
 387  1783.456
 388  2030.459
 389  2154.181
 390  1894.718
 391  1884.419
 392  2041.368
 393  2087.014
 394  2054.097
 395  1650.763
 396  1729.219
 397  1735.5
 398  2201.301
 399  2147
 400  1722.372
 401  2061.122
 402  2028.521
 403  1521.528
 404  1634.236
 405  2208.93
 406  2098.259
 407  2100.762
 408  2164.057
 409  2528.963
 410  2307.172
 411  1911.621
 412  1980.638
 413  2298.14
 414  2226.347
 415  2077.728
 416  2394.615
 417  2354.411
 418  2292.771
 419  2375.12
 420  2327.157
 421  2620.271
 422  2628.091
 423  2176.654
 424  2338.039
 425  2075.116
 426  1717.688
 427  1567.685
 428  1620.649
 429  1847.096
 430  1962.007
 431  2166.548
 432  2326.71
 433  2134.291
 434  2338.596
 435  1903.407
 436  1644.322
 437  2163.993
 438  1690.866
 439  1913.557
 440  2276.236
 441  2254.829
 442  2336.682
 443  2246.629
 444  1580.974
 445  1679.948
 446  1624.474
 447  1959.608
 448  2249.712
 449  2250.939
 450  2028.683
 451  1877.237
 452  1956.619
 453  2144.543
 454  2115.015
 455  2259.332
 456  2306.936
 457  2342.259
 458  2445.18
 459  2125.802
 460  1927.411
 461  2165.094
 462  2240.415
 463  2246.33
 464  2355.323
 465  2325.199
 466  2496.094
 467  2604.272
 468  2052.399
 469  1973.202
 470  2475.678
 471  2299.413
 472  1996.231
 473  2127.713
 474  2342.416
 475  2365.944
 476  2083.039
 477  1841.795
 478  2090.909
 479  2458.952
 480  2447.234
 481  2418.08
 482  2514.605
 483  2346.411
 484  2277.385
 485  1995.231
 486  1947.497
 487  2287.909
 488  2450.481
 489  1970.442
 490  1926.043
 491  2411.768
 492  2226.721
 493  2190.841
 494  2052.08
 495  1834.993
 496  1680.355
 497  2157.135
 498  2289.859
 499  2261.36
 500  2043.501
 501  1992.109
 502  1917.268
 503  2151.461
 504  2254.29
 505  1817.76
 506  2054.76
 507  2329.951
 508  2268.892
 509  2347.243
 510  2235.81
 511  2460.426
