# Input file       =  1204792879.116628_cleaned.dat
# Candidate        =  PSR_0332+5434
# Telescope        =  AR
# Epoch_topo       =  58188.362246720229
# Epoch_bary       =  N/A
# T_sample         =  0.002
# Data Folded      =  7405568
# Data Avg         =  0.0158932759636548
# Data StdDev      =  1.00010476673917 
# Profile Bins     =  512
# Profile Avg      =  229.866939447538 
# Profile StdDev   =  120.278970942508 
# Reduced chi-sqr  =  2.071
# Prob(Noise)      <  2.02e-40   (~13.3 sigma)
# P_topo (ms)      =  714.578668915946  +/- 4.54e-05
# P'_topo (s/s)    =  -0                +/- 2.37e-11
# P''_topo (s/s^2) =  0                 +/- 1.04e-14
# P_bary (ms)      =  N/A
# P'_bary (s/s)    =  N/A
# P''_bary (s/s^2) =  N/A
# P_orb (s)        =  N/A
# asin(i)/c (s)    =  N/A
# eccentricity     =  N/A
# w (rad)          =  N/A
# T_peri           =  N/A
######################################################
   0  257.937
   1  244.0275
   2  256.1986
   3  187.7455
   4  34.85881
   5  90.07177
   6  286.67
   7  297.056
   8  213.2241
   9  173.1295
  10  223.0423
  11  57.09351
  12  79.78131
  13  219.1349
  14  352.7053
  15  369.9713
  16  236.1591
  17  220.2521
  18  377.9824
  19  313.6802
  20  189.6775
  21  104.1422
  22  289.702
  23  288.7477
  24  237.8934
  25  223.028
  26  132.7117
  27  208.535
  28  333.0787
  29  444.996
  30  409.8872
  31  268.3174
  32  299.2762
  33  339.906
  34  276.7823
  35  262.4828
  36  318.1871
  37  217.7856
  38  156.9078
  39  208.5894
  40  237.8851
  41  201.0596
  42  80.19836
  43  62.96162
  44  198.6277
  45  244.8109
  46  242.6129
  47  387.0555
  48  399.5764
  49  425.1143
  50  221.1852
  51  176.5974
  52  196.0522
  53  59.21507
  54  -14.11724
  55  118.9864
  56  245.3275
  57  248.2306
  58  143.1488
  59  146.3121
  60  185.343
  61  241.6465
  62  229.7427
  63  218.9061
  64  407.4006
  65  370.2081
  66  327.8675
  67  319.2545
  68  298.2864
  69  257.1756
  70  184.5255
  71  191.1238
  72  272.9056
  73  326.3941
  74  307.5739
  75  204.5852
  76  245.3119
  77  240.9663
  78  224.5996
  79  377.672
  80  461.5348
  81  441.6742
  82  376.0601
  83  337.8205
  84  358.7964
  85  282.6458
  86  228.1683
  87  254.435
  88  343.0716
  89  277.4893
  90  183.3725
  91  137.5645
  92  139.3657
  93  227.3888
  94  206.0591
  95  262.1883
  96  279.7059
  97  467.2449
  98  403.3424
  99  348.2995
 100  286.7147
 101  174.3167
 102  193.7713
 103  140.3677
 104  46.30321
 105  149.997
 106  301.1513
 107  270.9725
 108  191.5258
 109  276.0889
 110  290.7118
 111  157.0486
 112  345.4202
 113  453.1739
 114  374.4298
 115  323.386
 116  258.0087
 117  140.3034
 118  269.5774
 119  225.1909
 120  23.88864
 121  147.1756
 122  242.3462
 123  187.9859
 124  104.7987
 125  123.863
 126  138.4531
 127  218.0846
 128  216.136
 129  300.3477
 130  381.9523
 131  419.4298
 132  225.7174
 133  190.4008
 134  260.6445
 135  140.6945
 136  180.8073
 137  338.4128
 138  265.5364
 139  335.0659
 140  465.525
 141  288.8282
 142  167.2993
 143  212.1173
 144  199.1558
 145  344.7922
 146  490.9663
 147  459.0119
 148  455.1372
 149  314.3586
 150  286.3031
 151  142.7475
 152  147.9894
 153  95.10352
 154  143.0966
 155  233.5299
 156  123.0581
 157  98.43489
 158  151.081
 159  55.77633
 160  113.352
 161  285.3884
 162  445.2588
 163  387.3199
 164  449.3704
 165  436.8042
 166  243.4456
 167  111.1038
 168  129.2626
 169  164.7673
 170  208.3568
 171  310.2338
 172  328.7984
 173  204.7873
 174  134.1822
 175  75.96996
 176  55.51373
 177  182.3869
 178  227.9909
 179  290.7162
 180  455.9419
 181  334.0105
 182  188.5064
 183  106.3007
 184  96.47116
 185  126.4568
 186  179.609
 187  269.6953
 188  250.5707
 189  313.406
 190  173.2273
 191  71.11782
 192  98.1535
 193  155.8184
 194  144.8189
 195  155.4052
 196  400.6088
 197  459.7895
 198  179.0261
 199  40.02865
 200  110.2604
 201  237.2152
 202  203.9262
 203  148.847
 204  239.9707
 205  232.8489
 206  163.5844
 207  197.8204
 208  255.0858
 209  217.3296
 210  151.9352
 211  191.8753
 212  365.7845
 213  340.9984
 214  360.6081
 215  367.0576
 216  167.8368
 217  58.59486
 218  174.7448
 219  138.6571
 220  218.7791
 221  201.9582
 222  154.6249
 223  297.6829
 224  101.5842
 225  96.74216
 226  207.8769
 227  253.435
 228  273.5731
 229  438.9019
 230  371.3182
 231  334.6914
 232  285.9746
 233  296.7598
 234  215.3481
 235  192.5871
 236  230.6609
 237  143.4587
 238  191.3664
 239  183.3892
 240  222.576
 241  127.3606
 242  116.7272
 243  146.0858
 244  238.0756
 245  400.5806
 246  434.4204
 247  279.8967
 248  108.098
 249  216.7166
 250  153.6112
 251  102.6142
 252  113.5551
 253  31.63338
 254  107.1578
 255  171.6995
 256  140.9417
 257  32.9217
 258  79.34833
 259  161.4155
 260  83.27388
 261  175.0389
 262  290.0919
 263  288.1013
 264  232.302
 265  49.21074
 266  123.6563
 267  122.0794
 268  -19.62143
 269  -56.31261
 270  72.6973
 271  143.3114
 272  47.91482
 273  -39.75822
 274  22.01525
 275  114.3264
 276  105.5375
 277  177.4711
 278  144.798
 279  294.782
 280  255.0555
 281  217.8256
 282  252.6474
 283  189.4297
 284  24.16438
 285  -40.62905
 286  63.27586
 287  145.8329
 288  153.7885
 289  241.8724
 290  349.8076
 291  257.3994
 292  195.7714
 293  245.9383
 294  220.8814
 295  171.3484
 296  192.9143
 297  150.9145
 298  109.0144
 299  196.4734
 300  225.9476
 301  197.7135
 302  114.8752
 303  271.4128
 304  211.4507
 305  248.4787
 306  213.7607
 307  499.2156
 308  689.1335
 309  858.7164
 310  989.5455
 311  963.7537
 312  732.3893
 313  568.5655
 314  344.4769
 315  171.5174
 316  147.7498
 317  142.2646
 318  147.9607
 319  285.1142
 320  284.4555
 321  186.1036
 322  3.617256
 323  51.06328
 324  231.9321
 325  199.6318
 326  210.7763
 327  339.7207
 328  463.6555
 329  451.9258
 330  296.5146
 331  301.1641
 332  46.86163
 333  60.9803
 334  44.3213
 335  98.34741
 336  217.7168
 337  223.4389
 338  100.3533
 339  15.7707
 340  -85.50108
 341  89.6407
 342  161.4814
 343  206.4995
 344  392.2473
 345  340.9445
 346  322.2573
 347  278.6484
 348  218.9003
 349  150.2777
 350  107.2623
 351  187.2123
 352  146.0222
 353  105.9997
 354  139.8878
 355  86.43133
 356  -49.42064
 357  93.07178
 358  59.89711
 359  59.42035
 360  194.9969
 361  357.1719
 362  381.1568
 363  255.1828
 364  69.09407
 365  81.05602
 366  203.1664
 367  172.9059
 368  182.0609
 369  188.4473
 370  182.5266
 371  144.7435
 372  210.9334
 373  243.4358
 374  280.265
 375  186.9495
 376  192.4914
 377  339.0906
 378  342.804
 379  362.5648
 380  339.5
 381  249.9793
 382  179.2092
 383  104.6767
 384  106.078
 385  172.7365
 386  235.8215
 387  290.647
 388  193.5415
 389  165.0853
 390  305.7342
 391  303.1884
 392  190.8862
 393  315.1278
 394  420.6066
 395  267.7161
 396  366.6082
 397  321.0864
 398  289.9902
 399  291.3309
 400  113.4361
 401  125.7268
 402  146.6529
 403  259.6287
 404  186.9087
 405  199.0057
 406  235.5796
 407  226.4005
 408  149.0111
 409  262.3677
 410  357.3084
 411  529.094
 412  575.3799
 413  467.5877
 414  260.0703
 415  322.8611
 416  258.2857
 417  201.1605
 418  254.36
 419  308.2955
 420  311.8818
 421  197.7804
 422  60.56443
 423  79.26077
 424  29.48038
 425  288.3745
 426  497.4251
 427  474.9221
 428  402.2417
 429  291.0813
 430  175.2408
 431  128.2646
 432  119.6909
 433  307.023
 434  362.0058
 435  156.7219
 436  255.6846
 437  186.6007
 438  134.9088
 439  156.4466
 440  145.1635
 441  189.6781
 442  259.2943
 443  228.3156
 444  391.5515
 445  250.1345
 446  207.2054
 447  196.6912
 448  207.9334
 449  226.5703
 450  121.8223
 451  96.78778
 452  240.9438
 453  203.0371
 454  180.9734
 455  111.3336
 456  98.0907
 457  199.2741
 458  162.7112
 459  310.5306
 460  338.6432
 461  256.5427
 462  320.6818
 463  296.9854
 464  247.431
 465  192.9324
 466  213.953
 467  123.1402
 468  138.9477
 469  270.4759
 470  134.8368
 471  146.4536
 472  221.6574
 473  251.9526
 474  226.0447
 475  292.5434
 476  470.5775
 477  465.7875
 478  413.2869
 479  213.7903
 480  142.4619
 481  149.1946
 482  140.6927
 483  179.4452
 484  298.9353
 485  329.7464
 486  278.3664
 487  151.1134
 488  180.5747
 489  123.6158
 490  117
 491  236.0462
 492  314.7806
 493  328.9632
 494  389.3476
 495  231.9189
 496  180.3792
 497  176.8585
 498  290.0636
 499  181.8979
 500  184.7528
 501  203.8124
 502  292.0787
 503  203.7724
 504  35.06234
 505  112.8482
 506  296.7531
 507  231.7958
 508  239.8845
 509  290.1512
 510  355.542
 511  256.2536
