# Input file       =  1204706714.102575_cleaned.dat
# Candidate        =  PSR_0332+5434
# Telescope        =  AR
# Epoch_topo       =  58187.364966464986
# Epoch_bary       =  N/A
# T_sample         =  0.002
# Data Folded      =  7471104
# Data Avg         =  0.150694206207908
# Data StdDev      =  5.50301744935403 
# Profile Bins     =  512
# Profile Avg      =  2198.59013557645 
# Profile StdDev   =  664.749930192462 
# Reduced chi-sqr  =  0.773
# Prob(Noise)      <  1   (~0.0 sigma)
# P_topo (ms)      =  714.578924921594  +/- 4.29e-05
# P'_topo (s/s)    =  -0                +/- 2.22e-11
# P''_topo (s/s^2) =  0                 +/- 9.64e-15
# P_bary (ms)      =  N/A
# P'_bary (s/s)    =  N/A
# P''_bary (s/s^2) =  N/A
# P_orb (s)        =  N/A
# asin(i)/c (s)    =  N/A
# eccentricity     =  N/A
# w (rad)          =  N/A
# T_peri           =  N/A
######################################################
   0  1692.406
   1  1942.166
   2  2447.683
   3  2436.104
   4  2604.385
   5  2837.957
   6  3012.316
   7  2243.616
   8  1582.027
   9  1983.412
  10  2156.164
  11  2453.084
  12  2379.605
  13  2667.394
  14  2782.417
  15  2200.082
  16  1702.34
  17  2000.403
  18  1875.936
  19  1965.028
  20  1763.076
  21  2104.941
  22  2090.809
  23  1984.162
  24  1788.736
  25  1964.266
  26  2184.19
  27  2212.619
  28  2295.09
  29  2258.888
  30  2450.495
  31  3016.115
  32  2453.955
  33  2029.363
  34  2525.06
  35  2587.199
  36  1920.995
  37  1941.97
  38  2526.886
  39  2189.783
  40  1476.7
  41  1663.914
  42  2143.418
  43  2807.749
  44  2446.853
  45  2445.049
  46  3478.639
  47  4063.636
  48  4451.436
  49  3838.653
  50  3305.424
  51  3171.605
  52  3044.196
  53  2336.297
  54  1857.27
  55  1968.136
  56  1844.243
  57  1500.813
  58  2120.4
  59  2670.684
  60  2941.065
  61  2556.615
  62  2547.348
  63  2609.077
  64  2663.543
  65  2448.217
  66  1854.023
  67  1957.929
  68  2380.259
  69  2107.559
  70  1923.913
  71  2233.657
  72  1650.801
  73  1372.277
  74  1416.693
  75  2052.417
  76  2972.878
  77  2468.517
  78  2456.333
  79  2859.339
  80  2450.647
  81  2018.479
  82  1986.025
  83  1872.389
  84  2399.583
  85  2478.105
  86  2284.668
  87  2195.018
  88  2288.385
  89  2077.206
  90  1687.88
  91  1754.083
  92  2194.094
  93  2128.083
  94  2479.61
  95  2754.43
  96  2839.431
  97  2404.305
  98  1737.792
  99  1697.343
 100  1987.324
 101  2298.731
 102  1902.398
 103  1986.846
 104  2383.038
 105  2831.878
 106  2111.041
 107  1402.601
 108  2065.239
 109  2097.76
 110  2030.976
 111  2416.448
 112  3051.963
 113  3096.436
 114  2711.296
 115  2096.396
 116  1972.173
 117  2257.517
 118  2117.861
 119  1981.7
 120  1947.039
 121  2122.39
 122  2016.242
 123  1590.803
 124  2276.521
 125  2330.812
 126  2779.229
 127  2470.458
 128  2094.757
 129  2586.976
 130  2622.729
 131  2153.617
 132  1969.058
 133  2167.284
 134  2058.472
 135  1911.017
 136  1639.149
 137  1669.664
 138  1902.873
 139  1548.973
 140  1570.671
 141  2340.737
 142  2426.585
 143  2282.155
 144  2067.435
 145  2329.333
 146  2353.982
 147  2262.052
 148  1938.945
 149  2132.751
 150  2228.129
 151  2166.681
 152  1975.863
 153  2079.614
 154  2227.838
 155  1926.466
 156  1400.995
 157  1868.213
 158  2200.467
 159  2663.753
 160  2685.896
 161  2442.429
 162  2681.907
 163  2320.278
 164  2018.016
 165  1503.765
 166  1415.306
 167  1849.678
 168  2130.764
 169  2415.259
 170  2807.773
 171  2546.56
 172  1723.719
 173  1353.98
 174  1964.255
 175  2856.983
 176  2593.791
 177  2369.648
 178  2809.821
 179  2810.619
 180  2373.935
 181  1558.652
 182  1731.492
 183  2071.498
 184  2319.217
 185  2584.391
 186  2421.934
 187  2798.546
 188  2630.982
 189  2167.201
 190  1688.175
 191  2060.95
 192  2041.51
 193  2441.465
 194  2776.253
 195  2861.136
 196  3087.389
 197  2437.539
 198  1818.945
 199  1696.59
 200  2166.887
 201  2152.781
 202  1664.686
 203  1730.026
 204  2097.596
 205  1850.556
 206  1416.367
 207  1648.593
 208  2932.915
 209  2740.738
 210  2009.627
 211  1949.61
 212  2138.011
 213  2045.407
 214  2041.744
 215  2285.163
 216  2363.498
 217  2084.72
 218  1671.512
 219  1686.367
 220  1959.309
 221  1912.542
 222  1665.183
 223  2083.124
 224  2497.452
 225  2354.765
 226  2392.165
 227  2575.978
 228  2581.891
 229  2433.01
 230  1767.729
 231  1668.471
 232  1913.609
 233  2409.881
 234  1971.38
 235  1987.578
 236  2123.911
 237  2210.568
 238  1873.234
 239  1403.175
 240  2176.958
 241  2617.467
 242  2764.935
 243  2121.865
 244  2446.953
 245  3020.433
 246  2348.99
 247  1966.818
 248  1669.938
 249  1996.46
 250  2403.649
 251  2477.968
 252  2637.332
 253  2503.337
 254  2000.128
 255  1496.696
 256  1634.845
 257  2020.032
 258  2718.464
 259  2569.896
 260  2658.662
 261  2699.231
 262  2683.955
 263  1937.292
 264  1457.357
 265  1851.703
 266  2230.399
 267  2552.582
 268  2596.47
 269  2546.479
 270  2409.68
 271  1950.736
 272  2021.237
 273  2320.145
 274  2511.571
 275  2393.423
 276  2617.624
 277  3375.08
 278  2891.306
 279  2916.754
 280  2122.423
 281  2083.039
 282  2554.801
 283  2345.424
 284  2138.885
 285  1871.829
 286  2079.988
 287  1866.364
 288  1839.496
 289  1747.289
 290  2053.134
 291  1786.613
 292  1739.659
 293  2463.961
 294  2521.258
 295  2586.054
 296  2344.197
 297  2232.491
 298  2225.089
 299  2222.851
 300  1782.565
 301  1706.583
 302  1913.491
 303  1884.937
 304  2097.124
 305  1836.644
 306  2580.312
 307  2731.96
 308  2203.62
 309  1902.514
 310  2184.66
 311  2497.975
 312  2172.426
 313  2015.848
 314  2397.709
 315  2034.012
 316  2185.462
 317  2284.488
 318  2410.513
 319  2412.754
 320  2158.205
 321  1894.635
 322  1414.277
 323  2132.728
 324  2498.774
 325  2716.77
 326  2998.833
 327  2957.059
 328  2623.154
 329  2338.673
 330  1836.801
 331  2032.38
 332  2159.149
 333  2038.94
 334  1841.969
 335  2325.973
 336  2352.311
 337  1458.115
 338  1259.146
 339  2147.708
 340  2319.427
 341  2759.131
 342  2747.581
 343  2738.624
 344  2474.858
 345  1733.521
 346  1633.09
 347  1510.539
 348  2217.136
 349  2424.73
 350  2375.62
 351  2064.894
 352  2105.788
 353  2463.92
 354  1709.769
 355  2053.177
 356  2011.569
 357  2300.737
 358  2453.679
 359  2230.825
 360  2847.652
 361  2221.766
 362  2281.668
 363  1722.324
 364  1758.693
 365  2051.712
 366  1930.351
 367  1613.565
 368  1937.605
 369  2280.77
 370  1968.843
 371  1726.293
 372  2001.135
 373  2473.824
 374  2482.169
 375  1819.863
 376  2249.317
 377  2731.054
 378  2421.444
 379  1668.482
 380  2065.117
 381  2491.664
 382  2277.099
 383  1982.536
 384  1710.202
 385  2122.997
 386  2032.152
 387  1761.172
 388  1533.854
 389  2115.304
 390  2907.599
 391  2281.615
 392  2669.373
 393  2562.554
 394  2605.864
 395  1964.153
 396  1767.256
 397  2045.699
 398  2361.861
 399  2338.539
 400  1782.591
 401  1973.042
 402  2227.262
 403  1781.981
 404  1302.696
 405  1627.018
 406  2594.351
 407  2424.839
 408  2613.461
 409  2530.637
 410  1927.56
 411  1798.888
 412  1530.751
 413  2311.891
 414  2146.55
 415  2465.465
 416  1797.19
 417  2010.655
 418  2410.998
 419  1777.558
 420  1613.362
 421  1464.984
 422  1967.572
 423  2288.359
 424  2666.17
 425  2681.103
 426  2937.287
 427  2521.171
 428  1878.221
 429  1682.171
 430  1898.551
 431  2112.386
 432  2277.906
 433  2019.166
 434  2523.049
 435  2694.137
 436  2258.682
 437  1737.685
 438  1534.13
 439  2085.8
 440  2034.494
 441  2362.595
 442  2602.41
 443  3117.28
 444  2625.243
 445  1894.064
 446  1452.738
 447  1747.251
 448  1811.813
 449  1751.168
 450  1899.318
 451  2125.123
 452  2319.731
 453  1866.625
 454  1402.115
 455  1998.977
 456  2506.66
 457  2580.431
 458  2607.567
 459  2545.484
 460  2258.164
 461  2205.447
 462  1951.455
 463  1870.551
 464  2340.037
 465  2140.528
 466  1427.009
 467  1621.95
 468  2108.512
 469  2080.345
 470  1622.907
 471  2189.742
 472  2553.211
 473  2322.116
 474  2084.835
 475  2341.261
 476  2530.8
 477  2593.122
 478  2076.337
 479  1802.674
 480  2152.903
 481  2442.341
 482  2252.766
 483  2218.717
 484  2248.883
 485  1806.384
 486  1577.476
 487  1646.548
 488  2523.353
 489  2696.923
 490  2332.777
 491  2374.716
 492  2482.43
 493  1961.492
 494  1937.039
 495  1888.733
 496  1853.117
 497  2344.979
 498  2589.028
 499  2267.946
 500  1927.02
 501  1854.92
 502  1646.644
 503  1157.308
 504  1450.411
 505  2359.109
 506  3026.17
 507  2928.721
 508  2554.599
 509  2778.957
 510  2194.472
 511  1858.635
