# Input file       =  1204706714.102575_cleaned.dat
# Candidate        =  PSR_0332+5434
# Telescope        =  AR
# Epoch_topo       =  58187.364966464986
# Epoch_bary       =  N/A
# T_sample         =  0.002
# Data Folded      =  7471104
# Data Avg         =  0.0116650303113365
# Data StdDev      =  1.00003464406212 
# Profile Bins     =  512
# Profile Avg      =  170.087395377894 
# Profile StdDev   =  120.801535875262 
# Reduced chi-sqr  =  1.569
# Prob(Noise)      <  3.14e-15   (~7.8 sigma)
# P_topo (ms)      =  714.578924134966  +/- 0.000232
# P'_topo (s/s)    =  -0                +/- 1.2e-10
# P''_topo (s/s^2) =  0                 +/- 5.22e-14
# P_bary (ms)      =  N/A
# P'_bary (s/s)    =  N/A
# P''_bary (s/s^2) =  N/A
# P_orb (s)        =  N/A
# asin(i)/c (s)    =  N/A
# eccentricity     =  N/A
# w (rad)          =  N/A
# T_peri           =  N/A
######################################################
   0  1055.38
   1  771.3093
   2  539.2759
   3  539.9114
   4  344.3455
   5  177.5995
   6  235.1545
   7  245.9615
   8  126.2568
   9  284.1309
  10  292.7031
  11  249.2605
  12  263.9323
  13  330.8969
  14  289.0069
  15  302.658
  16  347.4808
  17  381.0934
  18  179.9349
  19  116.6752
  20  146.8546
  21  157.532
  22  132.7864
  23  39.26443
  24  26.62092
  25  86.09558
  26  128.4965
  27  275.5938
  28  202.2181
  29  132.7457
  30  265.6771
  31  54.67398
  32  90.40239
  33  279.2746
  34  181.8347
  35  220.3997
  36  323.5867
  37  321.6437
  38  230.5037
  39  157.8803
  40  144.2699
  41  165.3261
  42  95.28967
  43  140.5328
  44  83.87489
  45  125.3878
  46  230.4763
  47  252.4279
  48  119.6698
  49  98.99371
  50  111.1183
  51  218.6523
  52  205.1802
  53  161.0773
  54  212.4146
  55  168.418
  56  215.7649
  57  236.9535
  58  40.18304
  59  42.30426
  60  143.1843
  61  150.9147
  62  137.5558
  63  237.6908
  64  254.5013
  65  258.0518
  66  235.4969
  67  162.6255
  68  210.7617
  69  183.8341
  70  269.7092
  71  141.01
  72  88.69422
  73  139.4796
  74  111.2484
  75  189.1829
  76  206.8275
  77  193.3053
  78  225.8924
  79  175.2959
  80  240.2313
  81  226.0988
  82  96.71059
  83  122.3758
  84  107.7883
  85  57.92517
  86  159.5029
  87  199.8837
  88  79.08721
  89  35.54772
  90  58.68228
  91  45.92939
  92  174.9952
  93  78.99368
  94  65.36607
  95  166.1319
  96  147.0892
  97  94.85183
  98  174.9034
  99  169.1132
 100  200.9343
 101  208.2471
 102  164.5359
 103  177.3623
 104  104.6711
 105  138.5738
 106  110.3867
 107  35.77875
 108  122.4733
 109  179.8558
 110  184.5494
 111  227.7156
 112  166.163
 113  190.4368
 114  206.4437
 115  198.4848
 116  127.4455
 117  46.10189
 118  77.66761
 119  189.5768
 120  293.2805
 121  375.8889
 122  320.1313
 123  202.6486
 124  144.8255
 125  107.0419
 126  245.5499
 127  272.5704
 128  128.1514
 129  101.58
 130  187.0386
 131  194.1896
 132  87.85809
 133  76.37154
 134  129.5586
 135  113.497
 136  277.9286
 137  184.326
 138  188.5317
 139  221.5331
 140  197.383
 141  23.12283
 142  153.8116
 143  231.139
 144  216.5234
 145  187.7616
 146  256.004
 147  288.5317
 148  262.1227
 149  164.0949
 150  67.92397
 151  215.9296
 152  192.0035
 153  53.84544
 154  17.00027
 155  94.65962
 156  112.2901
 157  71.5816
 158  -13.71421
 159  164.154
 160  295.0054
 161  155.7176
 162  4.941003
 163  29.22641
 164  92.19929
 165  84.80415
 166  122.6199
 167  149.8374
 168  59.28497
 169  106.989
 170  99.87233
 171  143.6648
 172  75.68469
 173  119.7269
 174  169.4213
 175  214.3618
 176  207.8779
 177  148.395
 178  228.2048
 179  177.9285
 180  192.8715
 181  59.64843
 182  75.50575
 183  68.00529
 184  151.0301
 185  162.5054
 186  114.1376
 187  156.5008
 188  188.5584
 189  191.3398
 190  58.80569
 191  210.7946
 192  180.3487
 193  276.4138
 194  169.5344
 195  104.8239
 196  269.1697
 197  284.4894
 198  214.7705
 199  118.2198
 200  87.43116
 201  118.9437
 202  193.9093
 203  218.2432
 204  207.0971
 205  111.3573
 206  109.5887
 207  32.96785
 208  -19.04549
 209  200.7343
 210  183.9894
 211  118.7082
 212  79.87965
 213  169.205
 214  187.8697
 215  38.07117
 216  85.75897
 217  170.2848
 218  252.3459
 219  387.9774
 220  304.786
 221  182.0859
 222  134.2328
 223  242.4647
 224  262.9259
 225  194.58
 226  187.04
 227  225.82
 228  323.997
 229  290.6053
 230  329.4266
 231  229.3795
 232  236.63
 233  267.6084
 234  198.9107
 235  224.0158
 236  109.7582
 237  56.55156
 238  60.67944
 239  142.6145
 240  107.7128
 241  105.3155
 242  6.339434
 243  -53.02822
 244  51.06014
 245  64.12729
 246  38.58277
 247  151.6057
 248  259.1339
 249  294.3539
 250  244.7257
 251  83.84985
 252  105.3222
 253  148.6878
 254  5.391496
 255  75.74128
 256  212.7683
 257  298.8677
 258  293.1825
 259  166.8359
 260  21.65691
 261  179.531
 262  211.3804
 263  173.7898
 264  193.6168
 265  288.9675
 266  159.8431
 267  125.5934
 268  200.8706
 269  215.9514
 270  229.0916
 271  273.3016
 272  267.0323
 273  187.4512
 274  203.6425
 275  175.1412
 276  145.5103
 277  275.1748
 278  292.2667
 279  200.8843
 280  273.9261
 281  237.9604
 282  283.2999
 283  197.5971
 284  72.2334
 285  68.42457
 286  21.0441
 287  233.0459
 288  113.4773
 289  52.00132
 290  249.6432
 291  181.2258
 292  231.9952
 293  220.4096
 294  173.9207
 295  53.43096
 296  17.5542
 297  79.97435
 298  109.073
 299  190.2583
 300  216.1029
 301  261.1983
 302  113.2118
 303  76.57764
 304  208.2801
 305  194.3579
 306  217.9649
 307  165.1186
 308  220.0241
 309  219.6348
 310  61.33311
 311  165.4746
 312  77.68005
 313  126.1889
 314  133.198
 315  115.3341
 316  110.8139
 317  187.764
 318  97.97855
 319  71.95437
 320  79.26095
 321  51.89204
 322  40.80542
 323  59.75676
 324  185.8481
 325  143.8832
 326  88.17325
 327  -20.53834
 328  191.6002
 329  114.5913
 330  29.33146
 331  140.7447
 332  312.3963
 333  251.6971
 334  162.9102
 335  35.71456
 336  111.9753
 337  169.7303
 338  20.93549
 339  134.4326
 340  173.6973
 341  285.9691
 342  139.8455
 343  183.3178
 344  293.8079
 345  278.6682
 346  193.0424
 347  136.7711
 348  184.3083
 349  193.8398
 350  239.5516
 351  112.7163
 352  50.78984
 353  191.7925
 354  187.32
 355  39.24888
 356  6.045483
 357  216.1779
 358  139.0958
 359  195.0421
 360  174.4207
 361  -67.77757
 362  45.03326
 363  96.52409
 364  254.5256
 365  193.8423
 366  184.8255
 367  13.49398
 368  88.11027
 369  358.3031
 370  99.94917
 371  153.1342
 372  77.38918
 373  100.6164
 374  142.2012
 375  207.6345
 376  168.1693
 377  186.4163
 378  173.4301
 379  156.3273
 380  147.6731
 381  106.059
 382  178.6772
 383  145.0077
 384  140.0273
 385  115.4991
 386  241.579
 387  195.7092
 388  171.426
 389  46.80896
 390  132.9428
 391  54.96089
 392  138.6956
 393  140.4641
 394  164.3751
 395  180.3828
 396  66.14355
 397  73.74168
 398  136.0151
 399  92.32544
 400  82.88192
 401  167.0484
 402  48.68036
 403  133.7552
 404  162.7593
 405  57.99667
 406  7.305119
 407  174.2601
 408  195.5866
 409  322.6195
 410  213.0948
 411  44.18966
 412  61.28489
 413  -7.899876
 414  64.16205
 415  134.5714
 416  182.1772
 417  91.73425
 418  -46.69096
 419  88.81189
 420  181.8072
 421  152.5939
 422  208.0747
 423  169.5161
 424  203.9829
 425  95.55092
 426  105.5901
 427  145.1539
 428  180.9685
 429  174.3868
 430  83.33464
 431  90.94441
 432  189.1206
 433  157.239
 434  244.321
 435  191.2835
 436  108.1747
 437  151.5186
 438  114.0008
 439  182.2575
 440  129.6421
 441  76.82283
 442  150.2261
 443  197.3986
 444  122.9646
 445  139.8303
 446  223.4564
 447  141.5182
 448  211.942
 449  258.1698
 450  156.3247
 451  17.3706
 452  54.06768
 453  131.8478
 454  96.08173
 455  37.85957
 456  135.0305
 457  240.2794
 458  233.3763
 459  156.4799
 460  173.9204
 461  141.8593
 462  268.2234
 463  222.3885
 464  181.7717
 465  187.6226
 466  196.8681
 467  372.6685
 468  255.6656
 469  343.1746
 470  369.7511
 471  248.9608
 472  225.1136
 473  192.7866
 474  200.5826
 475  120.5441
 476  179.9369
 477  246.5652
 478  117.1064
 479  91.59113
 480  252.812
 481  224.9862
 482  212.4216
 483  169.1549
 484  180.6302
 485  92.86527
 486  81.56625
 487  148.6756
 488  123.4358
 489  163.9663
 490  105.2817
 491  121.1998
 492  96.91679
 493  50.84051
 494  275.2426
 495  252.0451
 496  234.0382
 497  282.8686
 498  289.0812
 499  163.7018
 500  188.4075
 501  323.7005
 502  191.8934
 503  65.52306
 504  109.4514
 505  169.0957
 506  286.4463
 507  283.116
 508  212.2696
 509  463.9716
 510  817.7197
 511  1141.675
