# Input file       =  1204706714.102575_cleaned.dat
# Candidate        =  PSR_0332+5434
# Telescope        =  AR
# Epoch_topo       =  58187.364966464986
# Epoch_bary       =  N/A
# T_sample         =  0.002
# Data Folded      =  7471104
# Data Avg         =  0.150694206207908
# Data StdDev      =  5.50301744935403 
# Profile Bins     =  512
# Profile Avg      =  2198.59013535582 
# Profile StdDev   =  664.749930192462 
# Reduced chi-sqr  =  0.772
# Prob(Noise)      <  1   (~0.0 sigma)
# P_topo (ms)      =  714.578924926095  +/- 4.28e-05
# P'_topo (s/s)    =  -0                +/- 2.22e-11
# P''_topo (s/s^2) =  0                 +/- 9.63e-15
# P_bary (ms)      =  N/A
# P'_bary (s/s)    =  N/A
# P''_bary (s/s^2) =  N/A
# P_orb (s)        =  N/A
# asin(i)/c (s)    =  N/A
# eccentricity     =  N/A
# w (rad)          =  N/A
# T_peri           =  N/A
######################################################
   0  1630.391
   1  2133.362
   2  2788.74
   3  2485.83
   4  2732.014
   5  2656.404
   6  2685.611
   7  1743.987
   8  1531.91
   9  1912.761
  10  2284.239
  11  2575.63
  12  2567.226
  13  2601.528
  14  2286.113
  15  1930.809
  16  2105.131
  17  2281.893
  18  2610.259
  19  2282.02
  20  2782.531
  21  3334.203
  22  2917.356
  23  2815.068
  24  2008.369
  25  2243.656
  26  2481.435
  27  2355.219
  28  2043.165
  29  1907.287
  30  2052.291
  31  1902.125
  32  1805.182
  33  1758.562
  34  2074.682
  35  1731.001
  36  1821.571
  37  2529.683
  38  2547.148
  39  2534.686
  40  2340.01
  41  2219.993
  42  2222.784
  43  2182.709
  44  1745.838
  45  1708.847
  46  1921.765
  47  1936.001
  48  2054.583
  49  1856.542
  50  2730.454
  51  2641.481
  52  2129.541
  53  1904.554
  54  2243.842
  55  2472.288
  56  2114.338
  57  2115.378
  58  2345.414
  59  1999.048
  60  2278.461
  61  2260.232
  62  2453.158
  63  2381.503
  64  2102.786
  65  1805.446
  66  1484.279
  67  2251.139
  68  2445.316
  69  2851.453
  70  2962.214
  71  2932.604
  72  2592.833
  73  2258.175
  74  1779.222
  75  2136.937
  76  2092.842
  77  2053.05
  78  1838.309
  79  2418.925
  80  2223.743
  81  1326.345
  82  1411.207
  83  2186.502
  84  2362.079
  85  2805.162
  86  2760.457
  87  2731.954
  88  2363.4
  89  1684.77
  90  1580.396
  91  1586.065
  92  2309.535
  93  2364.639
  94  2396.43
  95  2024.562
  96  2200.434
  97  2404.401
  98  1649.618
  99  2087.616
 100  1989.77
 101  2405.002
 102  2392.784
 103  2311.881
 104  2838.042
 105  2170.492
 106  2241.177
 107  1636.52
 108  1854.324
 109  2027.183
 110  1872.552
 111  1626.11
 112  2036.608
 113  2238.469
 114  1937.587
 115  1701.921
 116  2100.902
 117  2529.177
 118  2388.036
 119  1753.972
 120  2420.8
 121  2732.022
 122  2292.184
 123  1639.896
 124  2200.127
 125  2451.592
 126  2268.121
 127  1886.302
 128  1731.92
 129  2171.58
 130  1980.431
 131  1738.999
 132  1491.078
 133  2345.211
 134  2829.015
 135  2257.602
 136  2738.718
 137  2567.38
 138  2515.772
 139  1896.566
 140  1834.65
 141  2049.975
 142  2420.765
 143  2267.906
 144  1743.074
 145  2023.428
 146  2239.104
 147  1692.506
 148  1247.769
 149  1837.419
 150  2569.463
 151  2445.595
 152  2609.199
 153  2477.615
 154  1833.106
 155  1769.463
 156  1654.385
 157  2265.168
 158  2248.644
 159  2453.383
 160  1670.782
 161  2155.716
 162  2336.159
 163  1707.264
 164  1546.411
 165  1590.377
 166  1967.2
 167  2374.741
 168  2716.935
 169  2647.495
 170  2963.38
 171  2399.591
 172  1813.98
 173  1674.603
 174  1973.013
 175  2110.733
 176  2281.885
 177  2003.449
 178  2660.123
 179  2574.953
 180  2241.835
 181  1640.197
 182  1611.711
 183  2084.537
 184  2106.463
 185  2392.651
 186  2665.926
 187  3149.392
 188  2450.651
 189  1804.955
 190  1477.803
 191  1783.032
 192  1754.696
 193  1825.24
 194  1899.437
 195  2207.662
 196  2254.761
 197  1802.274
 198  1355.808
 199  2205.088
 200  2488.047
 201  2575.222
 202  2625.841
 203  2505.366
 204  2254.904
 205  2163.063
 206  1907.117
 207  1929.335
 208  2344.067
 209  2068.057
 210  1379.928
 211  1685.694
 212  2207.206
 213  1959.866
 214  1649.575
 215  2271.873
 216  2594.593
 217  2194.373
 218  2127.464
 219  2381.569
 220  2574.144
 221  2558.388
 222  1987.42
 223  1837.262
 224  2231.754
 225  2374.137
 226  2277.105
 227  2198.25
 228  2233.395
 229  1747.583
 230  1555.84
 231  1701.768
 232  2682.011
 233  2595.417
 234  2321.521
 235  2438.233
 236  2382.191
 237  1918.506
 238  1996.706
 239  1855.408
 240  1894.133
 241  2406.761
 242  2592.356
 243  2153.507
 244  1948.821
 245  1805.354
 246  1607.453
 247  1095.244
 248  1609.981
 249  2484.614
 250  3074.776
 251  2834.324
 252  2596.339
 253  2693.292
 254  2150.622
 255  1818.59
 256  1658.188
 257  2054.539
 258  2501.937
 259  2422.81
 260  2642.973
 261  2890.586
 262  2919.603
 263  2108.936
 264  1644.962
 265  1985.965
 266  2211.172
 267  2456.208
 268  2374.9
 269  2759.84
 270  2702.856
 271  2073.017
 272  1726.498
 273  2043.472
 274  1875.341
 275  1922.003
 276  1775.935
 277  2166.343
 278  2013.431
 279  2006.431
 280  1772.577
 281  2008.084
 282  2206.767
 283  2230.048
 284  2300.401
 285  2202.296
 286  2621.54
 287  2922.533
 288  2407.939
 289  2043.092
 290  2581.386
 291  2506.548
 292  1846.369
 293  2087.742
 294  2476.323
 295  2121.156
 296  1420.306
 297  1721.595
 298  2275.054
 299  2826.581
 300  2369.952
 301  2555.919
 302  3637.207
 303  4107.181
 304  4406.162
 305  3773.226
 306  3202.538
 307  3203.919
 308  2952.177
 309  2257.193
 310  1788.388
 311  2070.076
 312  1728.802
 313  1528.426
 314  2263.428
 315  2681.084
 316  2924.039
 317  2540.975
 318  2556.213
 319  2619.388
 320  2643.572
 321  2394.291
 322  1787.792
 323  2069.84
 324  2379.986
 325  2015.721
 326  1981.229
 327  2206.515
 328  1568.139
 329  1333.494
 330  1480.442
 331  2231.137
 332  2960.102
 333  2388.025
 334  2548.55
 335  2812.046
 336  2391.016
 337  1992.237
 338  1942.584
 339  1950.879
 340  2437.571
 341  2463.393
 342  2265.037
 343  2219.722
 344  2239.72
 345  2063.672
 346  1636.603
 347  1850.836
 348  2178.389
 349  2163.282
 350  2548.348
 351  2761.669
 352  2796.681
 353  2331.357
 354  1636.666
 355  1742.162
 356  2072.635
 357  2268.222
 358  1851.81
 359  2058.203
 360  2458.948
 361  2800.07
 362  1970.001
 363  1404.346
 364  2155.267
 365  2079.495
 366  2059.365
 367  2489.613
 368  3099.74
 369  3076.645
 370  2625.54
 371  2013.67
 372  2025.111
 373  2260.418
 374  2100.87
 375  1958.923
 376  1994.223
 377  2085.518
 378  1963.266
 379  1622.926
 380  2345.765
 381  2379.089
 382  2803.69
 383  2338.366
 384  2152.875
 385  2670.491
 386  2513.101
 387  2134.593
 388  1976.658
 389  2157.064
 390  2041
 391  1893.655
 392  1594.345
 393  1709.36
 394  1891.771
 395  1506.008
 396  1669.714
 397  2407.346
 398  2419.937
 399  2215.093
 400  2115.743
 401  2369.76
 402  2319.212
 403  2253.076
 404  1913.85
 405  2140.618
 406  2236.528
 407  2154.302
 408  1924.173
 409  2141.086
 410  2255.519
 411  1746.615
 412  1453.489
 413  1930.162
 414  2278.905
 415  2716.941
 416  2633.696
 417  2465.253
 418  2652.779
 419  2306.719
 420  1934.826
 421  1435.238
 422  1459.525
 423  1922.403
 424  2146.612
 425  2455.798
 426  2896.108
 427  2354.751
 428  1647.757
 429  1398.899
 430  2131.894
 431  2867.734
 432  2524.395
 433  2404.131
 434  2828.257
 435  2851.077
 436  2198.129
 437  1502.275
 438  1825.86
 439  2078.852
 440  2415
 441  2546.82
 442  2451.835
 443  2774.096
 444  2648.712
 445  2043.322
 446  1715.641
 447  2070.643
 448  2083.429
 449  2526.623
 450  2747.442
 451  2932.095
 452  3017.055
 453  2322.676
 454  1778.114
 455  1726.187
 456  2209.836
 457  2095.503
 458  1611.043
 459  1795.799
 460  2133.906
 461  1767.144
 462  1350.961
 463  1838.182
 464  3046.297
 465  2623.548
 466  1895.099
 467  2023.824
 468  2115.039
 469  2037.351
 470  2060.071
 471  2341.573
 472  2341.027
 473  2047.07
 474  1619.877
 475  1718.138
 476  1961.062
 477  1902.941
 478  1634.106
 479  2237.092
 480  2474.013
 481  2312.771
 482  2447.791
 483  2548.244
 484  2642.749
 485  2304.589
 486  1749.882
 487  1624.462
 488  2032.089
 489  2405.479
 490  1900.838
 491  2060.379
 492  2084.007
 493  2256.608
 494  1732.762
 495  1460.116
 496  2302.892
 497  2629.893
 498  2724.305
 499  2089.093
 500  2601.531
 501  2931.295
 502  2284.852
 503  1902.129
 504  1655.432
 505  2114.321
 506  2394.389
 507  2486.838
 508  2665.283
 509  2469.175
 510  1854.098
 511  1532.283
