# Input file       =  1204792879.116628_cleaned.dat
# Candidate        =  PSR_0332+5434
# Telescope        =  AR
# Epoch_topo       =  58188.362246720229
# Epoch_bary       =  N/A
# T_sample         =  0.002
# Data Folded      =  7405568
# Data Avg         =  0.233753767330199
# Data StdDev      =  6.40381580654129 
# Profile Bins     =  512
# Profile Avg      =  3380.95156827445 
# Profile StdDev   =  770.163687777955 
# Reduced chi-sqr  =  5.523
# Prob(Noise)      <  0   (~0.0 sigma)
# P_topo (ms)      =  714.578668915946  +/- 1.48e-05
# P'_topo (s/s)    =  -0                +/- 7.73e-12
# P''_topo (s/s^2) =  0                 +/- 3.38e-15
# P_bary (ms)      =  N/A
# P'_bary (s/s)    =  N/A
# P''_bary (s/s^2) =  N/A
# P_orb (s)        =  N/A
# asin(i)/c (s)    =  N/A
# eccentricity     =  N/A
# w (rad)          =  N/A
# T_peri           =  N/A
######################################################
   0  3658.007
   1  2920.114
   2  2999.523
   3  2340.959
   4  1422.526
   5  1976.657
   6  3569.645
   7  3517.517
   8  2739.37
   9  2352.894
  10  2485.462
  11  2139.445
  12  2202.351
  13  3757.042
  14  5603.199
  15  5816.028
  16  4497.356
  17  3674.297
  18  3457.193
  19  3231.852
  20  2341.662
  21  2067.018
  22  3098.947
  23  3402.358
  24  2881.311
  25  2270.612
  26  2195.8
  27  2728.673
  28  2991.037
  29  3862.107
  30  5031.688
  31  5699.675
  32  5375.387
  33  4266.681
  34  3181.937
  35  2871.255
  36  2986.691
  37  2139.171
  38  2373.298
  39  3008.171
  40  3146.115
  41  2318.46
  42  1677.916
  43  1880.448
  44  2649.233
  45  3183.633
  46  4319.882
  47  6145.076
  48  6466.27
  49  5189.357
  50  3162.527
  51  2633.546
  52  2303.208
  53  2075.528
  54  1991.755
  55  3140.813
  56  4091.962
  57  3419.645
  58  2109.478
  59  1697.474
  60  2126.471
  61  3041.612
  62  3956.678
  63  5306.065
  64  6296.549
  65  5673.623
  66  4363.962
  67  3244.081
  68  3296.598
  69  2659.767
  70  2284.67
  71  2714.479
  72  3758.552
  73  3948.304
  74  2911.599
  75  2120.009
  76  2404.152
  77  2753.866
  78  3389.903
  79  4702.078
  80  6256.993
  81  6424.975
  82  5116.802
  83  3695.476
  84  3279.972
  85  2998.476
  86  2491.646
  87  2298.977
  88  3083.167
  89  3659.01
  90  3301.624
  91  2592.772
  92  2273.095
  93  2630.13
  94  2731.913
  95  3513.709
  96  4787.007
  97  6309.295
  98  5702.523
  99  4451.948
 100  3258.586
 101  2895.141
 102  2762.684
 103  1936.207
 104  1800.788
 105  2948.157
 106  3595.792
 107  2723.711
 108  2177.076
 109  2721.485
 110  3208.318
 111  2648.992
 112  3971.976
 113  5747.845
 114  6120.686
 115  5209.682
 116  3688.815
 117  2585.415
 118  2765.901
 119  2190.201
 120  1866.938
 121  2895.669
 122  3818.424
 123  3118.001
 124  2131.461
 125  2035.123
 126  2367.243
 127  2780.703
 128  3458.583
 129  4779.928
 130  5950.84
 131  6008.884
 132  4135.67
 133  2860.304
 134  2561.941
 135  2353.752
 136  1993.696
 137  2992.806
 138  3683.94
 139  3580.352
 140  3091.39
 141  2006.051
 142  2179.465
 143  2708.55
 144  3139.719
 145  4228.605
 146  5943.683
 147  6391.099
 148  5285.358
 149  3493.558
 150  3210.211
 151  2755.948
 152  2229.416
 153  1985.023
 154  2905.264
 155  3647.399
 156  2863.003
 157  2061.988
 158  1665.627
 159  1666.805
 160  2305.319
 161  3545.493
 162  5315.405
 163  6193.406
 164  6099.741
 165  4781.946
 166  3204.628
 167  2356.725
 168  2006.028
 169  1681.627
 170  2358.049
 171  3935.211
 172  4278.407
 173  3010.04
 174  2159.97
 175  1731.428
 176  2082.46
 177  3007.096
 178  4043.311
 179  5586.708
 180  6617.001
 181  5511.916
 182  3581.319
 183  2574.315
 184  2514.408
 185  2111.696
 186  2167.563
 187  3145.968
 188  3771.189
 189  3854.491
 190  2655.323
 191  1758.093
 192  2079.711
 193  2404.847
 194  3169.805
 195  4552.859
 196  6227.973
 197  6430.507
 198  4376.724
 199  2915.453
 200  2627.531
 201  2480.469
 202  2228.09
 203  2417.613
 204  3635.547
 205  3925.735
 206  2854.901
 207  2369.187
 208  2453.41
 209  2703.274
 210  3120.918
 211  3810.932
 212  5491.089
 213  5812.401
 214  5242.115
 215  4009.676
 216  2985.352
 217  2681.701
 218  2347.226
 219  2183.698
 220  3088.197
 221  3335.84
 222  2753.602
 223  2500.109
 224  1649.969
 225  1982.207
 226  3074.026
 227  3990.077
 228  4936.159
 229  6286.356
 230  5783.42
 231  4443.16
 232  3175.617
 233  2842.562
 234  2617.657
 235  2444.704
 236  2788.171
 237  3424.282
 238  3654.393
 239  2756.225
 240  1855.336
 241  1851.201
 242  2261.006
 243  2850.767
 244  4087.217
 245  5910.015
 246  6860.231
 247  5454.973
 248  3255.686
 249  2964.572
 250  2410.166
 251  1814.304
 252  1594.071
 253  2386.188
 254  3683.177
 255  3559.845
 256  2729.491
 257  1673.622
 258  1675.898
 259  2124.264
 260  2680.435
 261  4618.502
 262  6259.094
 263  6337.726
 264  4693.646
 265  2757.146
 266  2358.836
 267  1994.863
 268  1501.413
 269  1773.388
 270  3272.528
 271  3904.193
 272  2772.107
 273  1631.307
 274  1840.937
 275  2263.708
 276  2487.881
 277  3372.292
 278  4633.844
 279  6001.561
 280  5421.751
 281  3802.045
 282  3086.521
 283  2844.217
 284  1930.548
 285  1434.632
 286  2263.349
 287  3183.257
 288  2967.087
 289  2551.596
 290  2853.131
 291  3074.48
 292  3118.43
 293  3324.896
 294  4083.25
 295  5194.197
 296  5107.875
 297  4079.708
 298  3113.258
 299  2879.606
 300  2895.084
 301  2524.606
 302  2220.496
 303  3170.368
 304  3273.14
 305  2798.917
 306  2147.916
 307  2905.638
 308  3957.807
 309  4921.77
 310  5908.864
 311  6696.187
 312  6897.141
 313  5896.187
 314  4084.429
 315  2982.785
 316  2684.95
 317  2184.489
 318  2079.346
 319  3112.02
 320  3807.014
 321  3287.307
 322  1940.337
 323  1507.872
 324  2223.099
 325  2439.948
 326  3231.839
 327  4888.982
 328  6479.658
 329  6678.877
 330  4726.461
 331  3176.64
 332  1940.988
 333  1886.497
 334  1671.697
 335  2147.078
 336  3529.015
 337  3981.634
 338  2806.618
 339  1661.951
 340  1202.763
 341  1910.026
 342  2398.877
 343  3734.436
 344  5761.804
 345  6322.276
 346  5517.865
 347  3634.694
 348  2638.135
 349  2316.075
 350  2108.97
 351  2046.713
 352  2627.201
 353  3470.969
 354  3426.209
 355  2193.882
 356  1575.15
 357  2046.958
 358  1934.553
 359  2741.211
 360  4499.617
 361  6064.186
 362  6120.442
 363  4881.399
 364  3464.01
 365  2798.866
 366  2633.902
 367  1862.102
 368  1855.61
 369  2688.859
 370  3224.073
 371  2540.987
 372  2427.235
 373  2439.731
 374  2799.289
 375  2980.995
 376  3518.307
 377  5189.108
 378  6049.866
 379  5502.792
 380  4276.817
 381  3240.503
 382  2960.433
 383  2528.817
 384  2109.573
 385  2687.527
 386  3534.288
 387  3360.252
 388  2437.274
 389  2157.182
 390  3085.964
 391  3140.608
 392  3095.431
 393  4727.748
 394  6084.951
 395  5831.474
 396  5009.145
 397  3718.577
 398  3346.837
 399  3044.835
 400  2354.114
 401  2312.299
 402  3142.994
 403  3841.467
 404  3180.177
 405  2376.536
 406  2278.256
 407  2563.114
 408  3261.112
 409  4388.885
 410  5780.589
 411  6935.235
 412  6216.956
 413  4318.297
 414  3046.081
 415  3227.51
 416  2567.99
 417  2499.653
 418  3556.985
 419  4397.245
 420  3909.007
 421  2353.674
 422  1512.162
 423  1763.958
 424  2322.139
 425  3682.466
 426  5420.214
 427  6484.833
 428  6195.628
 429  4447.522
 430  3137.04
 431  2689.439
 432  2357.819
 433  2349.361
 434  2744.482
 435  3177.472
 436  3999.621
 437  3255.155
 438  2374.858
 439  2214.09
 440  2512.055
 441  2811.227
 442  3771.96
 443  4878.561
 444  6287.765
 445  5478.511
 446  4167.381
 447  3336.013
 448  3294.97
 449  2864.263
 450  1949.451
 451  2102.048
 452  3411.157
 453  3377.523
 454  2606.208
 455  2105.285
 456  2145.953
 457  2785.391
 458  2967.944
 459  4338.422
 460  5781.467
 461  5667.758
 462  4674.042
 463  3321.113
 464  2885.705
 465  2691.806
 466  2353.406
 467  1978.884
 468  2759.494
 469  3334.323
 470  2424.74
 471  2122.137
 472  2094.254
 473  2887.708
 474  3172.933
 475  3608.591
 476  5434.894
 477  6150.866
 478  5791.369
 479  4025.404
 480  3037.409
 481  2701.221
 482  2397.258
 483  2116.678
 484  3082.987
 485  4101.038
 486  3760.233
 487  2301.703
 488  1693.403
 489  2061.425
 490  2519.263
 491  3410.047
 492  4673.635
 493  5858.156
 494  6060.05
 495  4349.371
 496  2992.17
 497  2829.447
 498  2934.704
 499  2206.535
 500  2554.377
 501  3363.823
 502  3838.967
 503  3104.368
 504  1725.901
 505  1624.923
 506  2632.172
 507  2775.899
 508  3769.729
 509  5081.198
 510  5979.979
 511  5073.022
