# Input file       =  1204462849.099223_cleaned.dat
# Candidate        =  PSR_0332+5434
# Telescope        =  AR
# Epoch_topo       =  58184.542454852119
# Epoch_bary       =  N/A
# T_sample         =  0.002
# Data Folded      =  7340032
# Data Avg         =  0.185556846111598
# Data StdDev      =  6.95817303429755 
# Profile Bins     =  512
# Profile Avg      =  2659.37291887301 
# Profile StdDev   =  833.123185031381 
# Reduced chi-sqr  =  0.911
# Prob(Noise)      <  0.926   (~0.0 sigma)
# P_topo (ms)      =  714.579567917648  +/- 0.00041
# P'_topo (s/s)    =  -0                +/- 2.16e-10
# P''_topo (s/s^2) =  0                 +/- 9.55e-14
# P_bary (ms)      =  N/A
# P'_bary (s/s)    =  N/A
# P''_bary (s/s^2) =  N/A
# P_orb (s)        =  N/A
# asin(i)/c (s)    =  N/A
# eccentricity     =  N/A
# w (rad)          =  N/A
# T_peri           =  N/A
######################################################
   0  3415.618
   1  2979.845
   2  3088.152
   3  3353.425
   4  2998.266
   5  3083.679
   6  3010.81
   7  2929.716
   8  2934.516
   9  3101.911
  10  3080.357
  11  3034.62
  12  2674.99
  13  2590.742
  14  2310.89
  15  2439.387
  16  2706.68
  17  2435.509
  18  2426.462
  19  2341.819
  20  2260.7
  21  2082.983
  22  2100.3
  23  2763.232
  24  2793.718
  25  2169.402
  26  1997.421
  27  2082.615
  28  2423.826
  29  2300.799
  30  1919.605
  31  2043.755
  32  2171.105
  33  1895.755
  34  1909.453
  35  2021.968
  36  2123.159
  37  2303.158
  38  2439.849
  39  2216.857
  40  2151.867
  41  2126.63
  42  1757.832
  43  1813.549
  44  1993.649
  45  2022.746
  46  2038.114
  47  2242.357
  48  1897.514
  49  1954.974
  50  2000.511
  51  1795.633
  52  1920.055
  53  2207.021
  54  2087.647
  55  2171.328
  56  2226.927
  57  2077.466
  58  2147.945
  59  2348.537
  60  2227.994
  61  2187.922
  62  2373.105
  63  2816.978
  64  2564.985
  65  2406.898
  66  2625.757
  67  2734.643
  68  3028.218
  69  3067.697
  70  3162.48
  71  3061.959
  72  2946.147
  73  2935.171
  74  3213.015
  75  2799.83
  76  2917.445
  77  3355.9
  78  3176.05
  79  3041.591
  80  2945.014
  81  2995.893
  82  2999.729
  83  3092.341
  84  3144.831
  85  3174.904
  86  3283.678
  87  3473.299
  88  3712.588
  89  3041.455
  90  3225.496
  91  3984.393
  92  3537.544
  93  2897.466
  94  2888.917
  95  2855.696
  96  2271.986
  97  3067.325
  98  3194.876
  99  2703.789
 100  2145.75
 101  2315.226
 102  2101.389
 103  2180.725
 104  2395.899
 105  2692.637
 106  2830.583
 107  3087.06
 108  2594.906
 109  2276.007
 110  2318.697
 111  2223.613
 112  2496.379
 113  2601.072
 114  2423.719
 115  2423.052
 116  2891.184
 117  2562.517
 118  2700.955
 119  2815.088
 120  2988.4
 121  2588.736
 122  2675.114
 123  3194.647
 124  3528.766
 125  3472.917
 126  3284.435
 127  3233.672
 128  3303.857
 129  2830.772
 130  2660.031
 131  3035.949
 132  3130.261
 133  2849.908
 134  2793.908
 135  2900.326
 136  2543.454
 137  2785.855
 138  3028.978
 139  3019.29
 140  2602.756
 141  2610.308
 142  2826.68
 143  2778.844
 144  3001.419
 145  3134.578
 146  3082.018
 147  2984.812
 148  3088.446
 149  3371.983
 150  3491.451
 151  3011.034
 152  2807.933
 153  2593.303
 154  2731.657
 155  3093.179
 156  3040.623
 157  3065.322
 158  2844.958
 159  2955.05
 160  2687.698
 161  2404.938
 162  2175.277
 163  2482.139
 164  2374.039
 165  2272.975
 166  2405.85
 167  2730.148
 168  2357.961
 169  2231.836
 170  2639.778
 171  2381.686
 172  2260.824
 173  1971.766
 174  2139.661
 175  2045.496
 176  1670.258
 177  1886.049
 178  2164.341
 179  2087.048
 180  2178.58
 181  2109.326
 182  1934.11
 183  1808.108
 184  1913.532
 185  2024.178
 186  1882.308
 187  2235.699
 188  2159.66
 189  1974.902
 190  2070.948
 191  2285.864
 192  1755.321
 193  2260.221
 194  2358.561
 195  2491.385
 196  2399.404
 197  2303.726
 198  2491.506
 199  2648.17
 200  2398.782
 201  2547.318
 202  3032.734
 203  3172.85
 204  2725.341
 205  2820.29
 206  2431.048
 207  2884.37
 208  2933.759
 209  2776.731
 210  2638.762
 211  2434.484
 212  2789.196
 213  2866.53
 214  3187.008
 215  3710.088
 216  3576.595
 217  3583.706
 218  3346.386
 219  3641.345
 220  3623.915
 221  3155.553
 222  3007.614
 223  3476.708
 224  3048.049
 225  3169.933
 226  3218.242
 227  3222.002
 228  3076.507
 229  3215.618
 230  3735.39
 231  3677.535
 232  3522.295
 233  3327.151
 234  3452.824
 235  3222.581
 236  3360.053
 237  3140.602
 238  3293.104
 239  3077.381
 240  3077.361
 241  2819.362
 242  2667.963
 243  2740.305
 244  2703.815
 245  2562.112
 246  2459.752
 247  2325.653
 248  1970.649
 249  2096.773
 250  2236.945
 251  2167.5
 252  1914.736
 253  1859.358
 254  1906.305
 255  2307.128
 256  2270.939
 257  2335.577
 258  1881.222
 259  2195.513
 260  2132.757
 261  2157.637
 262  2252.052
 263  1993.016
 264  2306.495
 265  2792.65
 266  2528.389
 267  2376.123
 268  2271.852
 269  2053.601
 270  2277.071
 271  2390.434
 272  2087.6
 273  2371.99
 274  2670.699
 275  2694.222
 276  2530.079
 277  2487.254
 278  2678.562
 279  2806.261
 280  3261.437
 281  3174.421
 282  3115.762
 283  2952.488
 284  2994.56
 285  3154.93
 286  3318.365
 287  3484.668
 288  3627.32
 289  3247.359
 290  3046.491
 291  3197.441
 292  3423.514
 293  3167.264
 294  3019.702
 295  3212.705
 296  2751.119
 297  2616.126
 298  2959.401
 299  3137.549
 300  3403.42
 301  3677.448
 302  3714.573
 303  3456.606
 304  3368.836
 305  4069.548
 306  3719.203
 307  3313.284
 308  3296.19
 309  3471.764
 310  3426.006
 311  3277.888
 312  3541.903
 313  3466.076
 314  3441.162
 315  3117.913
 316  3295.859
 317  3420.94
 318  3255.027
 319  3034.804
 320  2874.675
 321  2633.705
 322  3004.26
 323  2944.154
 324  2778.151
 325  2577.248
 326  2745.028
 327  2668.757
 328  2856.802
 329  2549.869
 330  2597.949
 331  2664.6
 332  3016.494
 333  2860.338
 334  2759.086
 335  2865.685
 336  2763.687
 337  2717.136
 338  3256.062
 339  3681.181
 340  3393.89
 341  3393.617
 342  3103.915
 343  3069.655
 344  3536.934
 345  3870.329
 346  3833.537
 347  3392.914
 348  3438.597
 349  3507.987
 350  3930.311
 351  4092.967
 352  4176.093
 353  4735.702
 354  4863.301
 355  4692.281
 356  4509.554
 357  4488.995
 358  4125.606
 359  3722.673
 360  3683.385
 361  3614.257
 362  3554.458
 363  3569.65
 364  3295.537
 365  3059.397
 366  3123.009
 367  2941.025
 368  3403.207
 369  3202.669
 370  2627.109
 371  2536.242
 372  2371.238
 373  2332.702
 374  2054.917
 375  1870.995
 376  1905.063
 377  1849.978
 378  1749.246
 379  2146.894
 380  1668.856
 381  2172.368
 382  2317.08
 383  1976.174
 384  2036.217
 385  1956.863
 386  2193.828
 387  1925.608
 388  2001.594
 389  2396.553
 390  2615.277
 391  2010.833
 392  1676.965
 393  1891.536
 394  1847.089
 395  2008.527
 396  2061.025
 397  1692.692
 398  1787.605
 399  2307.405
 400  2351.375
 401  2350.594
 402  2053.022
 403  1985.312
 404  2127.989
 405  2116.284
 406  2388.788
 407  2011.668
 408  1747.37
 409  2135.946
 410  2504.868
 411  2438.465
 412  2081.811
 413  1959.107
 414  2266.763
 415  2549.267
 416  2985.868
 417  2805.411
 418  2503.899
 419  2864.516
 420  2847.582
 421  2501.693
 422  2422.089
 423  2353.94
 424  2335.859
 425  2243.05
 426  2197.452
 427  2191.925
 428  1958.141
 429  2106.331
 430  2319.642
 431  2575.094
 432  2656.733
 433  2943.05
 434  2425.747
 435  2073.577
 436  2082.255
 437  2515.975
 438  2616.837
 439  2626.413
 440  2845.317
 441  2638.677
 442  2553.179
 443  2676.023
 444  2830.999
 445  2627.756
 446  2509.248
 447  2674.167
 448  2592.578
 449  2280.679
 450  2106.006
 451  2261.962
 452  2209.85
 453  2176.136
 454  1856.319
 455  1970.26
 456  2187.653
 457  2054.327
 458  1884.08
 459  1982.819
 460  1808.494
 461  2275.367
 462  2336.735
 463  1944.757
 464  1825.714
 465  1855.97
 466  2076.793
 467  1903.386
 468  1708.39
 469  1438.129
 470  1979.245
 471  2149.336
 472  1653.452
 473  1658.941
 474  1627.839
 475  1596.616
 476  1926.419
 477  1698.964
 478  1906.295
 479  2516.046
 480  2142.524
 481  1946.568
 482  2071.784
 483  2248.107
 484  2349.391
 485  2363.194
 486  2478.086
 487  2096.222
 488  2443.397
 489  2651.711
 490  2151.465
 491  1997.199
 492  2114.532
 493  2345.478
 494  2350.402
 495  2431.343
 496  2462.543
 497  2744.076
 498  2478.261
 499  2244.463
 500  2513.589
 501  2839.737
 502  2946.617
 503  3048.885
 504  2882.049
 505  2686.493
 506  2745.085
 507  2895.516
 508  3146.911
 509  3227.682
 510  3492.479
 511  3626.817
