# Input file       =  1204808031.109151_cleaned.dat
# Candidate        =  PSR_0332+5434
# Telescope        =  AR
# Epoch_topo       =  58188.537617004062
# Epoch_bary       =  N/A
# T_sample         =  0.002
# Data Folded      =  7340032
# Data Avg         =  0.0174524051111356
# Data StdDev      =  1.00007275656913 
# Profile Bins     =  512
# Profile Avg      =  250.090747942606 
# Profile StdDev   =  119.741747741704 
# Reduced chi-sqr  =  1.010
# Prob(Noise)      <  0.427   (~0.2 sigma)
# P_topo (ms)      =  714.57864186709   +/- 0.000886
# P'_topo (s/s)    =  -0                +/- 4.67e-10
# P''_topo (s/s^2) =  0                 +/- 2.06e-13
# P_bary (ms)      =  N/A
# P'_bary (s/s)    =  N/A
# P''_bary (s/s^2) =  N/A
# P_orb (s)        =  N/A
# asin(i)/c (s)    =  N/A
# eccentricity     =  N/A
# w (rad)          =  N/A
# T_peri           =  N/A
######################################################
   0  496.3949
   1  465.4538
   2  375.5057
   3  273.9002
   4  232.5452
   5  236.2063
   6  207.1628
   7  176.1689
   8  228.3996
   9  246.9224
  10  184.6685
  11  205.7823
  12  217.9317
  13  253.3196
  14  193.9731
  15  204.2731
  16  166.9381
  17  144.3636
  18  223.4034
  19  269.5007
  20  267.3
  21  259.1413
  22  323.6093
  23  281.9723
  24  293.8277
  25  253.631
  26  286.6591
  27  273.7562
  28  266.0432
  29  244.5918
  30  246.6939
  31  228.6842
  32  218.1942
  33  238.4803
  34  298.3399
  35  286.0103
  36  226.5052
  37  246.3882
  38  275.3057
  39  227.2899
  40  254.925
  41  224.9908
  42  241.6874
  43  251.5524
  44  257.8838
  45  177.7029
  46  278.5297
  47  346.6139
  48  312.2456
  49  337.502
  50  341.8611
  51  361.2167
  52  372.2619
  53  402.2223
  54  394.6508
  55  372.5311
  56  354.1045
  57  403.8682
  58  465.0959
  59  392.8208
  60  357.5906
  61  366.573
  62  396.3381
  63  362.5987
  64  281.3012
  65  271.0861
  66  296.5466
  67  324.2827
  68  303.2162
  69  318.4941
  70  346.23
  71  349.885
  72  315.4484
  73  271.1244
  74  251.2434
  75  253.3695
  76  287.1083
  77  314.6016
  78  339.9591
  79  317.9136
  80  261.4405
  81  271.2003
  82  259.503
  83  250.443
  84  276.9774
  85  243.1393
  86  262.2522
  87  304.9407
  88  319.1926
  89  315.779
  90  320.2366
  91  283.2147
  92  255.7392
  93  245.8561
  94  190.2766
  95  259.0167
  96  276.9755
  97  269.3658
  98  252.5717
  99  281.678
 100  321.7515
 101  306.1385
 102  222.272
 103  233.2074
 104  298.0318
 105  248.1687
 106  216.6504
 107  200.6109
 108  254.3456
 109  238.0287
 110  223.207
 111  265.1342
 112  266.535
 113  256.0625
 114  266.7708
 115  297.8586
 116  309.115
 117  271.2653
 118  247.9258
 119  173.1193
 120  214.2794
 121  300.683
 122  309.8349
 123  295.4679
 124  282.1723
 125  301.6436
 126  298.1286
 127  293.2922
 128  273.1387
 129  229.8102
 130  220.8146
 131  249.0302
 132  255.8088
 133  298.5092
 134  258.5649
 135  271.371
 136  253.5064
 137  198.5787
 138  244.0833
 139  273.3075
 140  339.4151
 141  298.0984
 142  297.0443
 143  280.5594
 144  255.9577
 145  326.7779
 146  287.8155
 147  319.0696
 148  390.5421
 149  436.1597
 150  421.4269
 151  357.0667
 152  401.5678
 153  423.1458
 154  433.1384
 155  411.8623
 156  431.3764
 157  419.8217
 158  401.5148
 159  498.3684
 160  475.0946
 161  455.1712
 162  394.3275
 163  339.7488
 164  287.5116
 165  343.119
 166  290.3029
 167  258.0419
 168  310.8586
 169  339.2687
 170  298.8925
 171  367.6632
 172  357.4585
 173  336.842
 174  313.9471
 175  313.8248
 176  294.5319
 177  330.3292
 178  387.4319
 179  372.4756
 180  340.3025
 181  378.9436
 182  398.2555
 183  356.633
 184  383.3781
 185  418.4202
 186  354.9992
 187  344.1467
 188  320.4366
 189  388.1646
 190  326.7723
 191  312.1229
 192  308.0708
 193  324.5343
 194  321.2917
 195  252.7066
 196  339.6171
 197  307.0276
 198  310.9456
 199  348.1176
 200  375.8317
 201  288.0889
 202  262.9909
 203  232.1017
 204  264.6861
 205  248.107
 206  285.0146
 207  282.3181
 208  318.5307
 209  303.8806
 210  293.4183
 211  264.0663
 212  268.8403
 213  333.9333
 214  314.895
 215  243.4547
 216  270.4223
 217  315.7363
 218  304.8925
 219  249.9182
 220  262.4038
 221  255.1037
 222  254.2161
 223  212.78
 224  226.2496
 225  249.0308
 226  262.736
 227  268.2244
 228  218.6361
 229  307.4893
 230  293.209
 231  322.4177
 232  291.6935
 233  253.1936
 234  272.9542
 235  307.7687
 236  277.5242
 237  284.1815
 238  323.218
 239  303.8906
 240  301.3597
 241  271.0585
 242  264.6499
 243  249.6516
 244  208.4677
 245  223.0961
 246  211.5139
 247  216.319
 248  197.8879
 249  180.9378
 250  206.9957
 251  285.491
 252  260.7915
 253  265.8765
 254  263.0063
 255  285.8705
 256  288.3462
 257  320.3035
 258  377.3303
 259  415.485
 260  435.9637
 261  410.4564
 262  362.8016
 263  390.3565
 264  396.3404
 265  326.4658
 266  329.3833
 267  402.516
 268  368.0859
 269  269.7044
 270  307.0919
 271  283.0313
 272  260.4939
 273  189.1696
 274  279.0685
 275  332.0652
 276  330.9508
 277  265.5268
 278  246.3214
 279  303.4861
 280  309.2508
 281  274.588
 282  290.9244
 283  308.6304
 284  247.1823
 285  231.5493
 286  208.8081
 287  260.123
 288  252.7832
 289  242.3611
 290  241.6995
 291  211.703
 292  190.2825
 293  201.2007
 294  246.1593
 295  282.3799
 296  243.4791
 297  230.8788
 298  266.4746
 299  263.9702
 300  272.2365
 301  250.3417
 302  273.8654
 303  312.2316
 304  202.2838
 305  233.9171
 306  241.0072
 307  235.2178
 308  293.697
 309  332.5492
 310  267.8755
 311  200.0939
 312  196.464
 313  219.5556
 314  181.3152
 315  227.1116
 316  261.5444
 317  235.2589
 318  243.5566
 319  283.4088
 320  319.1131
 321  279.1487
 322  258.8465
 323  307.834
 324  381.9026
 325  361.1275
 326  264.2992
 327  271.8263
 328  288.1428
 329  295.6077
 330  297.7754
 331  331.2139
 332  298.9589
 333  227.439
 334  202.6598
 335  209.9411
 336  247.6871
 337  242.9229
 338  244.8785
 339  263.5724
 340  212.3024
 341  182.4779
 342  173.3279
 343  205.8294
 344  189.6797
 345  146.9797
 346  163.3034
 347  113.3629
 348  158.2016
 349  241.0957
 350  223.7108
 351  204.1507
 352  209.2348
 353  244.016
 354  205.5602
 355  164.5981
 356  135.3855
 357  143.6675
 358  122.3554
 359  164.3772
 360  261.3321
 361  197.3235
 362  222.7064
 363  252.4763
 364  174.934
 365  190.7195
 366  192.9161
 367  230.3141
 368  229.6034
 369  258.1918
 370  250.8154
 371  282.9542
 372  305.8887
 373  354.3217
 374  309.5909
 375  265.7067
 376  288.4027
 377  275.3434
 378  238.4393
 379  270.2759
 380  300.8619
 381  200.0074
 382  104.0905
 383  185.9177
 384  235.253
 385  182.5371
 386  205.8981
 387  233.5908
 388  166.0345
 389  147.6847
 390  183.1456
 391  199.6384
 392  178.1013
 393  214.3111
 394  223.407
 395  255.1269
 396  220.9891
 397  239.5257
 398  273.631
 399  246.1141
 400  214.0074
 401  160.6555
 402  157.3805
 403  119.6491
 404  115.0509
 405  205.835
 406  215.2779
 407  205.6766
 408  127.0789
 409  131.9622
 410  263.4764
 411  220.2703
 412  171.6901
 413  159.2159
 414  153.9591
 415  149.6829
 416  149.739
 417  140.5161
 418  78.49633
 419  119.3068
 420  185.6538
 421  154.0126
 422  107.0885
 423  199.63
 424  245.0201
 425  226.5265
 426  194.7043
 427  159.6637
 428  156.3833
 429  176.5453
 430  171.8479
 431  210.9093
 432  262.2048
 433  199.481
 434  188.2416
 435  197.8849
 436  145.5135
 437  150.3177
 438  197.9632
 439  236.543
 440  260.8094
 441  263.7101
 442  215.4911
 443  188.1628
 444  167.7043
 445  195.8386
 446  216.5027
 447  240.1089
 448  251.422
 449  151.8494
 450  113.9149
 451  85.18124
 452  69.49272
 453  113.284
 454  107.5778
 455  104.2194
 456  99.09744
 457  50.52416
 458  38.94114
 459  96.73886
 460  62.15353
 461  136.8259
 462  109.3256
 463  115.6423
 464  171.2568
 465  202.5982
 466  145.8955
 467  155.2354
 468  110.4471
 469  111.8766
 470  125.7633
 471  95.55316
 472  68.80039
 473  123.5969
 474  136.209
 475  87.83375
 476  45.50495
 477  80.80582
 478  37.46578
 479  41.15265
 480  102.2751
 481  51.2395
 482  -10.36314
 483  38.50329
 484  64.73507
 485  40.57096
 486  61.12094
 487  77.36791
 488  58.76234
 489  58.85661
 490  94.82877
 491  41.76031
 492  38.05986
 493  81.9444
 494  137.0768
 495  112.4351
 496  140.5901
 497  92.76462
 498  80.1996
 499  127.8296
 500  109.9368
 501  154.6964
 502  211.996
 503  194.2589
 504  174.2099
 505  180.4754
 506  168.3398
 507  196.819
 508  239.64
 509  292.1894
 510  440.6269
 511  521.8843
