# Input file       =  1204620467.112361_cleaned.dat
# Candidate        =  PSR_0332+5434
# Telescope        =  AR
# Epoch_topo       =  58186.366737411583
# Epoch_bary       =  N/A
# T_sample         =  0.002
# Data Folded      =  7208960
# Data Avg         =  0.0228657190892089
# Data StdDev      =  0.999946611237192
# Profile Bins     =  512
# Profile Avg      =  321.998361259979 
# Profile StdDev   =  118.652840726939 
# Reduced chi-sqr  =  1.821
# Prob(Noise)      <  7.33e-27   (~10.7 sigma)
# P_topo (ms)      =  714.5791647131    +/- 7.14e-05
# P'_topo (s/s)    =  -0                +/- 3.84e-11
# P''_topo (s/s^2) =  0                 +/- 1.73e-14
# P_bary (ms)      =  N/A
# P'_bary (s/s)    =  N/A
# P''_bary (s/s^2) =  N/A
# P_orb (s)        =  N/A
# asin(i)/c (s)    =  N/A
# eccentricity     =  N/A
# w (rad)          =  N/A
# T_peri           =  N/A
######################################################
   0  367.9573
   1  283.0424
   2  204.4919
   3  270.5547
   4  197.2719
   5  233.2683
   6  259.3844
   7  313.1439
   8  362.607
   9  250.8168
  10  233.2816
  11  305.7465
  12  321.0663
  13  242.3221
  14  334.8803
  15  357.2334
  16  301.6353
  17  155.9601
  18  114.5208
  19  319.9687
  20  334.231
  21  290.5477
  22  311.7297
  23  479.6436
  24  574.9056
  25  438.7571
  26  406.7173
  27  317.2797
  28  407.4737
  29  406.5726
  30  277.7559
  31  217.1094
  32  261.4069
  33  320.6979
  34  141.6306
  35  316.2445
  36  280.647
  37  193.8484
  38  293.6674
  39  302.4919
  40  420.3449
  41  491.5311
  42  420.3532
  43  270.1979
  44  184.5879
  45  302.4876
  46  313.5214
  47  290.6103
  48  437.3779
  49  333.3749
  50  304.2764
  51  174.4591
  52  105.0921
  53  322.6851
  54  334.3832
  55  289.786
  56  301.9182
  57  364.4435
  58  410.3078
  59  345.7112
  60  338.2774
  61  393.9041
  62  426.8366
  63  252.836
  64  165.8295
  65  359.5055
  66  421.5849
  67  376.0575
  68  217.6857
  69  337.4844
  70  359.8001
  71  248.9162
  72  310.8314
  73  304.5703
  74  416.5443
  75  331.9839
  76  385.2319
  77  335.4067
  78  402.6043
  79  492.9226
  80  404.5822
  81  322.0735
  82  476.8813
  83  458.7375
  84  270.8908
  85  230.0345
  86  282.4642
  87  323.0938
  88  315.7146
  89  417.7389
  90  445.7407
  91  331.6691
  92  250.5175
  93  315.7062
  94  336.5616
  95  260.052
  96  218.2309
  97  346.0398
  98  515.5549
  99  523.04
 100  373.7556
 101  220.7375
 102  283.8101
 103  295.3168
 104  242.1057
 105  328.1544
 106  488.365
 107  363.5651
 108  280.3958
 109  301.1321
 110  235.6574
 111  414.4149
 112  321.4102
 113  309.4258
 114  456.4574
 115  567.3598
 116  313.2086
 117  142.7031
 118  337.2038
 119  390.034
 120  464.6822
 121  473.1301
 122  518.1563
 123  500.1388
 124  416.7802
 125  367.2031
 126  403.2712
 127  591.9394
 128  584.9951
 129  435.7134
 130  552.2938
 131  680.8227
 132  745.8148
 133  889.6934
 134  1008.136
 135  877.0089
 136  845.2482
 137  658.2972
 138  486.3124
 139  551.889
 140  533.8129
 141  451.9451
 142  282.2319
 143  307.2731
 144  488.5296
 145  500.2313
 146  474.5486
 147  381.5888
 148  464.911
 149  441.7655
 150  357.4232
 151  292.7224
 152  317.9723
 153  340.3522
 154  473.8239
 155  471.6505
 156  459.6322
 157  362.2992
 158  341.3929
 159  416.329
 160  497.0409
 161  524.5598
 162  377.0876
 163  473.7882
 164  584.4109
 165  458.1081
 166  373.5613
 167  329.6149
 168  336.375
 169  397.7046
 170  375.5616
 171  330.5329
 172  527.3362
 173  503.4815
 174  433.2729
 175  320.6581
 176  199.3958
 177  258.0926
 178  290.5206
 179  372.7034
 180  437.1654
 181  496.9869
 182  351.9553
 183  137.057
 184  229.2755
 185  314.1004
 186  342.1886
 187  393.5161
 188  432.3188
 189  528.1674
 190  449.9008
 191  378.4834
 192  381.6081
 193  415.5055
 194  376.7551
 195  366.4995
 196  384.1327
 197  387.7804
 198  545.6611
 199  544.7853
 200  307.1012
 201  225.9608
 202  313.7184
 203  373.5471
 204  338.2551
 205  396.8891
 206  527.3243
 207  344.4619
 208  271.5966
 209  442.2955
 210  490.8596
 211  371.3993
 212  347.8678
 213  285.9574
 214  342.903
 215  316.721
 216  295.0266
 217  263.2882
 218  324.7331
 219  379.1451
 220  379.7986
 221  215.1676
 222  209.3412
 223  280.8499
 224  361.6836
 225  314.3044
 226  350.48
 227  342.5336
 228  367.7516
 229  432.7571
 230  342.0483
 231  416.1927
 232  394.5372
 233  255.3108
 234  185.4725
 235  212.6329
 236  256.9029
 237  336.378
 238  355.2684
 239  429.1703
 240  322.5214
 241  306.8631
 242  313.0631
 243  262.9351
 244  407.1193
 245  363.8739
 246  388.1656
 247  362.1252
 248  232.4064
 249  187.7623
 250  249.9454
 251  300.5877
 252  327.0745
 253  351.022
 254  359.6881
 255  354.0594
 256  469.7781
 257  424.8504
 258  284.6767
 259  264.7585
 260  299.2493
 261  353.423
 262  398.9085
 263  334.5521
 264  349.7938
 265  319.8127
 266  271.9118
 267  191.0256
 268  281.9204
 269  468.5418
 270  491.8344
 271  424.3656
 272  385.1856
 273  348.5027
 274  311.6003
 275  432.1187
 276  314.4584
 277  329.7294
 278  313.982
 279  271.9121
 280  223.1698
 281  251.1761
 282  321.7866
 283  290.0802
 284  266.8768
 285  342.7341
 286  484.6177
 287  372.4079
 288  360.0832
 289  463.6598
 290  403.9014
 291  282.7691
 292  312.1632
 293  325.4913
 294  394.9883
 295  328.4191
 296  315.5661
 297  398.3356
 298  294.4601
 299  267.3871
 300  268.3683
 301  235.3124
 302  402.8588
 303  454.7708
 304  498.5471
 305  341.5492
 306  338.4714
 307  370.4261
 308  387.3165
 309  380.2534
 310  286.7295
 311  273.7171
 312  296.0925
 313  225.9138
 314  244.639
 315  160.0121
 316  172.4421
 317  179.9465
 318  281.4314
 319  324.2018
 320  313.8655
 321  402.7916
 322  282.9898
 323  278.6183
 324  377.6649
 325  340.5345
 326  216.9308
 327  200.659
 328  246.7321
 329  326.9622
 330  379.8062
 331  278.7325
 332  94.25346
 333  43.42363
 334  220.6102
 335  332.5024
 336  318.1159
 337  388.7782
 338  368.361
 339  316.5711
 340  177.1739
 341  281.7388
 342  384.1771
 343  352.0404
 344  279.6919
 345  347.2953
 346  424.7672
 347  386.226
 348  360.5533
 349  358.8156
 350  198.7685
 351  150.2453
 352  257.4186
 353  335.9848
 354  395.4686
 355  428.2885
 356  274.5008
 357  267.6192
 358  199.2685
 359  267.4292
 360  184.9424
 361  110.3537
 362  190.2082
 363  294.7585
 364  272.7241
 365  209.7986
 366  99.80003
 367  150.94
 368  266.5347
 369  301.1951
 370  432.0922
 371  413.3678
 372  181.0444
 373  225.2543
 374  227.8782
 375  154.889
 376  224.829
 377  296.7365
 378  253.2172
 379  247.8134
 380  272.4084
 381  211.7183
 382  145.432
 383  215.3234
 384  220.632
 385  168.6891
 386  348.2874
 387  384.6811
 388  294.967
 389  176.5065
 390  264.2802
 391  215.1654
 392  306.4454
 393  300.4815
 394  242.9717
 395  302.5682
 396  216.9646
 397  232.1365
 398  312.9282
 399  271.9617
 400  159.9061
 401  173.009
 402  329.0411
 403  336.8534
 404  326.3372
 405  145.3572
 406  151.4142
 407  191.1134
 408  315.2623
 409  146.556
 410  159.4191
 411  191.1828
 412  262.0744
 413  194.0134
 414  158.8978
 415  158.9704
 416  205.0245
 417  226.3699
 418  290.2077
 419  297.7982
 420  296.1064
 421  318.7159
 422  319.9206
 423  297.1023
 424  154.4469
 425  179.8559
 426  205.5809
 427  344.9996
 428  333.2551
 429  351.165
 430  387.4001
 431  317.3228
 432  172.8472
 433  211.7387
 434  503.2953
 435  347.2141
 436  342.3901
 437  335.8193
 438  170.1987
 439  164.5167
 440  228.3498
 441  238.0102
 442  248.702
 443  298.2519
 444  193.2298
 445  272.5894
 446  332.8881
 447  280.3643
 448  205.7753
 449  340.6525
 450  284.8806
 451  212.0536
 452  306.3046
 453  362.6604
 454  241.2354
 455  184.8091
 456  246.4622
 457  263.943
 458  294.1856
 459  317.0721
 460  223.646
 461  227.482
 462  158.8027
 463  108.9586
 464  167.324
 465  101.3464
 466  248.6174
 467  316.5111
 468  232.9133
 469  205.6689
 470  472.1086
 471  319.6409
 472  166.4479
 473  191.9774
 474  359.2974
 475  309.1285
 476  273.3118
 477  164.844
 478  239.2186
 479  236.9595
 480  191.9794
 481  139.3033
 482  76.6356
 483  93.94355
 484  96.16309
 485  222.8445
 486  287.7133
 487  204.432
 488  177.3318
 489  176.5396
 490  314.0724
 491  230.3071
 492  246.7586
 493  190.9897
 494  227.4806
 495  273.039
 496  127.6345
 497  138.5381
 498  369.6878
 499  281.4072
 500  143.9002
 501  297.5448
 502  406.9741
 503  416.7505
 504  485.5355
 505  343.9736
 506  443.156
 507  438.393
 508  357.7198
 509  298.3027
 510  184.8536
 511  304.8965
