# Input file       =  1204635104.108858_cleaned.dat
# Candidate        =  PSR_0332+5434
# Telescope        =  AR
# Epoch_topo       =  58186.536147093262
# Epoch_bary       =  N/A
# T_sample         =  0.002
# Data Folded      =  7340032
# Data Avg         =  0.0111837427877216
# Data StdDev      =  1.00023133338244 
# Profile Bins     =  512
# Profile Avg      =  159.669014381869 
# Profile StdDev   =  119.760734625061 
# Reduced chi-sqr  =  1.023
# Prob(Noise)      <  0.347   (~0.4 sigma)
# P_topo (ms)      =  714.579136308872  +/- 0.000476
# P'_topo (s/s)    =  -0                +/- 2.51e-10
# P''_topo (s/s^2) =  0                 +/- 1.11e-13
# P_bary (ms)      =  N/A
# P'_bary (s/s)    =  N/A
# P''_bary (s/s^2) =  N/A
# P_orb (s)        =  N/A
# asin(i)/c (s)    =  N/A
# eccentricity     =  N/A
# w (rad)          =  N/A
# T_peri           =  N/A
######################################################
   0  197.9584
   1  89.54462
   2  58.61804
   3  47.10781
   4  -1.35464
   5  69.96701
   6  67.11971
   7  113.3701
   8  129.4425
   9  99.07989
  10  182.6007
  11  107.9733
  12  144.2834
  13  152.4321
  14  209.2496
  15  201.7829
  16  208.3991
  17  120.3864
  18  139.058
  19  156.3866
  20  125.2508
  21  147.3503
  22  174.7698
  23  233.2742
  24  189.5084
  25  182.4785
  26  132.7297
  27  148.4172
  28  233.0697
  29  202.9917
  30  158.8812
  31  117.3063
  32  99.38247
  33  73.23367
  34  76.26597
  35  61.22059
  36  81.57522
  37  63.39024
  38  28.695
  39  44.49098
  40  -15.60066
  41  44.55916
  42  130.3175
  43  21.07262
  44  22.73668
  45  155.048
  46  124.5364
  47  113.9736
  48  151.1738
  49  185.9629
  50  160.4496
  51  172.4275
  52  162.8956
  53  105.1044
  54  143.8316
  55  160.003
  56  148.6797
  57  238.5575
  58  235.5155
  59  174.2011
  60  152.48
  61  146.6102
  62  119.07
  63  6.421818
  64  77.97801
  65  128.955
  66  187.4695
  67  227.6691
  68  196.8929
  69  234.633
  70  216.0542
  71  222.9052
  72  240.7398
  73  189.446
  74  203.1856
  75  160.3725
  76  126.3144
  77  249.9778
  78  212.0519
  79  131.3963
  80  146.1601
  81  151.6842
  82  156.2295
  83  175.1443
  84  113.7525
  85  66.31333
  86  63.71311
  87  183.2627
  88  157.72
  89  145.2251
  90  201.5702
  91  170.1323
  92  132.3102
  93  160.053
  94  159.6943
  95  173.1287
  96  233.9865
  97  245.4108
  98  257.2768
  99  322.4868
 100  205.901
 101  146.111
 102  142.1
 103  203.4505
 104  184.5502
 105  143.7825
 106  188.1487
 107  225.0741
 108  184.1129
 109  105.3049
 110  77.43605
 111  133.4956
 112  125.9266
 113  54.15477
 114  90.61809
 115  77.73536
 116  40.05898
 117  101.4709
 118  201.4054
 119  221.0367
 120  216.1341
 121  199.577
 122  169.8803
 123  115.3516
 124  129.3381
 125  153.1465
 126  195.4947
 127  223.1609
 128  183.9949
 129  204.635
 130  127.7943
 131  135.5766
 132  112.9208
 133  115.3528
 134  183.0449
 135  247.8434
 136  242.1481
 137  167.4529
 138  211.0537
 139  267.9511
 140  225.8321
 141  128.5601
 142  210.7449
 143  120.2753
 144  105.6387
 145  90.68376
 146  151.9833
 147  212.7878
 148  122.9859
 149  150.3232
 150  236.5029
 151  270.0193
 152  255.6306
 153  216.0363
 154  301.6353
 155  286.8996
 156  169.3329
 157  171.5553
 158  183.9293
 159  240.4783
 160  288.8952
 161  237.5738
 162  161.0976
 163  143.848
 164  143.7809
 165  126.3576
 166  87.88416
 167  131.7147
 168  100.7888
 169  104.5966
 170  87.06309
 171  56.12206
 172  132.7424
 173  205.2708
 174  135.516
 175  118.0798
 176  191.8318
 177  209.7764
 178  108.2657
 179  39.79872
 180  87.75796
 181  208.034
 182  238.9101
 183  169.56
 184  133.1718
 185  191.594
 186  122.8381
 187  236.5502
 188  181.9021
 189  149.7509
 190  173.1423
 191  169.5983
 192  212.1076
 193  257.5416
 194  187.1379
 195  142.8148
 196  107.2096
 197  69.58643
 198  70.08034
 199  164.9362
 200  200.726
 201  167.4992
 202  148.8991
 203  101.5475
 204  177.1535
 205  152.2185
 206  185.5718
 207  239.5984
 208  181.3125
 209  142.7204
 210  137.8144
 211  186.028
 212  175.6192
 213  212.8619
 214  199.395
 215  249.5847
 216  199.979
 217  235.005
 218  190.4191
 219  114.6251
 220  140.673
 221  196.9179
 222  245.5992
 223  125.5306
 224  67.60188
 225  153.8309
 226  237.3762
 227  225.9528
 228  291.4862
 229  264.3548
 230  221.5233
 231  197.7566
 232  194.2307
 233  222.4881
 234  269.0628
 235  234.5928
 236  279.3059
 237  188.0627
 238  147.8708
 239  157.5777
 240  130.5111
 241  128.7129
 242  153.6879
 243  143.7652
 244  221.1859
 245  177.486
 246  178.3678
 247  189.141
 248  119.4773
 249  57.20681
 250  104.756
 251  146.3706
 252  176.9894
 253  194.9309
 254  129.2952
 255  56.57589
 256  38.48273
 257  177.6881
 258  189.1218
 259  156.7789
 260  211.0805
 261  250.5611
 262  282.5364
 263  270.4135
 264  180.92
 265  236.2394
 266  204.098
 267  163.8457
 268  189.7548
 269  155.8565
 270  146.2192
 271  136.1241
 272  206.0589
 273  256.82
 274  209.8554
 275  157.1603
 276  100.707
 277  73.62567
 278  89.01257
 279  205.7379
 280  192.4821
 281  131.7019
 282  101.3151
 283  65.81139
 284  91.9213
 285  108.7128
 286  143.0103
 287  123.5656
 288  103.971
 289  124.128
 290  68.35669
 291  55.81191
 292  98.25472
 293  94.81362
 294  35.55785
 295  14.25113
 296  60.50242
 297  27.96115
 298  -55.96775
 299  -96.85577
 300  46.24094
 301  122.6485
 302  77.36874
 303  33.72176
 304  28.53464
 305  71.84346
 306  -2.636403
 307  -115.3444
 308  13.50633
 309  -24.97912
 310  28.21103
 311  133.5506
 312  54.17913
 313  72.82835
 314  36.26892
 315  38.40761
 316  27.83333
 317  -42.79551
 318  14.7039
 319  111.7556
 320  -33.91819
 321  -12.20426
 322  22.94422
 323  29.7657
 324  38.59675
 325  52.75279
 326  65.8079
 327  35.66562
 328  -26.72731
 329  50.49938
 330  17.73639
 331  21.36981
 332  161.3118
 333  146.1327
 334  90.4447
 335  35.82953
 336  56.94965
 337  151.4952
 338  147.6481
 339  80.87982
 340  115.4238
 341  191.4016
 342  239.0295
 343  185.3145
 344  232.8371
 345  164.6371
 346  113.3162
 347  164.5765
 348  159.6277
 349  184.8735
 350  193.4499
 351  220.9488
 352  177.7992
 353  116.0519
 354  126.5856
 355  67.825
 356  88.63412
 357  202.3792
 358  167.0175
 359  27.53719
 360  82.41186
 361  97.3485
 362  62.53156
 363  134.7718
 364  106.288
 365  165.9384
 366  246.0286
 367  268.5482
 368  194.4902
 369  136.8902
 370  148.4137
 371  153.9894
 372  237.2975
 373  259.7182
 374  97.45541
 375  134.5539
 376  148.2139
 377  42.087
 378  5.871824
 379  71.35849
 380  136.7545
 381  143.1444
 382  70.60832
 383  59.15818
 384  39.3182
 385  41.23354
 386  62.94468
 387  74.94045
 388  118.3981
 389  84.20863
 390  138.9508
 391  152.8273
 392  108.4012
 393  120.9953
 394  114.6334
 395  97.37542
 396  89.25858
 397  162.5816
 398  226.602
 399  124.8407
 400  122.3322
 401  179.2019
 402  261.4837
 403  263.8049
 404  277.7777
 405  262.1497
 406  244.6649
 407  188.2779
 408  126.8583
 409  83.77862
 410  21.88553
 411  129.5138
 412  141.9404
 413  172.7295
 414  119.2605
 415  74.4446
 416  79.39025
 417  118.8801
 418  114.4645
 419  116.3002
 420  153.6467
 421  94.61107
 422  109.1104
 423  226.2976
 424  117.3841
 425  204.8425
 426  237.7533
 427  247.829
 428  203.8723
 429  200.3733
 430  213.4686
 431  236.932
 432  256.9498
 433  228.9327
 434  221.6028
 435  228.7069
 436  203.5139
 437  213.84
 438  263.3325
 439  134.834
 440  190.8259
 441  242.6615
 442  210.9076
 443  144.7922
 444  331.3276
 445  398.0843
 446  362.6544
 447  296.1584
 448  329.9287
 449  463.6727
 450  630.0933
 451  614.6738
 452  515.7397
 453  438.6039
 454  353.6312
 455  335.2238
 456  331.3116
 457  311.572
 458  377.8221
 459  320.4366
 460  297.1012
 461  300.6441
 462  299.286
 463  277.6178
 464  278.3702
 465  256.7363
 466  303.5918
 467  367.3105
 468  342.8687
 469  378.4801
 470  325.6544
 471  248.9146
 472  174.4095
 473  247.016
 474  289.0552
 475  274.6585
 476  258.3024
 477  347.9688
 478  290.6864
 479  178.003
 480  224.3566
 481  245.0284
 482  242.826
 483  228.6158
 484  228.6139
 485  201.7339
 486  171.0972
 487  137.8297
 488  166.1897
 489  264.8539
 490  216.1967
 491  165.4697
 492  119.715
 493  157.8559
 494  168.0255
 495  87.70886
 496  172.4998
 497  136.7766
 498  97.81492
 499  125.9032
 500  183.7435
 501  106.8747
 502  115.2662
 503  136.3015
 504  194.8676
 505  168.3047
 506  192.4587
 507  203.0554
 508  30.41404
 509  1.224449
 510  25.70608
 511  153.3249
