# Input file       =  1204047531.110057_cleaned.dat
# Candidate        =  PSR_0332+5434
# Telescope        =  AR
# Epoch_topo       =  58179.735533681218
# Epoch_bary       =  N/A
# T_sample         =  0.002
# Data Folded      =  7340032
# Data Avg         =  0.143956726815045
# Data StdDev      =  5.35435477284368 
# Profile Bins     =  512
# Profile Avg      =  2063.7985396415  
# Profile StdDev   =  641.093154791004 
# Reduced chi-sqr  =  0.520
# Prob(Noise)      <  1   (~0.0 sigma)
# P_topo (ms)      =  714.580675378422  +/- 0.000343
# P'_topo (s/s)    =  -0                +/- 1.81e-10
# P''_topo (s/s^2) =  0                 +/- 8e-14
# P_bary (ms)      =  N/A
# P'_bary (s/s)    =  N/A
# P''_bary (s/s^2) =  N/A
# P_orb (s)        =  N/A
# asin(i)/c (s)    =  N/A
# eccentricity     =  N/A
# w (rad)          =  N/A
# T_peri           =  N/A
######################################################
   0  1830.093
   1  1759.768
   2  1710.696
   3  2120.621
   4  2247.588
   5  2244.528
   6  2203.656
   7  2222.787
   8  2139.55
   9  2043.241
  10  2037.87
  11  2252.062
  12  2296.164
  13  2131.826
  14  2293.526
  15  1926.374
  16  1855.999
  17  1682.401
  18  1642.885
  19  2031.977
  20  1992.34
  21  1985.534
  22  2028.371
  23  1915.967
  24  1803.971
  25  1710.251
  26  2037.254
  27  2372.1
  28  1984.158
  29  1795.602
  30  2151.588
  31  2199.554
  32  2522.371
  33  2313.239
  34  1954.297
  35  1855.762
  36  2138.931
  37  2261.287
  38  2008.091
  39  2053.051
  40  1999.963
  41  1627.05
  42  1689.813
  43  1793.601
  44  1990.275
  45  1864.802
  46  1882.873
  47  1805.19
  48  1702.045
  49  1407.597
  50  1970.046
  51  2119.871
  52  2390.245
  53  2349.427
  54  2528.785
  55  2006.92
  56  2052.009
  57  2320.926
  58  1969.848
  59  1665.086
  60  2126.618
  61  2248.819
  62  2163.76
  63  2060.829
  64  1693.805
  65  1919.705
  66  1883.529
  67  2072.75
  68  2053.875
  69  2474.956
  70  2572.381
  71  2110.851
  72  2018.232
  73  2323.207
  74  1979.077
  75  2154.837
  76  2277.922
  77  2011.778
  78  1811.757
  79  2040.5
  80  1895.588
  81  1614.287
  82  2281.7
  83  2435.993
  84  2238.697
  85  2215.22
  86  2026.201
  87  2150.843
  88  2035.172
  89  2794.633
  90  2562.085
  91  2195.001
  92  2115.469
  93  1726.289
  94  1679.602
  95  1599.368
  96  1910.517
  97  1612
  98  1874.263
  99  1896.758
 100  1901.68
 101  1962.775
 102  2125.304
 103  1920.474
 104  2053.19
 105  2241.182
 106  2052.797
 107  1805.643
 108  1568.054
 109  1727.163
 110  1850.936
 111  1433.935
 112  1662.987
 113  2044.436
 114  1778.366
 115  1763.131
 116  2098.863
 117  2265.104
 118  2153.658
 119  2266.962
 120  2057.922
 121  2406.307
 122  2661.594
 123  2026.974
 124  2250.969
 125  2219.234
 126  2327.233
 127  2366.315
 128  2271.842
 129  2118.611
 130  2026.415
 131  1782.533
 132  2039.896
 133  2057.221
 134  2306.482
 135  1944.658
 136  1805.62
 137  1949.157
 138  1831.344
 139  2281.293
 140  2514.45
 141  2118.306
 142  1946.178
 143  2238.653
 144  2141.382
 145  2468.808
 146  1934.222
 147  2181.011
 148  2171.665
 149  2013.229
 150  2033.125
 151  1961.221
 152  2050.378
 153  2053.059
 154  2228.242
 155  2202.308
 156  2146.776
 157  2033.855
 158  2273.515
 159  1680.861
 160  1891.932
 161  2003.619
 162  2094.481
 163  2201.044
 164  1957.492
 165  1894.122
 166  1824.349
 167  1491.182
 168  1931.34
 169  1891.381
 170  1888.033
 171  1763.96
 172  1998.062
 173  1964.665
 174  2077.706
 175  2001.373
 176  2313.308
 177  2235.292
 178  1721.314
 179  1616.233
 180  1742.002
 181  1634.254
 182  1476.844
 183  1620.572
 184  1794.995
 185  1692.742
 186  1757.469
 187  1439.873
 188  1700.528
 189  1780.675
 190  2381.14
 191  2360.199
 192  2353.17
 193  2173.634
 194  2291.579
 195  2050.543
 196  2057.439
 197  2252.53
 198  2325.775
 199  2126.655
 200  2270.527
 201  2358.284
 202  1959.538
 203  1994.551
 204  1990.208
 205  2379.962
 206  2457.232
 207  2463.633
 208  2255.989
 209  2161.174
 210  2228.389
 211  2287.187
 212  2150.375
 213  2333.538
 214  2496.001
 215  2000.448
 216  2100.162
 217  2521.94
 218  2958.743
 219  2770.836
 220  2260.54
 221  2511.695
 222  2293.329
 223  1760.156
 224  1740.321
 225  1990.225
 226  1879.641
 227  1851.112
 228  2096.144
 229  2450.041
 230  2642.906
 231  2572.076
 232  2559.135
 233  2601.623
 234  2690.912
 235  2329.745
 236  2440.468
 237  2674.83
 238  2531.509
 239  2453.645
 240  2298.198
 241  2380.947
 242  2094.975
 243  2145.209
 244  2212.356
 245  2317.735
 246  2180.159
 247  2296.104
 248  2228.113
 249  2326.675
 250  2262.234
 251  2325.451
 252  1875.286
 253  1837.727
 254  1953.827
 255  2088.506
 256  2200.826
 257  2273.344
 258  2371.198
 259  2021.315
 260  2233.558
 261  2141.809
 262  2004.652
 263  2240.108
 264  2657.259
 265  2727.962
 266  2538.246
 267  2280.01
 268  2390.715
 269  2799.94
 270  2398.764
 271  2016.769
 272  2114.362
 273  1964.776
 274  1605.49
 275  1524.12
 276  1845.913
 277  2088.248
 278  1944.915
 279  1924.601
 280  1380.986
 281  1154.481
 282  1662.995
 283  2194.148
 284  2233.588
 285  2385.36
 286  2191.229
 287  2019.319
 288  2028.788
 289  2273.962
 290  2495.076
 291  2289.787
 292  2025.51
 293  2027.643
 294  2329.095
 295  2599.013
 296  2572.815
 297  2555.786
 298  2487.709
 299  2524.261
 300  2478.012
 301  2526.886
 302  2764.363
 303  3148.343
 304  2830.365
 305  3254.565
 306  3164.781
 307  2594.621
 308  2144.318
 309  2403.712
 310  2051.796
 311  1923.287
 312  1688.033
 313  1676.161
 314  1756.895
 315  1845.99
 316  1873.846
 317  1742.037
 318  2065.669
 319  2132.438
 320  2057.52
 321  1669.507
 322  1614.854
 323  1677.865
 324  2237.153
 325  2046.654
 326  1858.752
 327  2053.7
 328  1815.056
 329  1971.822
 330  1921.562
 331  1680.315
 332  2062.559
 333  2428.6
 334  2281.052
 335  2058.983
 336  2372.149
 337  2296.429
 338  2235.377
 339  2204.7
 340  2103.392
 341  1810.371
 342  1876.592
 343  1763.145
 344  1665.671
 345  1783.476
 346  1827.854
 347  2071.98
 348  1957.27
 349  1846.15
 350  2382.293
 351  2397.397
 352  2325.693
 353  1981.297
 354  1944.912
 355  2021.942
 356  1964.193
 357  1985.025
 358  1990.438
 359  2002.842
 360  1809.75
 361  1856.399
 362  2015.58
 363  1958.147
 364  2102.864
 365  2437.379
 366  2659.614
 367  1988.789
 368  1904.648
 369  2270.951
 370  1925.292
 371  2315.795
 372  2673.927
 373  2410.385
 374  2549.14
 375  2611.016
 376  2639.817
 377  2730.599
 378  2541.994
 379  2741.001
 380  2645.63
 381  2854.579
 382  3080.169
 383  2829.031
 384  2583.524
 385  2254.816
 386  1950.53
 387  2181.5
 388  2150.051
 389  2249.356
 390  2218.385
 391  1755.541
 392  1777.736
 393  1801.536
 394  1500.018
 395  1830.28
 396  2024.531
 397  1883.82
 398  1545.042
 399  2053.203
 400  2120.219
 401  1625.656
 402  1586.1
 403  2077.349
 404  2608.77
 405  2304.96
 406  2265.237
 407  2620.638
 408  2489.946
 409  2391.76
 410  2146.529
 411  2274.062
 412  2335.735
 413  2427.306
 414  1975.725
 415  1788.591
 416  1768.059
 417  1814.902
 418  1833.404
 419  2041.559
 420  1765.36
 421  1591.121
 422  2039.979
 423  2158.68
 424  2092.928
 425  2256.959
 426  2339.177
 427  2197.863
 428  2763.602
 429  2786.128
 430  2460.897
 431  2560.27
 432  1984.57
 433  1548.952
 434  1582.534
 435  1662.885
 436  1918.998
 437  1806.881
 438  1680.14
 439  1338.485
 440  1350.907
 441  1690.882
 442  1839.061
 443  1576.335
 444  1504.843
 445  1679.645
 446  1910.933
 447  2036.705
 448  2226.416
 449  2199.871
 450  2684.646
 451  2715.134
 452  2306.122
 453  2351.529
 454  1932.357
 455  1888.127
 456  1800.803
 457  2025.911
 458  1913.827
 459  1809.505
 460  1762.447
 461  1474.328
 462  1676.655
 463  1974.04
 464  1518.546
 465  1347.383
 466  1519.029
 467  1762.85
 468  1592.226
 469  1830.881
 470  1813.189
 471  1641.722
 472  1656.086
 473  1631.671
 474  1852.095
 475  1970.909
 476  2021.901
 477  2097.711
 478  1872.394
 479  1664.617
 480  1365.055
 481  1449.615
 482  1276.263
 483  1516.82
 484  1535.796
 485  1671.95
 486  1205.996
 487  1185.021
 488  1458.317
 489  1744.66
 490  1825.809
 491  1659.957
 492  1391.648
 493  1592.265
 494  1908.916
 495  1600.981
 496  1974.016
 497  2249.109
 498  2202.225
 499  1831.13
 500  1772.094
 501  1618.496
 502  1930.285
 503  2263.181
 504  2285.01
 505  2357.719
 506  1705.626
 507  1754.357
 508  1512.412
 509  1562.977
 510  2075.823
 511  2040.843
