# Input file       =  1204397746.104123_cleaned.dat
# Candidate        =  PSR_0332+5434
# Telescope        =  AR
# Epoch_topo       =  58183.788947964385
# Epoch_bary       =  N/A
# T_sample         =  0.002
# Data Folded      =  7340032
# Data Avg         =  0.065828361495473
# Data StdDev      =  2.97098496776293 
# Profile Bins     =  256
# Profile Avg      =  1887.66115304225 
# Profile StdDev   =  503.071191911166 
# Reduced chi-sqr  =  1.323
# Prob(Noise)      <  0.000414   (~3.3 sigma)
# P_topo (ms)      =  714.580199712682  +/- 0.000486
# P'_topo (s/s)    =  -0                +/- 2.56e-10
# P''_topo (s/s^2) =  0                 +/- 1.13e-13
# P_bary (ms)      =  N/A
# P'_bary (s/s)    =  N/A
# P''_bary (s/s^2) =  N/A
# P_orb (s)        =  N/A
# asin(i)/c (s)    =  N/A
# eccentricity     =  N/A
# w (rad)          =  N/A
# T_peri           =  N/A
######################################################
   0  2657.39
   1  2171.066
   2  1946.265
   3  1858.12
   4  1850.162
   5  1866.234
   6  2628.115
   7  2270.734
   8  3023.375
   9  2094.788
  10  1717.488
  11  1766.976
  12  2247.507
  13  1983.078
  14  1247.956
  15  1665.035
  16  2002.211
  17  1740.584
  18  1663.861
  19  1535.091
  20  2100.213
  21  2155.684
  22  1957.16
  23  2031.888
  24  1552.648
  25  2032.352
  26  1214.444
  27  1024.745
  28  1631.14
  29  1823.876
  30  2016.377
  31  2155.12
  32  1907.959
  33  2366.782
  34  1603.735
  35  1615.396
  36  2200.893
  37  1617.416
  38  2146.658
  39  2652.976
  40  2053.858
  41  2167.09
  42  2234.874
  43  2992.407
  44  2800.716
  45  2396.598
  46  2284.104
  47  2478.958
  48  1859.009
  49  1659.585
  50  1750.322
  51  1275.304
  52  1672.437
  53  2006.428
  54  1980.755
  55  1838.693
  56  2141.45
  57  2143.419
  58  1536.804
  59  1457.126
  60  2118.034
  61  2138.454
  62  1418.288
  63  1407.068
  64  1445.399
  65  1769.297
  66  1762.705
  67  1201.02
  68  1924.206
  69  1068.44
  70  1768.916
  71  1795.489
  72  1661.437
  73  1621.773
  74  1420.331
  75  2326.623
  76  2172.995
  77  2000.352
  78  1444.322
  79  1911.086
  80  1967.821
  81  1888.441
  82  1625.44
  83  1718.033
  84  2168.567
  85  1796.384
  86  1828.56
  87  2211.619
  88  1802.657
  89  2014.865
  90  1992.297
  91  2157.307
  92  1853.156
  93  1944.388
  94  1899.081
  95  2001.987
  96  1628.128
  97  1079.82
  98  1233.184
  99  1338.398
 100  1219.355
 101  1467.821
 102  1825.832
 103  2241.893
 104  1614.259
 105  1687.956
 106  1811.92
 107  1459.61
 108  2153.295
 109  1097.412
 110  1543.001
 111  1119.16
 112  1237.605
 113  1919.013
 114  2176.066
 115  1149.281
 116  1515.109
 117  1781.68
 118  1351.582
 119  1982.174
 120  1707.832
 121  1535.958
 122  1737.774
 123  1431.752
 124  2189.885
 125  1056.481
 126  1837.263
 127  896.1685
 128  2142.323
 129  2089.179
 130  1986.057
 131  2026.173
 132  1825.162
 133  1933.744
 134  1807.114
 135  1890.504
 136  2376.438
 137  1527.664
 138  1299.263
 139  2034.335
 140  797.9346
 141  1271.235
 142  2094.256
 143  1653.6
 144  1362.318
 145  1639.868
 146  1833.593
 147  2262.71
 148  2112.162
 149  2404.69
 150  2872.189
 151  4579.577
 152  5002.644
 153  4488.434
 154  2149.898
 155  1732.795
 156  2085.69
 157  2574.383
 158  1874.443
 159  2236.384
 160  1489.683
 161  1745.991
 162  1506.834
 163  1549.521
 164  1512.817
 165  1339.149
 166  1520.186
 167  1318.135
 168  2030.471
 169  1802.716
 170  936.9398
 171  1616.315
 172  1969.204
 173  1662.266
 174  1873.36
 175  1914.967
 176  2490.323
 177  2057.2
 178  2268.992
 179  2366.061
 180  2613.36
 181  2227.88
 182  2532.345
 183  2167.062
 184  2154.901
 185  1581.166
 186  1733.678
 187  2275.057
 188  998.8618
 189  1850.374
 190  1362.525
 191  1703.076
 192  1471.834
 193  1590.845
 194  1741.54
 195  2080.151
 196  2599.042
 197  1915.98
 198  1600.455
 199  1805.946
 200  1924.581
 201  1798.363
 202  1619.448
 203  1842.266
 204  2210.47
 205  2441.788
 206  1856.456
 207  2337.88
 208  2387.461
 209  2201.754
 210  1569.657
 211  1830.599
 212  2051.219
 213  2197.342
 214  1325.95
 215  2175.192
 216  1985.938
 217  2409.6
 218  1069.271
 219  1647.487
 220  1772.409
 221  1780.194
 222  1964.352
 223  1570.688
 224  1727.22
 225  1477.845
 226  2432.536
 227  1706.34
 228  989.0289
 229  2081.957
 230  1994.263
 231  1863.569
 232  1783.697
 233  1629.851
 234  1633.566
 235  1310.96
 236  1909.973
 237  1442.518
 238  1557.752
 239  2377.656
 240  2084.073
 241  1268.792
 242  1939.019
 243  1724.945
 244  2085.041
 245  1735.822
 246  1791.183
 247  2115.502
 248  2072.27
 249  2513.132
 250  2071.492
 251  1561.269
 252  2769.389
 253  2535.446
 254  2080.281
 255  2313.591
