# Input file       =  1204462849.099223_cleaned.dat
# Candidate        =  PSR_0332+5434
# Telescope        =  AR
# Epoch_topo       =  58184.542454852119
# Epoch_bary       =  N/A
# T_sample         =  0.002
# Data Folded      =  7340032
# Data Avg         =  0.0215681581983917
# Data StdDev      =  1.00005775088143 
# Profile Bins     =  512
# Profile Avg      =  309.103121886201 
# Profile StdDev   =  119.739951065154 
# Reduced chi-sqr  =  1.126
# Prob(Noise)      <  0.0255   (~2.0 sigma)
# P_topo (ms)      =  714.579566968111  +/- 0.000628
# P'_topo (s/s)    =  -0                +/- 3.31e-10
# P''_topo (s/s^2) =  0                 +/- 1.46e-13
# P_bary (ms)      =  N/A
# P'_bary (s/s)    =  N/A
# P''_bary (s/s^2) =  N/A
# P_orb (s)        =  N/A
# asin(i)/c (s)    =  N/A
# eccentricity     =  N/A
# w (rad)          =  N/A
# T_peri           =  N/A
######################################################
   0  740.5742
   1  631.2158
   2  604.9614
   3  519.0365
   4  400.7696
   5  373.9361
   6  386.1943
   7  378.6884
   8  365.8137
   9  324.4119
  10  370.0306
  11  385.1664
  12  330.4717
  13  451.9449
  14  425.9969
  15  308.0701
  16  270.6191
  17  256.51
  18  279.2321
  19  238.5728
  20  183.8247
  21  202.3011
  22  198.0318
  23  178.0823
  24  246.9133
  25  165.0764
  26  231.5602
  27  257.9582
  28  179.3782
  29  196.1541
  30  152.4643
  31  184.4062
  32  176.9399
  33  178.742
  34  234.388
  35  280.383
  36  160.4457
  37  101.9065
  38  144.5889
  39  143.1696
  40  216.4199
  41  198.7701
  42  128.3528
  43  146.8255
  44  205.1629
  45  228.7247
  46  237.8292
  47  159.8541
  48  156.1457
  49  188.6159
  50  146.7762
  51  200.5374
  52  154.247
  53  90.84014
  54  186.1427
  55  264.5536
  56  252.5594
  57  171.5159
  58  144.4558
  59  180.0196
  60  211.8752
  61  284.5994
  62  268.0789
  63  248.9905
  64  331.7304
  65  336.1572
  66  257.2464
  67  221.4072
  68  244.261
  69  249.4536
  70  232.4134
  71  198.4051
  72  221.5062
  73  174.6288
  74  162.3286
  75  217.1229
  76  218.9286
  77  247.9713
  78  308.6982
  79  254.0115
  80  166.7782
  81  182.2384
  82  263.1492
  83  286.4422
  84  290.6517
  85  333.9977
  86  314.0915
  87  279.1594
  88  271.9446
  89  289.4785
  90  259.8944
  91  246.6786
  92  295.6334
  93  300.4709
  94  277.3973
  95  248.6023
  96  230.6015
  97  210.3608
  98  197.1667
  99  162.4019
 100  193.9161
 101  268.417
 102  278.0449
 103  242.3257
 104  242.6001
 105  175.2229
 106  334.0139
 107  361.3525
 108  277.3028
 109  279.4551
 110  271.1748
 111  331.8615
 112  275.7753
 113  239.1464
 114  183.0982
 115  258.7738
 116  325.843
 117  217.61
 118  178.5981
 119  167.9167
 120  173.4942
 121  219.3626
 122  183.0795
 123  191.458
 124  280.4883
 125  219.8401
 126  177.6539
 127  217.2424
 128  233.3302
 129  239.5294
 130  233.4277
 131  226.9266
 132  144.2237
 133  245.4691
 134  300.6985
 135  227.5085
 136  205.846
 137  199.8062
 138  185.847
 139  195.6204
 140  180.9024
 141  198.9952
 142  253.5883
 143  193.2926
 144  183.6619
 145  250.9874
 146  270.4358
 147  279.2105
 148  265.2018
 149  248.9541
 150  257.7061
 151  313.5197
 152  299.9038
 153  358.0275
 154  354.2463
 155  400.2507
 156  412.9899
 157  393.9075
 158  340.3268
 159  336.3235
 160  381.8928
 161  337.7086
 162  362.4965
 163  345.0409
 164  351.842
 165  377.1364
 166  412.6049
 167  383.3262
 168  339.4862
 169  315.4094
 170  317.2003
 171  290.7738
 172  336.5664
 173  387.3954
 174  357.6102
 175  338.8863
 176  344.7596
 177  330.0609
 178  317.6502
 179  290.7756
 180  402.8486
 181  394.5156
 182  294.7929
 183  287.3416
 184  275.4714
 185  338.0074
 186  304.0095
 187  232.2444
 188  227.4095
 189  278.8551
 190  263.4752
 191  274.5328
 192  254.2671
 193  243.4454
 194  307.533
 195  325.1271
 196  266.4243
 197  241.5433
 198  275.6259
 199  220.0322
 200  223.0208
 201  247.5046
 202  246.765
 203  248.7399
 204  264.9919
 205  188.6235
 206  224.7712
 207  248.386
 208  162.0946
 209  195.4895
 210  251.5847
 211  217.8786
 212  217.5155
 213  216.9137
 214  206.4826
 215  218.6107
 216  163.8355
 217  221.372
 218  210.0895
 219  208.4471
 220  252.0284
 221  219.5433
 222  210.8338
 223  258.7601
 224  261.9113
 225  308.7598
 226  309.2335
 227  305.2151
 228  312.4187
 229  297.246
 230  295.196
 231  308.0922
 232  243.3244
 233  250.9276
 234  383.767
 235  323.0453
 236  266.9028
 237  279.7344
 238  329.747
 239  327.2854
 240  297.4837
 241  324.0358
 242  298.6975
 243  347.1084
 244  348.9597
 245  386.1452
 246  306.7712
 247  337.9066
 248  449.3307
 249  352.7713
 250  291.9828
 251  332.1274
 252  301.2279
 253  238.5176
 254  385.155
 255  388.8209
 256  312.0243
 257  233.8255
 258  275.8161
 259  217.7561
 260  237.5755
 261  287.2418
 262  334.7385
 263  381.1207
 264  445.8295
 265  375.2787
 266  244.0892
 267  265.8606
 268  290.0993
 269  328.5627
 270  352.1052
 271  313.926
 272  293.3483
 273  377.6948
 274  327.0567
 275  355.1518
 276  368.0326
 277  375.5325
 278  334.3158
 279  316.9484
 280  411.692
 281  498.7532
 282  516.913
 283  442.6644
 284  373.7044
 285  398.7955
 286  304.2494
 287  337.0526
 288  386.9052
 289  387.9117
 290  328.9921
 291  293.1146
 292  341.7247
 293  291.0822
 294  353.3999
 295  392.9857
 296  366.4997
 297  260.6224
 298  264.0072
 299  327.0715
 300  288.8454
 301  306.93
 302  366.403
 303  410.5204
 304  352.6009
 305  332.5659
 306  375.9726
 307  447.4615
 308  373.4449
 309  312.8127
 310  286.9813
 311  332.7358
 312  407.2332
 313  412.1556
 314  418.0552
 315  328.1211
 316  337.2567
 317  307.7023
 318  288.4391
 319  251.3345
 320  306.0983
 321  300.4876
 322  268.7153
 323  289.0502
 324  335.5506
 325  237.136
 326  213.56
 327  293.6334
 328  232.4586
 329  239.1044
 330  155.8313
 331  253.6723
 332  273.5385
 333  205.0722
 334  243.2719
 335  262.8524
 336  224.7004
 337  231.111
 338  208.8373
 339  214.078
 340  211.249
 341  196.829
 342  201.5984
 343  195.4688
 344  234.4344
 345  201.923
 346  226.3932
 347  283.1302
 348  286.7365
 349  163.7033
 350  259.1989
 351  276.5225
 352  263.0507
 353  262.4701
 354  269.2919
 355  334.9558
 356  321.035
 357  248.7544
 358  279.3054
 359  377.3725
 360  410.6444
 361  362.9343
 362  379.5014
 363  271.1544
 364  328.3493
 365  348.148
 366  349.5728
 367  286.3945
 368  271.1545
 369  344.5237
 370  368.6044
 371  411.394
 372  470.6797
 373  434.1906
 374  441.9808
 375  395.488
 376  428.2946
 377  456.3962
 378  398.5203
 379  369.8715
 380  438.6768
 381  331.794
 382  366.2357
 383  378.9909
 384  383.067
 385  335.9537
 386  376.3408
 387  450.9343
 388  437.0502
 389  415.3822
 390  375.5312
 391  399.7239
 392  365.3806
 393  411.8423
 394  376.8797
 395  372.3662
 396  368.8272
 397  413.7847
 398  379.351
 399  350.9848
 400  378.6553
 401  386.4997
 402  394.0355
 403  361.7652
 404  306.6826
 405  286.2245
 406  291.3944
 407  325.576
 408  293.6728
 409  309.5514
 410  301.0563
 411  229.4085
 412  287.2702
 413  315.1559
 414  335.2377
 415  209.1271
 416  295.2924
 417  295.8017
 418  292.2627
 419  267.1714
 420  225.092
 421  293.8331
 422  397.2034
 423  355.0451
 424  302.046
 425  302.1765
 426  298.7315
 427  382.9547
 428  388.3335
 429  269.6542
 430  293.9106
 431  350.9821
 432  352.7312
 433  334.0463
 434  299.577
 435  308.8378
 436  349.3959
 437  450.4276
 438  437.2146
 439  372.6438
 440  345.4993
 441  334.562
 442  388.0708
 443  403.2706
 444  420.1478
 445  434.9901
 446  407.8199
 447  394.488
 448  427.5573
 449  467.523
 450  388.8649
 451  370.1831
 452  408.7105
 453  326.4001
 454  306.0288
 455  386.9567
 456  438.7901
 457  475.0412
 458  497.7764
 459  509.5432
 460  450.8266
 461  407.8704
 462  530.7235
 463  489.9832
 464  426.1336
 465  408.1039
 466  419.4447
 467  417.566
 468  389.3016
 469  433.6498
 470  461.8191
 471  467.3326
 472  379.2798
 473  411.4307
 474  420.158
 475  385.7255
 476  370.0082
 477  307.2827
 478  258.5093
 479  340.7831
 480  346.967
 481  299.3195
 482  260.2867
 483  363.4247
 484  340.3203
 485  350.3939
 486  264.9701
 487  270.856
 488  317.72
 489  388.9905
 490  360.9648
 491  340.9417
 492  351.8474
 493  368.2675
 494  321.4707
 495  398.7482
 496  447.8677
 497  407.8073
 498  420.3973
 499  359.4084
 500  339.4321
 501  468.3164
 502  487.1992
 503  426.8796
 504  363.4994
 505  387.1917
 506  421.9778
 507  532.05
 508  567.152
 509  569.2188
 510  681.9913
 511  771.1428
