# Input file       =  1204534384.116725-PSRB0329-2ms-sampling-dd.dat
# Candidate        =  PSR_0332+5434
# Telescope        =  AR
# Epoch_topo       =  58185.370406443573
# Epoch_bary       =  N/A
# T_sample         =  0.002
# Data Folded      =  7471104
# Data Avg         =  6.72374838790551e-10
# Data StdDev      =  8.27491853772153 
# Profile Bins     =  512
# Profile Avg      =  0.421906703670424
# Profile StdDev   =  999.588238802404 
# Reduced chi-sqr  =  0.788
# Prob(Noise)      <  1   (~0.0 sigma)
# P_topo (ms)      =  714.579384506152  +/- 3.98e-05
# P'_topo (s/s)    =  -0                +/- 2.07e-11
# P''_topo (s/s^2) =  0                 +/- 8.96e-15
# P_bary (ms)      =  N/A
# P'_bary (s/s)    =  N/A
# P''_bary (s/s^2) =  N/A
# P_orb (s)        =  N/A
# asin(i)/c (s)    =  N/A
# eccentricity     =  N/A
# w (rad)          =  N/A
# T_peri           =  N/A
######################################################
   0  699.7704
   1  284.6839
   2  -90.56509
   3  334.5788
   4  398.7071
   5  47.31742
   6  -73.67342
   7  -138.7182
   8  -433.3244
   9  -344.2935
  10  -643.0009
  11  -345.3837
  12  578.674
  13  916.5984
  14  336.3461
  15  531.3292
  16  991.2559
  17  1748.408
  18  1436.311
  19  1299.926
  20  688.0718
  21  1154.566
  22  704.6794
  23  444.8102
  24  818.7393
  25  354.2966
  26  -16.35401
  27  -721.6842
  28  -429.4325
  29  470.4655
  30  659.6874
  31  414.2265
  32  537.1105
  33  618.7249
  34  -83.96252
  35  -398.3388
  36  -318.8213
  37  574.9863
  38  363.5176
  39  245.0178
  40  -176.9599
  41  -940.0618
  42  -953.7104
  43  -1248.884
  44  -742.8914
  45  106.4199
  46  823.6653
  47  795.6892
  48  626.3186
  49  589.2901
  50  312.9752
  51  -241.8635
  52  -468.5615
  53  -6.39894
  54  607.1405
  55  385.4191
  56  -308.2392
  57  21.1298
  58  -320.8635
  59  -1278.484
  60  -1775.187
  61  -752.7356
  62  189.2101
  63  576.0333
  64  263.398
  65  913.6666
  66  667.9384
  67  -785.3898
  68  -545.5399
  69  -369.3002
  70  455.0628
  71  880.2052
  72  456.0917
  73  -70.56904
  74  -65.02721
  75  -69.0697
  76  -492.4097
  77  -909.3898
  78  56.82773
  79  845.0767
  80  388.5618
  81  610.968
  82  117.5501
  83  -55.0903
  84  -274.7869
  85  -767.8847
  86  -392.4557
  87  -28.75211
  88  -106.0596
  89  -569.2511
  90  -417.2056
  91  -588.1095
  92  -1151.184
  93  -1869.66
  94  -1630.809
  95  -221.0825
  96  -181.7003
  97  -579.9196
  98  300.5155
  99  492.2245
 100  -15.71238
 101  -364.9428
 102  -631.3248
 103  -760.7817
 104  -487.9038
 105  -270.2776
 106  279.9629
 107  139.4126
 108  -241.6035
 109  -1702.086
 110  -1853.299
 111  -757.6999
 112  252.0125
 113  1235.905
 114  725.3216
 115  721.3855
 116  949.7216
 117  -24.43417
 118  -88.10896
 119  48.61037
 120  819.3802
 121  549.0532
 122  37.43942
 123  -57.17035
 124  -381.1037
 125  -671.7369
 126  -1228.247
 127  -938.223
 128  402.5758
 129  -205.2913
 130  -248.6607
 131  -267.816
 132  127.3888
 133  -131.6824
 134  -104.2428
 135  928.1899
 136  927.7277
 137  592.8251
 138  -233.3921
 139  -147.0043
 140  -132.7889
 141  4.161781
 142  -1104.059
 143  -1287.177
 144  292.6882
 145  768.0032
 146  527.4222
 147  592.7933
 148  1107.417
 149  285.6989
 150  -437.1728
 151  -880.0682
 152  -485.2943
 153  334.947
 154  296.0179
 155  179.8885
 156  113.4927
 157  33.00772
 158  -843.4826
 159  -1417.523
 160  -664.3889
 161  -277.4378
 162  355.3315
 163  -23.48676
 164  -45.57
 165  824.9403
 166  455.1334
 167  -551.4841
 168  -1167.343
 169  -1347.413
 170  -409.3834
 171  79.14271
 172  362.5624
 173  670.5355
 174  1205.151
 175  89.19981
 176  -878.8058
 177  -163.4176
 178  826.2416
 179  940.6534
 180  566.0335
 181  1493.403
 182  1288.75
 183  360.7824
 184  -638.9896
 185  -524.7731
 186  -366.4222
 187  -532.1069
 188  -205.6135
 189  91.92592
 190  261.8818
 191  -496.1697
 192  -1666.037
 193  -800.1525
 194  101.4224
 195  162.9099
 196  -240.9343
 197  240.0011
 198  352.1952
 199  -9.299929
 200  -120.8276
 201  -468.8492
 202  -1.857385
 203  361.2284
 204  -86.77934
 205  47.42535
 206  314.9628
 207  152.2274
 208  -710.8438
 209  -954.5399
 210  292.9738
 211  1214.107
 212  814.9019
 213  336.7607
 214  540.5445
 215  858.775
 216  420.0669
 217  -240.9026
 218  876.468
 219  655.2767
 220  218.5534
 221  -170.5152
 222  -722.8661
 223  -435.9717
 224  -577.2001
 225  -963.799
 226  -772.8156
 227  507.7345
 228  635.1454
 229  68.62391
 230  -37.89809
 231  295.2394
 232  -179.2114
 233  -894.9454
 234  -871.0676
 235  -359.3981
 236  8.359464
 237  184.3617
 238  -93.39294
 239  268.3341
 240  -52.64341
 241  -642.3308
 242  -1007.625
 243  -710.8519
 244  436.0541
 245  657.5077
 246  488.968
 247  1247.486
 248  1343.988
 249  431.8379
 250  -527.2389
 251  -521.6259
 252  -89.80803
 253  -6.741474
 254  -136.5679
 255  5.034417
 256  424.7587
 257  299.7419
 258  -662.7368
 259  -639.7594
 260  359.2005
 261  472.029
 262  126.0088
 263  568.7072
 264  662.377
 265  568.7693
 266  -265.7166
 267  -176.6809
 268  -524.9767
 269  6.853379
 270  -208.6196
 271  -324.5962
 272  24.61553
 273  -416.0787
 274  -1288.998
 275  -1591.708
 276  -749.8921
 277  -183.5858
 278  -448.5217
 279  -239.4415
 280  223.1512
 281  809.179
 282  247.7013
 283  18.80526
 284  -117.8656
 285  -20.06484
 286  120.8621
 287  -495.1167
 288  -808.0585
 289  -362.1827
 290  -530.632
 291  -1215.939
 292  -1165.428
 293  -296.1491
 294  65.39156
 295  -47.51468
 296  78.70095
 297  662.9682
 298  163.885
 299  -593.9695
 300  -293.1275
 301  505.4491
 302  478.5482
 303  -377.9664
 304  -593.7411
 305  -391.209
 306  -494.0598
 307  -847.9406
 308  -902.8389
 309  -625.2343
 310  386.5366
 311  -120.6799
 312  -153.4853
 313  387.586
 314  384.9831
 315  247.5835
 316  -315.8711
 317  -533.458
 318  -571.4908
 319  -535.7943
 320  -408.0453
 321  -58.42152
 322  -178.9928
 323  -371.851
 324  -901.3416
 325  -1146.742
 326  -692.7735
 327  -101.6006
 328  196.5777
 329  132.6464
 330  446.0634
 331  115.8503
 332  -707.985
 333  -985.3513
 334  -894.5994
 335  -161.0292
 336  -365.6823
 337  -110.2714
 338  -103.0522
 339  -347.969
 340  -1010.656
 341  -1675.126
 342  -928.6499
 343  -305.548
 344  -257.2898
 345  272.5025
 346  766.8685
 347  941.9702
 348  267.13
 349  40.18373
 350  24.27224
 351  20.17872
 352  -220.0517
 353  13.86583
 354  698.5706
 355  1722.45
 356  880.1823
 357  -155.5837
 358  -207.9319
 359  745.0645
 360  1010.784
 361  348.1606
 362  -21.17905
 363  360.8121
 364  271.1339
 365  397.0716
 366  163.5354
 367  346.3302
 368  -46.94916
 369  -32.08024
 370  -596.2312
 371  -637.4934
 372  -223.0476
 373  -731.0956
 374  -824.218
 375  -262.5742
 376  58.56858
 377  200.1396
 378  -183.2976
 379  547.238
 380  880.5482
 381  145.3832
 382  -503.3568
 383  -385.1188
 384  479.0063
 385  474.863
 386  -93.4175
 387  12.34444
 388  78.99213
 389  82.05692
 390  -757.4232
 391  -542.1469
 392  255.0988
 393  903.1297
 394  710.3923
 395  561.5716
 396  912.9783
 397  688.5469
 398  99.80813
 399  -592.6495
 400  480.6674
 401  421.1518
 402  -581.2182
 403  -852.7112
 404  -271.3967
 405  -544.3206
 406  -1046.235
 407  -1519.806
 408  -821.0685
 409  247.8194
 410  505.9778
 411  280.7104
 412  358.8318
 413  1120.318
 414  691.9911
 415  485.1389
 416  777.4326
 417  259.5144
 418  85.47961
 419  760.2916
 420  1176.017
 421  1850.362
 422  1619.13
 423  -311.1246
 424  -1174.312
 425  -539.8382
 426  -52.27869
 427  279.9555
 428  727.4427
 429  1384.127
 430  1339.212
 431  168.0892
 432  -490.6006
 433  -387.3991
 434  283.2621
 435  537.3703
 436  -118.4207
 437  222.5321
 438  -129.3666
 439  -497.6813
 440  -751.9766
 441  0.3856666
 442  1339.826
 443  869.2481
 444  379.4553
 445  -373.3364
 446  359.2113
 447  145.1509
 448  95.77197
 449  244.3344
 450  281.979
 451  389.6403
 452  -163.206
 453  -86.57243
 454  133.2829
 455  311.0057
 456  159.8409
 457  673.6031
 458  1734.992
 459  1589.611
 460  667.1104
 461  765.0309
 462  829.2667
 463  648.417
 464  -339.7751
 465  -786.4646
 466  -711.526
 467  385.8628
 468  -65.12976
 469  -632.4194
 470  -956.713
 471  -281.9286
 472  -1041.158
 473  -1591.452
 474  -912.8651
 475  141.0243
 476  490.9432
 477  -84.83559
 478  458.6931
 479  321.7409
 480  -235.2597
 481  -578.5965
 482  -189.4248
 483  651.2225
 484  707.9229
 485  -178.3509
 486  -268.0852
 487  21.05639
 488  -488.3031
 489  -830.5125
 490  -1000.693
 491  -153.31
 492  411.7342
 493  534.1747
 494  776.3358
 495  749.8046
 496  501.4052
 497  114.3729
 498  -359.8588
 499  232.9965
 500  784.1419
 501  696.6192
 502  409.679
 503  287.2723
 504  251.9291
 505  -714.3098
 506  -1244.504
 507  -650.5319
 508  560.152
 509  575.5959
 510  457.8896
 511  658.9462
