# Input file       =  1204462849.099223_cleaned.dat
# Candidate        =  PSR_0332+5434
# Telescope        =  AR
# Epoch_topo       =  58184.542454852119
# Epoch_bary       =  N/A
# T_sample         =  0.002
# Data Folded      =  7340032
# Data Avg         =  0.185556846111598
# Data StdDev      =  6.95817303429755 
# Profile Bins     =  512
# Profile Avg      =  2659.3729190121  
# Profile StdDev   =  833.123185031381 
# Reduced chi-sqr  =  0.912
# Prob(Noise)      <  0.924   (~0.0 sigma)
# P_topo (ms)      =  714.579567807578  +/- 0.00041
# P'_topo (s/s)    =  -0                +/- 2.16e-10
# P''_topo (s/s^2) =  0                 +/- 9.55e-14
# P_bary (ms)      =  N/A
# P'_bary (s/s)    =  N/A
# P''_bary (s/s^2) =  N/A
# P_orb (s)        =  N/A
# asin(i)/c (s)    =  N/A
# eccentricity     =  N/A
# w (rad)          =  N/A
# T_peri           =  N/A
######################################################
   0  2026.688
   1  1725.102
   2  2004.96
   3  2185.494
   4  2086.385
   5  2188.79
   6  2210.006
   7  2046.478
   8  2215.161
   9  2385.802
  10  2152.284
  11  2210.55
  12  2405.155
  13  2887.177
  14  2449.237
  15  2492.014
  16  2605.839
  17  2796.849
  18  3037.208
  19  3068.221
  20  3138.039
  21  3080.343
  22  2917.022
  23  2971.028
  24  3227.335
  25  2730.48
  26  2994.889
  27  3363.776
  28  3140.486
  29  3034.174
  30  2918.903
  31  3035.777
  32  2981.01
  33  3130.516
  34  3122.719
  35  3224.783
  36  3276.16
  37  3526.137
  38  3660.777
  39  2974.822
  40  3373.19
  41  3999.762
  42  3393.661
  43  2853.077
  44  2917.813
  45  2774.721
  46  2308.188
  47  3146.267
  48  3174.855
  49  2584.099
  50  2157.739
  51  2285.321
  52  2090.507
  53  2211.915
  54  2440.472
  55  2718.811
  56  2868.761
  57  3066.563
  58  2497.332
  59  2302.769
  60  2326.021
  61  2178.288
  62  2559.36
  63  2595.703
  64  2403.875
  65  2490.496
  66  2868.653
  67  2523.497
  68  2760.647
  69  2842.241
  70  2969.601
  71  2503.26
  72  2819.625
  73  3195.341
  74  3583.412
  75  3450.922
  76  3244.051
  77  3261.007
  78  3248.241
  79  2797.628
  80  2648.24
  81  3122.306
  82  3043.612
  83  2844.94
  84  2835.522
  85  2848.077
  86  2578.433
  87  2795.67
  88  3072.877
  89  2937.586
  90  2582.765
  91  2633.881
  92  2851.209
  93  2793.552
  94  3015.979
  95  3173.474
  96  3014.353
  97  3036.045
  98  3072.774
  99  3477.177
 100  3399.183
 101  2955.817
 102  2774.792
 103  2604.344
 104  2793.69
 105  3100.381
 106  3036.885
 107  3029.161
 108  2863.448
 109  2939.799
 110  2626.288
 111  2384.167
 112  2165.507
 113  2513.918
 114  2303.595
 115  2309.607
 116  2459.923
 117  2720.564
 118  2294.186
 119  2298.544
 120  2625.731
 121  2352.054
 122  2200.059
 123  1994.287
 124  2176.231
 125  1990.634
 126  1629.539
 127  1953.385
 128  2144.754
 129  2089.95
 130  2218.512
 131  2050.321
 132  1929.878
 133  1817.114
 134  1933.728
 135  2019.997
 136  1886.404
 137  2291.943
 138  2117.577
 139  1960.359
 140  2131.939
 141  2176.213
 142  1811.011
 143  2297.877
 144  2381.467
 145  2488.617
 146  2375.661
 147  2284.729
 148  2566.513
 149  2623.521
 150  2392.893
 151  2596.599
 152  3084.987
 153  3146.495
 154  2726.407
 155  2753.089
 156  2444.13
 157  2959.294
 158  2882.556
 159  2758.063
 160  2604.068
 161  2452.769
 162  2845.672
 163  2839.141
 164  3332.069
 165  3702.589
 166  3598.54
 167  3531.001
 168  3332.668
 169  3711.33
 170  3541.918
 171  3092.787
 172  3091.575
 173  3468.414
 174  3026.949
 175  3159.03
 176  3244.196
 177  3195.552
 178  3112.161
 179  3240.158
 180  3773.97
 181  3644.878
 182  3481.46
 183  3359.656
 184  3404.7
 185  3257.574
 186  3320.703
 187  3147.96
 188  3311.465
 189  3041.697
 190  3043.807
 191  2800.612
 192  2683.857
 193  2716.493
 194  2692.552
 195  2519.895
 196  2490.401
 197  2284.331
 198  1921.13
 199  2120.594
 200  2256.139
 201  2112.441
 202  1924.575
 203  1817.972
 204  1996.555
 205  2296.932
 206  2316.106
 207  2249.81
 208  1904.106
 209  2233.722
 210  2105.509
 211  2174.386
 212  2218.125
 213  2023.047
 214  2383.263
 215  2800.835
 216  2481.733
 217  2368.709
 218  2220.562
 219  2049.115
 220  2318.208
 221  2347.319
 222  2121.362
 223  2415.243
 224  2700.52
 225  2668.887
 226  2497.235
 227  2529.492
 228  2692.342
 229  2862.841
 230  3266.11
 231  3177.029
 232  3071.875
 233  2963.422
 234  2992.476
 235  3207.634
 236  3321.495
 237  3539.56
 238  3576.119
 239  3231.458
 240  3025.158
 241  3231.814
 242  3416.013
 243  3119.432
 244  3072.699
 245  3177.378
 246  2661.744
 247  2664.361
 248  3007.648
 249  3156.68
 250  3460.112
 251  3702.298
 252  3686.466
 253  3397.266
 254  3469.972
 255  4093.579
 256  3626.872
 257  3296.64
 258  3282.994
 259  3514.504
 260  3402.535
 261  3274.829
 262  3606.311
 263  3403.248
 264  3467.496
 265  3033.188
 266  3393.434
 267  3352.097
 268  3243.874
 269  2998.546
 270  2826.293
 271  2694.22
 272  3005.654
 273  2917.739
 274  2756.796
 275  2583.486
 276  2748.234
 277  2683.629
 278  2865.891
 279  2514.673
 280  2608.144
 281  2683.917
 282  3052.659
 283  2809.423
 284  2795.92
 285  2818.201
 286  2765.237
 287  2769.685
 288  3339.579
 289  3686.374
 290  3366.122
 291  3388.348
 292  3045.78
 293  3107.91
 294  3630.683
 295  3901.655
 296  3741.988
 297  3388.84
 298  3447.301
 299  3529.813
 300  4007.955
 301  4078.464
 302  4253.635
 303  4795.684
 304  4846.645
 305  4633.867
 306  4533.233
 307  4457.145
 308  4027.194
 309  3725.765
 310  3667.363
 311  3605.146
 312  3557.356
 313  3545.568
 314  3235.486
 315  3049.537
 316  3125.56
 317  2940.552
 318  3501.632
 319  3074.761
 320  2574.68
 321  2549.062
 322  2328.896
 323  2311.844
 324  1996.021
 325  1902.311
 326  1906.505
 327  1811.889
 328  1820.948
 329  2087.606
 330  1686.238
 331  2252.391
 332  2271.263
 333  1982.237
 334  2021.161
 335  1987.36
 336  2181.323
 337  1890.557
 338  2040.181
 339  2467.214
 340  2546.974
 341  1936.303
 342  1692.085
 343  1909.992
 344  1812.486
 345  2070.733
 346  1998.309
 347  1672.586
 348  1871.351
 349  2347.762
 350  2390.557
 351  2289.667
 352  2008.624
 353  2015.438
 354  2119.777
 355  2130.065
 356  2409.964
 357  1912.623
 358  1777.258
 359  2215.896
 360  2519.981
 361  2417.831
 362  2002.628
 363  2003.605
 364  2281.792
 365  2657.668
 366  2994.9
 367  2708.659
 368  2557.428
 369  2921.679
 370  2757.885
 371  2507.074
 372  2394.509
 373  2365.295
 374  2288.825
 375  2247.555
 376  2194.122
 377  2191.38
 378  1925.578
 379  2140.547
 380  2388.046
 381  2570.637
 382  2697.46
 383  2912.115
 384  2376.619
 385  2003.132
 386  2156.97
 387  2567.721
 388  2604.221
 389  2649.438
 390  2807.381
 391  2629.102
 392  2566.985
 393  2702.029
 394  2846.432
 395  2572.033
 396  2537
 397  2677.052
 398  2548.879
 399  2223.877
 400  2151.213
 401  2264.324
 402  2180.901
 403  2147.161
 404  1872.494
 405  1988.981
 406  2197.373
 407  1996.447
 408  1938.971
 409  1922.113
 410  1826.881
 411  2385.29
 412  2286.142
 413  1873.031
 414  1820.858
 415  1888.35
 416  2072.943
 417  1894.455
 418  1623.131
 419  1498.968
 420  2066.208
 421  2092.138
 422  1616.191
 423  1661.07
 424  1599.022
 425  1624.409
 426  1963.304
 427  1647.32
 428  2048.492
 429  2486.016
 430  2077.099
 431  1950.703
 432  2117.595
 433  2270.688
 434  2334.221
 435  2390.862
 436  2431.243
 437  2102.522
 438  2511.166
 439  2633.707
 440  2041.357
 441  2025.328
 442  2160.105
 443  2363.7
 444  2362.683
 445  2387.669
 446  2509.497
 447  2772.322
 448  2413.103
 449  2228.589
 450  2598.735
 451  2885.429
 452  2943.421
 453  3058.675
 454  2814.103
 455  2718.782
 456  2729.114
 457  2944.248
 458  3167.657
 459  3222.784
 460  3541.97
 461  3618.376
 462  3405.447
 463  2887.714
 464  3209.505
 465  3288.83
 466  2989.762
 467  3083.152
 468  2953.248
 469  2961.051
 470  2950.5
 471  3108.754
 472  3089.19
 473  2993.386
 474  2656.423
 475  2532.706
 476  2318.213
 477  2448.103
 478  2745.765
 479  2376.823
 480  2457.013
 481  2286.273
 482  2274.75
 483  2027.115
 484  2182.746
 485  2843.316
 486  2725.587
 487  2116.629
 488  1964.849
 489  2160.177
 490  2420.109
 491  2245.724
 492  1898.731
 493  2077.099
 494  2144.779
 495  1872.205
 496  1938.154
 497  2042.641
 498  2154.077
 499  2320.081
 500  2417.37
 501  2182.061
 502  2186.644
 503  2076.866
 504  1718.454
 505  1879.979
 506  1950.169
 507  2035.683
 508  2050.593
 509  2265.04
 510  1881.129
 511  1944.878
