# Input file       =  1204564430.106454-PSRB0329-2ms-sampling-dd.dat
# Candidate        =  PSR_0332+5434
# Telescope        =  AR
# Epoch_topo       =  58185.718160954326
# Epoch_bary       =  N/A
# T_sample         =  0.002
# Data Folded      =  7340032
# Data Avg         =  3.79452149048922e-10
# Data StdDev      =  7.30874802910642 
# Profile Bins     =  512
# Profile Avg      =  0.193279443546328
# Profile StdDev   =  875.098593637617 
# Reduced chi-sqr  =  0.426
# Prob(Noise)      <  1   (~0.0 sigma)
# P_topo (ms)      =  714.579670176078  +/- 0.000106
# P'_topo (s/s)    =  -0                +/- 5.57e-11
# P''_topo (s/s^2) =  0                 +/- 2.46e-14
# P_bary (ms)      =  N/A
# P'_bary (s/s)    =  N/A
# P''_bary (s/s^2) =  N/A
# P_orb (s)        =  N/A
# asin(i)/c (s)    =  N/A
# eccentricity     =  N/A
# w (rad)          =  N/A
# T_peri           =  N/A
######################################################
   0  689.0886
   1  1085.811
   2  948.5057
   3  480.4101
   4  -51.97862
   5  -229.4465
   6  -382.4324
   7  -339.2536
   8  -46.40673
   9  587.2435
  10  143.5553
  11  -105.4288
  12  -101.4266
  13  -482.6956
  14  -606.0685
  15  -185.0291
  16  76.2963
  17  -3.471688
  18  -187.3396
  19  -229.9658
  20  -409.6031
  21  -130.9202
  22  5.651561
  23  -57.29005
  24  75.03902
  25  411.8147
  26  21.71185
  27  -98.74603
  28  -295.3452
  29  -153.7978
  30  -83.07412
  31  -193.4174
  32  -371.9063
  33  -217.8632
  34  -21.12436
  35  80.71161
  36  -96.27033
  37  -105.8922
  38  -180.9582
  39  -380.7838
  40  -394.6767
  41  -95.64797
  42  -339.8974
  43  -212.6774
  44  -238.1822
  45  408.8241
  46  253.4697
  47  123.234
  48  -72.39915
  49  -519.9654
  50  -127.5163
  51  -244.059
  52  -10.92292
  53  -64.93791
  54  24.77928
  55  -170.3857
  56  -568.852
  57  -304.777
  58  -424.9142
  59  -541.9398
  60  124.3265
  61  648.6902
  62  678.9084
  63  464.9293
  64  -280.4201
  65  -188.8978
  66  -219.8959
  67  289.8687
  68  1054.568
  69  862.361
  70  279.8556
  71  -131.4694
  72  -844.1237
  73  -556.7228
  74  -527.2869
  75  83.82935
  76  110.2537
  77  -344.2352
  78  -191.1296
  79  -285.3095
  80  -429.3141
  81  -339.3853
  82  -106.098
  83  220.0249
  84  -240.9755
  85  -394.5099
  86  -369.3992
  87  -354.3849
  88  -140.715
  89  398.0515
  90  191.2699
  91  -172.5864
  92  -108.7294
  93  -15.59779
  94  -484.8664
  95  -530.1288
  96  -324.8766
  97  -24.47564
  98  154.7845
  99  298.3772
 100  -347.9442
 101  -319.6393
 102  -156.5871
 103  -47.15192
 104  -579.5409
 105  -564.105
 106  200.2806
 107  322.5529
 108  -200.4915
 109  -764.2601
 110  -478.0299
 111  -703.1969
 112  -482.8076
 113  -418.3689
 114  -372.926
 115  -569.6851
 116  -339.2137
 117  -375.9828
 118  -608.7383
 119  -109.7796
 120  75.39008
 121  -216.0944
 122  -531.501
 123  -523.1284
 124  -568.0582
 125  -282.8956
 126  61.98694
 127  288.8535
 128  78.25069
 129  -489.692
 130  -774.6895
 131  -647.1265
 132  -36.37608
 133  374.4276
 134  279.2766
 135  118.5106
 136  210.0116
 137  263.7007
 138  -184.672
 139  -536.972
 140  -581.3481
 141  -346.9183
 142  -540.225
 143  144.1818
 144  722.9346
 145  661.5074
 146  -53.67459
 147  -104.5597
 148  491.3039
 149  264.6273
 150  145.9631
 151  39.11764
 152  -46.98545
 153  233.8743
 154  306.84
 155  327.8868
 156  417.3974
 157  258.4479
 158  107.2558
 159  102.56
 160  12.07633
 161  -89.15808
 162  36.53831
 163  346.3677
 164  364.674
 165  345.2209
 166  69.62924
 167  98.71832
 168  -84.57434
 169  -333.3982
 170  19.40863
 171  -82.05926
 172  -349.7036
 173  -68.34949
 174  279.2155
 175  222.3889
 176  -105.4959
 177  120.3629
 178  99.97548
 179  156.216
 180  -465.8462
 181  -451.9671
 182  -210.9079
 183  163.378
 184  230.2327
 185  -76.93684
 186  -244.2677
 187  89.55653
 188  221.004
 189  -461.6851
 190  -245.5562
 191  68.15736
 192  299.0226
 193  575.8567
 194  535.329
 195  817.2882
 196  623.7623
 197  485.6558
 198  816.6907
 199  926.1821
 200  1244.138
 201  773.0681
 202  645.4623
 203  1198.026
 204  1105.772
 205  723.0655
 206  642.4017
 207  352.7978
 208  251.4454
 209  340.6667
 210  440.8513
 211  553.9619
 212  223.2403
 213  -46.46972
 214  738.9373
 215  1099.813
 216  646.7877
 217  545.2925
 218  279.5403
 219  112.0131
 220  459.5272
 221  818.6624
 222  1547.175
 223  1255.36
 224  762.554
 225  206.3378
 226  120.6961
 227  266.1057
 228  267.1487
 229  459.8902
 230  423.6074
 231  701.2532
 232  561.4655
 233  91.74803
 234  55.18195
 235  218.3221
 236  -30.94082
 237  -333.0103
 238  -160.7078
 239  -138.5611
 240  -463.2549
 241  -233.6481
 242  -17.65658
 243  -154.8547
 244  44.23164
 245  384.8644
 246  -100.3867
 247  -21.9979
 248  147.1712
 249  201.6088
 250  -101.166
 251  281.394
 252  314.9893
 253  364.6418
 254  493.0486
 255  710.6186
 256  803.2339
 257  -127.417
 258  -623.7456
 259  -348.3844
 260  -374.3187
 261  -87.85616
 262  -273.6634
 263  -428.4758
 264  -221.0989
 265  -347.0354
 266  -342.8387
 267  -55.17447
 268  111.4126
 269  -36.44486
 270  -218.6646
 271  13.64539
 272  -41.80421
 273  176.8025
 274  211.057
 275  200.9463
 276  -82.87366
 277  -418.263
 278  -229.3524
 279  -518.5807
 280  -126.5792
 281  -119.5891
 282  59.45961
 283  94.21328
 284  -119.9677
 285  -159.5383
 286  40.49513
 287  92.34529
 288  -155.4964
 289  224.6863
 290  777.2103
 291  784.5215
 292  184.4541
 293  -292.2779
 294  -269.9554
 295  85.93575
 296  556.0628
 297  1616.951
 298  1741.32
 299  905.7408
 300  8.86007
 301  287.3257
 302  -200.4667
 303  -130.3437
 304  381.9056
 305  439.4129
 306  -18.554
 307  -464.0283
 308  -246.8079
 309  -396.7187
 310  -796.0554
 311  1.300983
 312  348.5058
 313  83.84208
 314  -458.0054
 315  -745.3489
 316  -460.8242
 317  -362.3727
 318  -264.7239
 319  -583.5029
 320  -147.5981
 321  -322.755
 322  -737.6009
 323  -420.1581
 324  -250.4098
 325  262.3653
 326  511.515
 327  139.1864
 328  -135.5827
 329  -357.8923
 330  -144.6621
 331  58.76751
 332  338.6539
 333  343.7496
 334  128.1291
 335  193.5989
 336  -8.387648
 337  -364.1555
 338  -495.6668
 339  -857.8989
 340  -526.7086
 341  -744.2007
 342  -463.6402
 343  -553.0244
 344  -565.7117
 345  -201.3235
 346  -337.8531
 347  -562.3232
 348  -630.1236
 349  -372.7938
 350  -248.4194
 351  -365.0115
 352  -107.527
 353  14.73486
 354  -376.3244
 355  -494.8935
 356  -138.1301
 357  -109.7288
 358  158.5427
 359  283.514
 360  75.29106
 361  -396.2146
 362  -697.7582
 363  -329.4369
 364  -231.4299
 365  -151.0482
 366  -314.3889
 367  108.7169
 368  -311.2638
 369  -664.8566
 370  -541.0513
 371  -618.7622
 372  0.7785963
 373  117.5957
 374  503.3374
 375  -88.53338
 376  -750.7229
 377  -236.4544
 378  -136.0056
 379  -77.15932
 380  178.0152
 381  -5.688308
 382  -105.1963
 383  -285.6185
 384  -86.34349
 385  19.14522
 386  176.8724
 387  124.1135
 388  -175.4075
 389  -31.74946
 390  290.4259
 391  249.8188
 392  93.65434
 393  210.8295
 394  -291.5291
 395  -443.8359
 396  52.73328
 397  -300.7122
 398  -382.9037
 399  242.1762
 400  833.6699
 401  310.1322
 402  -506.6302
 403  -654.9598
 404  -691.3251
 405  79.9155
 406  777.0054
 407  1562.732
 408  1579.023
 409  1357.766
 410  7.389223
 411  92.57831
 412  -41.21303
 413  -339.8913
 414  -73.77827
 415  52.30386
 416  61.53331
 417  -54.97932
 418  -32.38884
 419  -189.4955
 420  -92.59356
 421  -282.1467
 422  -77.96371
 423  307.7016
 424  -38.4872
 425  -54.28733
 426  -181.6806
 427  -12.67073
 428  81.58785
 429  -9.86459
 430  344.136
 431  133.8715
 432  -415.808
 433  12.49282
 434  -119.1029
 435  -433.3817
 436  -427.6794
 437  -384.3295
 438  -72.86314
 439  106.378
 440  -98.15363
 441  -80.91833
 442  -227.55
 443  -31.21716
 444  95.94992
 445  271.9478
 446  269.6937
 447  362.8137
 448  608.6688
 449  678.2042
 450  -72.85856
 451  59.35917
 452  325.2976
 453  -55.72141
 454  246.5792
 455  198.4028
 456  -166.8512
 457  28.51538
 458  226.5249
 459  32.34558
 460  -315.3828
 461  -466.0693
 462  -356.0963
 463  -299.6821
 464  -160.0549
 465  -167.6813
 466  -293.8239
 467  -501.0181
 468  204.1442
 469  -15.75763
 470  -435.6579
 471  -608.5854
 472  -357.4532
 473  333.9911
 474  318.5592
 475  450.5279
 476  206.1096
 477  21.15186
 478  236.035
 479  145.2685
 480  164.6366
 481  295.1055
 482  272.537
 483  464.0562
 484  -50.04834
 485  -313.7119
 486  -41.9747
 487  -152.4901
 488  -229.1562
 489  -368.5331
 490  139.8261
 491  377.666
 492  435.9592
 493  60.13104
 494  -129.6736
 495  -18.63176
 496  -105.8682
 497  -396.4493
 498  -123.104
 499  119.8804
 500  71.5053
 501  -715.4388
 502  -693.1787
 503  -293.3945
 504  -77.55258
 505  199.1221
 506  234.2419
 507  622.2404
 508  24.63721
 509  61.23541
 510  -313.9501
 511  -19.13187
