# Input file       =  1204017792.172484_cleaned.dat
# Candidate        =  PSR_0332+5434
# Telescope        =  AR
# Epoch_topo       =  58179.391333014857
# Epoch_bary       =  N/A
# T_sample         =  0.002
# Data Folded      =  7274496
# Data Avg         =  0.0139975945094281
# Data StdDev      =  1.00004994508746 
# Profile Bins     =  512
# Profile Avg      =  198.953333219281 
# Profile StdDev   =  119.203268726353 
# Reduced chi-sqr  =  1.466
# Prob(Noise)      <  2.85e-11   (~6.6 sigma)
# P_topo (ms)      =  714.580347074463  +/- 0.000111
# P'_topo (s/s)    =  -0                +/- 5.93e-11
# P''_topo (s/s^2) =  0                 +/- 2.64e-14
# P_bary (ms)      =  N/A
# P'_bary (s/s)    =  N/A
# P''_bary (s/s^2) =  N/A
# P_orb (s)        =  N/A
# asin(i)/c (s)    =  N/A
# eccentricity     =  N/A
# w (rad)          =  N/A
# T_peri           =  N/A
######################################################
   0  147.1484
   1  155.683
   2  172.8323
   3  158.8017
   4  196.1861
   5  137.1996
   6  139.4445
   7  213.9043
   8  145.8229
   9  172.1715
  10  282.3364
  11  275.4324
  12  213.0598
  13  185.8633
  14  206.3647
  15  122.7979
  16  93.37186
  17  100.6806
  18  260.3864
  19  254.5954
  20  170.4371
  21  39.4691
  22  148.0638
  23  294.4577
  24  175.2034
  25  175.1026
  26  255.7541
  27  471.6929
  28  377.5098
  29  286.6451
  30  236.2934
  31  165.4257
  32  182.3163
  33  295.3102
  34  253.0958
  35  203.7194
  36  170.5114
  37  306.4079
  38  261.5484
  39  248.1359
  40  262.0719
  41  220.8654
  42  390.0832
  43  394.1666
  44  328.7969
  45  157.9101
  46  131.0918
  47  209.0669
  48  262.1581
  49  259.6985
  50  252.1398
  51  242.7964
  52  190.805
  53  130.9456
  54  165.0248
  55  285.9346
  56  253.2344
  57  323.9917
  58  275.1178
  59  285.1121
  60  354.9221
  61  266.2325
  62  179.6389
  63  143.0016
  64  122.6881
  65  173.3518
  66  165.989
  67  235.6648
  68  218.5621
  69  229.846
  70  157.4391
  71  383.2765
  72  326.2684
  73  189.793
  74  326.865
  75  312.6898
  76  233.307
  77  156.8533
  78  238.8274
  79  345.9113
  80  176.4775
  81  137.6765
  82  34.47299
  83  -25.99271
  84  117.6099
  85  298.7738
  86  316.1858
  87  352.3557
  88  230.2858
  89  194.2798
  90  281.0678
  91  167.9525
  92  360.2361
  93  268.8
  94  304.6628
  95  353.3032
  96  209.6035
  97  150.5971
  98  137.0926
  99  70.26334
 100  233.2422
 101  278.3247
 102  264.4455
 103  268.5009
 104  397.1932
 105  358.5944
 106  224.5164
 107  97.96386
 108  150.7717
 109  236.4027
 110  345.9797
 111  386.0787
 112  322.3559
 113  101.1857
 114  132.5938
 115  139.1689
 116  175.8308
 117  159.3885
 118  318.2417
 119  418.5334
 120  390.9421
 121  368.7716
 122  283.8711
 123  295.7555
 124  257.8467
 125  213.9857
 126  245.415
 127  248.9231
 128  383.6434
 129  286.3382
 130  127.9937
 131  143.9052
 132  194.8498
 133  106.2808
 134  96.35297
 135  187.255
 136  138.9862
 137  75.35334
 138  123.3372
 139  237.8868
 140  86.92059
 141  63.79741
 142  142.7057
 143  280.7388
 144  194.5226
 145  65.86911
 146  141.8817
 147  177.0603
 148  102.6398
 149  127.6526
 150  229.6932
 151  290.4476
 152  215.7624
 153  201.7539
 154  306.2971
 155  390.9454
 156  237.7111
 157  285.7735
 158  228.327
 159  203.2434
 160  175.3944
 161  180.1473
 162  210.7724
 163  179.563
 164  235.3227
 165  125.9056
 166  74.13704
 167  210.0867
 168  285.0626
 169  243.5858
 170  135.342
 171  199.181
 172  56.43365
 173  113.9504
 174  206.4365
 175  226.0213
 176  158.6925
 177  182.9832
 178  200.0852
 179  144.9197
 180  197.4717
 181  204.2048
 182  117.5013
 183  118.1749
 184  262.0946
 185  234.7033
 186  247.8946
 187  278.4225
 188  264.4227
 189  269.7574
 190  229.9971
 191  262.417
 192  347.3068
 193  325.2744
 194  270.5421
 195  173.4876
 196  120.293
 197  68.90623
 198  169.9298
 199  240.2886
 200  404.7927
 201  384.6659
 202  305.1177
 203  138.3809
 204  124.1272
 205  290.8253
 206  200.9552
 207  172.9255
 208  199.4769
 209  232.5496
 210  323.1467
 211  192.6058
 212  105.1179
 213  102.2124
 214  198.3099
 215  247.2477
 216  178.5293
 217  179.1658
 218  283.4361
 219  244.7466
 220  126.4763
 221  174.6746
 222  373.278
 223  236.5866
 224  72.6697
 225  223.3777
 226  307.2135
 227  231.4731
 228  204.1514
 229  258.7018
 230  206.4296
 231  223.6517
 232  287.5142
 233  248.012
 234  239.5733
 235  164.5729
 236  182.0225
 237  274.7146
 238  248.019
 239  132.5689
 240  212.9917
 241  378.101
 242  359.6928
 243  300.6533
 244  276.2793
 245  256.7842
 246  183.1267
 247  84.10419
 248  80.4781
 249  202.0312
 250  301.0899
 251  279.7535
 252  275.6334
 253  167.6662
 254  182.1023
 255  323.7704
 256  238.7227
 257  240.4191
 258  164.4882
 259  186.9178
 260  94.86331
 261  149.2736
 262  244.2838
 263  203.2841
 264  56.54613
 265  183.4488
 266  244.3672
 267  174.4081
 268  404.4484
 269  644.8794
 270  742.9348
 271  785.1631
 272  766.6456
 273  575.2009
 274  409.471
 275  396.9117
 276  240.2317
 277  156.1601
 278  224.1841
 279  52.3913
 280  102.6202
 281  223.1038
 282  83.6199
 283  102.5702
 284  204.3362
 285  246.0842
 286  161.5341
 287  92.14415
 288  131.6785
 289  57.70258
 290  135.5084
 291  187.5872
 292  182.5275
 293  130.3619
 294  33.82973
 295  123.117
 296  184.044
 297  111.8529
 298  64.49696
 299  125.5883
 300  212.8497
 301  299.0346
 302  283.9426
 303  120.8788
 304  73.07212
 305  145.5195
 306  247.4347
 307  190.3265
 308  219.9778
 309  300.145
 310  187.5015
 311  158.4377
 312  113.6892
 313  176.3032
 314  276.0718
 315  218.8562
 316  188.8898
 317  193.1733
 318  110.4504
 319  132.1209
 320  129.3202
 321  172.4262
 322  160.4238
 323  46.64652
 324  72.40449
 325  100.8551
 326  143.1908
 327  198.2038
 328  215.5969
 329  82.04111
 330  -123.6369
 331  37.52056
 332  194.5728
 333  198.147
 334  162.4604
 335  167.0421
 336  234.6355
 337  209.2372
 338  106.1212
 339  110.3733
 340  245.9487
 341  207.6805
 342  155.4087
 343  130.6345
 344  -19.5981
 345  -68.3197
 346  54.4012
 347  -14.45649
 348  20.24531
 349  120.0262
 350  128.3198
 351  156.6768
 352  113.9945
 353  194.0344
 354  165.4274
 355  152.0157
 356  183.8436
 357  258.5538
 358  112.2087
 359  105.885
 360  166.5251
 361  74.30733
 362  60.31116
 363  -39.95247
 364  -5.718904
 365  143.1516
 366  123.259
 367  255.4241
 368  299.4037
 369  293.3523
 370  267.142
 371  216.9435
 372  199.7475
 373  308.7032
 374  256.47
 375  237.0248
 376  134.7131
 377  173.6899
 378  151.3885
 379  154.8125
 380  171.6341
 381  192.6206
 382  166.0046
 383  125.653
 384  222.6664
 385  328.2933
 386  245.3888
 387  127.6397
 388  124.7162
 389  239.2803
 390  311.3326
 391  398.9617
 392  252.3492
 393  144.1959
 394  123.3137
 395  87.07369
 396  120.4441
 397  261.5738
 398  164.8722
 399  221.2114
 400  173.0709
 401  90.94669
 402  240.6945
 403  329.318
 404  210.8373
 405  177.1485
 406  328.3814
 407  217.0123
 408  206.1521
 409  286.3698
 410  266.2067
 411  256.3054
 412  227.1833
 413  305.4132
 414  216.6897
 415  107.6655
 416  39.92592
 417  189.7238
 418  239.9106
 419  284.8612
 420  267.074
 421  419.6026
 422  284.9959
 423  158.3227
 424  205.5074
 425  160.5255
 426  33.58323
 427  179.7293
 428  92.71963
 429  39.05779
 430  44.99419
 431  -30.30625
 432  -44.74115
 433  142.4644
 434  321.7961
 435  155.9207
 436  -76.92696
 437  89.83645
 438  92.61243
 439  104.6635
 440  136.7702
 441  147.1156
 442  117.1433
 443  179.5611
 444  6.009571
 445  1.428701
 446  73.81551
 447  144.0373
 448  132.9666
 449  180.8901
 450  172.4498
 451  150.4847
 452  189.964
 453  98.42301
 454  156.3641
 455  147.3061
 456  92.86023
 457  109.0009
 458  126.2654
 459  80.86653
 460  -43.15182
 461  -17.28045
 462  -32.87742
 463  77.27225
 464  184.3618
 465  233.8314
 466  223.2133
 467  199.8338
 468  159.5563
 469  232.8842
 470  320.6605
 471  335.7922
 472  252.1095
 473  239.7341
 474  164.6992
 475  69.31792
 476  137.8286
 477  163.7622
 478  168.303
 479  187.8336
 480  142.3695
 481  159.331
 482  265.9385
 483  269.148
 484  134.7789
 485  248.9794
 486  139.1566
 487  65.01083
 488  180.2658
 489  257.6836
 490  335.4394
 491  189.9992
 492  280.3675
 493  123.8504
 494  86.59904
 495  125.3833
 496  166.8344
 497  137.4249
 498  78.22498
 499  295.6269
 500  353.101
 501  275.3736
 502  244.0423
 503  346.8069
 504  143.9977
 505  163.7697
 506  248.1333
 507  217.0007
 508  190.7907
 509  92.59911
 510  38.0561
 511  103.1421
