# Input file       =  1204808031.109151-PSRB0329-2ms-sampling-dd.dat
# Candidate        =  PSR_0332+5434
# Telescope        =  AR
# Epoch_topo       =  58188.537617004062
# Epoch_bary       =  N/A
# T_sample         =  0.002
# Data Folded      =  7340032
# Data Avg         =  2.15238651465483e-10
# Data StdDev      =  9.59735111331314 
# Profile Bins     =  512
# Profile Avg      =  0.206221959864095
# Profile StdDev   =  1149.11998997092 
# Reduced chi-sqr  =  0.611
# Prob(Noise)      <  1   (~0.0 sigma)
# P_topo (ms)      =  714.578642682803  +/- 0.000788
# P'_topo (s/s)    =  -0                +/- 4.16e-10
# P''_topo (s/s^2) =  0                 +/- 1.84e-13
# P_bary (ms)      =  N/A
# P'_bary (s/s)    =  N/A
# P''_bary (s/s^2) =  N/A
# P_orb (s)        =  N/A
# asin(i)/c (s)    =  N/A
# eccentricity     =  N/A
# w (rad)          =  N/A
# T_peri           =  N/A
######################################################
   0  -116.0309
   1  226.0897
   2  -13.25149
   3  151.9786
   4  266.7077
   5  473.3326
   6  691.2996
   7  919.9887
   8  1058.349
   9  1582.32
  10  804.1389
  11  999.2389
  12  1117.188
  13  2124.077
  14  2240.85
  15  1841.218
  16  1557.951
  17  1071.056
  18  372.4562
  19  185.5288
  20  462.5475
  21  345.1072
  22  -167.606
  23  -654.6207
  24  -330.0948
  25  -634.1296
  26  -795.137
  27  -790.5076
  28  -465.0851
  29  -206.8997
  30  -409.9913
  31  -400.5695
  32  -258.2245
  33  -155.5005
  34  -230.4187
  35  -124.1957
  36  -244.6291
  37  -77.96445
  38  -238.6089
  39  -672.5604
  40  -347.6941
  41  -391.9086
  42  -531.5954
  43  -478.2153
  44  28.47122
  45  104.8184
  46  -417.3256
  47  80.49188
  48  348.6273
  49  240.7101
  50  266.2724
  51  -272.606
  52  -244.6218
  53  -460.8036
  54  -677.0407
  55  -526.345
  56  -426.3734
  57  -691.1346
  58  -255.4459
  59  -287.9174
  60  -773.4261
  61  -1123.66
  62  -768.0869
  63  -535.8077
  64  -693.9872
  65  -237.5082
  66  -393.1368
  67  -571.1387
  68  -510.3019
  69  -244.4445
  70  -206.1355
  71  -236.3793
  72  -88.36726
  73  163.0651
  74  699.356
  75  428.8226
  76  53.62314
  77  188.6954
  78  182.4736
  79  364.1087
  80  237.1867
  81  456.799
  82  -232.4763
  83  -507.6313
  84  -531.7866
  85  -348.474
  86  -154.4994
  87  -392.5038
  88  -608.6096
  89  -683.6486
  90  -980.5772
  91  -763.482
  92  -442.7896
  93  -439.9526
  94  -823.6639
  95  -434.4247
  96  -329.2037
  97  22.86777
  98  913.7183
  99  939.0654
 100  -155.5404
 101  -1433.41
 102  -390.7545
 103  767.5584
 104  995.821
 105  865.7502
 106  -122.2383
 107  -1224.103
 108  -1755.818
 109  -1473.445
 110  -816.6266
 111  -1266.085
 112  -748.6819
 113  -703.7815
 114  -1026.267
 115  -861.6708
 116  -761.1426
 117  -417.354
 118  -304.8029
 119  -131.2925
 120  67.47272
 121  487.0757
 122  649.4847
 123  193.0905
 124  -154.726
 125  -59.95996
 126  433.197
 127  508.8252
 128  530.581
 129  471.0123
 130  96.57657
 131  -837.9745
 132  -1029.126
 133  -651.8311
 134  -466.7993
 135  -700.4942
 136  -358.1847
 137  -163.1482
 138  -677.8233
 139  -898.0937
 140  -907.3452
 141  -650.9392
 142  -683.8705
 143  -112.0501
 144  -132.7347
 145  -102.7737
 146  -551.274
 147  -307.6743
 148  -108.0603
 149  -135.7321
 150  -203.1781
 151  -462.8235
 152  -729.025
 153  -1038.021
 154  -1016.478
 155  -321.2382
 156  26.581
 157  -176.9755
 158  -928.087
 159  -960.8915
 160  -595.6996
 161  -803.283
 162  -737.4602
 163  -696.0413
 164  -737.535
 165  -868.7738
 166  -799.9742
 167  -730.2388
 168  -868.9734
 169  -184.9311
 170  255.4405
 171  -80.06084
 172  -241.4592
 173  3.424797
 174  151.0284
 175  109.4796
 176  110.7457
 177  -143.6075
 178  -220.5596
 179  -243.6644
 180  134.3755
 181  141.4225
 182  176.6134
 183  -264.7492
 184  -221.0095
 185  -159.6411
 186  -427.7687
 187  -23.29604
 188  74.69461
 189  122.8979
 190  234.8571
 191  263.6328
 192  135.4943
 193  -104.4181
 194  -373.5938
 195  -368.4709
 196  -432.3412
 197  -273.4378
 198  -242.879
 199  -344.391
 200  -168.8182
 201  -250.506
 202  -249.5724
 203  -178.2575
 204  -328.0129
 205  -616.5114
 206  -532.2267
 207  -730.5213
 208  -583.8194
 209  -377.7147
 210  -465.2636
 211  -576.9894
 212  -897.1093
 213  -712.8229
 214  -538.7717
 215  -215.1477
 216  -382.1376
 217  -299.0046
 218  -717.8062
 219  -343.6438
 220  -422.9745
 221  -686.1114
 222  -562.1375
 223  -492.7323
 224  -719.8219
 225  -983.7505
 226  -1094.098
 227  -1276.639
 228  -1465.578
 229  -1496.335
 230  -1031.201
 231  -1278.246
 232  -1565.504
 233  -1387.996
 234  -1233.952
 235  -1144.281
 236  -1002.281
 237  -957.1379
 238  -1156.752
 239  -1353.647
 240  -1585.787
 241  -1813.614
 242  -1468.72
 243  -1225.401
 244  -1151.179
 245  -1466.148
 246  -1346.449
 247  -1526.465
 248  -1142.944
 249  -718.8353
 250  -745.6323
 251  -667.0069
 252  -619.2495
 253  -905.711
 254  -833.7719
 255  -708.7548
 256  -827.1199
 257  -619.4714
 258  -450.2165
 259  -117.9326
 260  491.579
 261  777.7744
 262  718.0852
 263  315.3901
 264  -101.0716
 265  -473.1244
 266  -355.975
 267  -67.63581
 268  -287.3303
 269  -252.6699
 270  -113.7553
 271  -68.84663
 272  -178.3313
 273  71.44928
 274  417.4635
 275  355.5945
 276  251.2334
 277  440.892
 278  374.8287
 279  252.7993
 280  611.0057
 281  618.9354
 282  712.6606
 283  626.9392
 284  700.2137
 285  537.8885
 286  611.3264
 287  567.7422
 288  682.8385
 289  606.9608
 290  503.5746
 291  334.1192
 292  390.2906
 293  280.2197
 294  391.4622
 295  625.6091
 296  1140.048
 297  952.9095
 298  601.5361
 299  414.7727
 300  288.5278
 301  201.273
 302  270.16
 303  380.264
 304  385.2718
 305  232.8206
 306  154.9951
 307  -216.0917
 308  541.2431
 309  735.3456
 310  692.0406
 311  1089.416
 312  951.7892
 313  616.6115
 314  1005.739
 315  1028.933
 316  878.4914
 317  628.2154
 318  737.0737
 319  686.1619
 320  478.8227
 321  147.7504
 322  128.3547
 323  483.8374
 324  642.6579
 325  559.666
 326  416.6247
 327  401.9779
 328  247.1324
 329  286.4467
 330  415.3144
 331  632.7963
 332  648.1459
 333  668.6213
 334  213.6676
 335  105.6178
 336  -230.4285
 337  -357.0994
 338  127.0313
 339  442.5732
 340  728.0576
 341  647.4908
 342  351.0746
 343  329.4838
 344  359.0367
 345  311.5321
 346  399.3086
 347  151.2317
 348  177.5482
 349  41.35642
 350  151.1226
 351  183.7134
 352  32.41827
 353  60.16353
 354  235.3219
 355  126.1024
 356  -88.58783
 357  245.6342
 358  109.1623
 359  155.9302
 360  381.0314
 361  842.0054
 362  846.7379
 363  388.0714
 364  -66.70664
 365  -240.134
 366  248.3384
 367  -42.94628
 368  -298.5212
 369  -446.4868
 370  -499.558
 371  -275.2249
 372  -41.24752
 373  582.5689
 374  524.134
 375  45.09621
 376  -42.87333
 377  -59.42595
 378  79.42104
 379  -230.9355
 380  -421.6519
 381  -538.5272
 382  58.26801
 383  433.2161
 384  381.2826
 385  -11.76956
 386  68.61005
 387  144.6674
 388  198.7976
 389  277.939
 390  149.0892
 391  -218.8571
 392  -406.1639
 393  -20.21388
 394  369.3877
 395  463.9865
 396  65.30391
 397  80.13181
 398  -340.8374
 399  -544.5992
 400  -16.56501
 401  210.4572
 402  677.2838
 403  449.2151
 404  560.8345
 405  216.5697
 406  109.2603
 407  360.8426
 408  236.878
 409  488.0193
 410  719.3008
 411  907.9705
 412  479.7802
 413  345.0933
 414  706.2309
 415  569.7684
 416  965.9625
 417  913.063
 418  1154.161
 419  1022.636
 420  965.7584
 421  1591.573
 422  1469.833
 423  1494.511
 424  1149.601
 425  658.3782
 426  158.1596
 427  247.4364
 428  15.95619
 429  -192.4757
 430  358.8217
 431  386.0098
 432  200.4386
 433  349.7846
 434  279.6021
 435  407.1005
 436  501.6314
 437  734.2183
 438  694.7438
 439  921.8644
 440  1027.759
 441  1342.508
 442  1182.498
 443  1361.15
 444  1278.086
 445  1268.043
 446  1710.48
 447  1620.143
 448  1668.996
 449  1238.626
 450  1477.579
 451  1503.502
 452  982.9321
 453  850.7787
 454  634.6226
 455  600.6516
 456  340.5602
 457  272.4698
 458  361.877
 459  377.014
 460  156.4702
 461  329.7582
 462  233.8919
 463  -111.0619
 464  -491.9762
 465  -555.08
 466  25.64794
 467  62.50686
 468  641.6511
 469  507.569
 470  501.1854
 471  -48.31818
 472  -248.3584
 473  -299.1121
 474  -225.4869
 475  310.5261
 476  87.94881
 477  -173.441
 478  -51.45348
 479  386.1357
 480  786.5601
 481  433.6548
 482  404.0981
 483  18.58084
 484  -248.8827
 485  -624.4827
 486  -115.8675
 487  57.99633
 488  391.5532
 489  294.579
 490  66.40085
 491  336.735
 492  281.7312
 493  302.2038
 494  2.866594
 495  -26.42628
 496  14.01324
 497  275.9476
 498  379.9076
 499  697.7477
 500  635.1801
 501  250.7377
 502  56.3112
 503  83.77699
 504  -272.923
 505  -660.7216
 506  -881.856
 507  -547.8283
 508  -500.8524
 509  -183.8308
 510  -174.2353
 511  -293.5003
