# Input file       =  1204219305.114126_cleaned.dat
# Candidate        =  PSR_0332+5434
# Telescope        =  AR
# Epoch_topo       =  58181.723658728311
# Epoch_bary       =  N/A
# T_sample         =  0.002
# Data Folded      =  7340032
# Data Avg         =  0.0299717564960626
# Data StdDev      =  1.00004256884569 
# Profile Bins     =  512
# Profile Avg      =  429.48546967796  
# Profile StdDev   =  119.738133273915 
# Reduced chi-sqr  =  1.190
# Prob(Noise)      <  0.00194   (~2.9 sigma)
# P_topo (ms)      =  714.580394828505  +/- 0.000351
# P'_topo (s/s)    =  -0                +/- 1.85e-10
# P''_topo (s/s^2) =  0                 +/- 8.18e-14
# P_bary (ms)      =  N/A
# P'_bary (s/s)    =  N/A
# P''_bary (s/s^2) =  N/A
# P_orb (s)        =  N/A
# asin(i)/c (s)    =  N/A
# eccentricity     =  N/A
# w (rad)          =  N/A
# T_peri           =  N/A
######################################################
   0  474.4767
   1  438.2116
   2  355.6168
   3  283.9737
   4  233.5851
   5  302.5757
   6  396.4713
   7  316.653
   8  377.57
   9  341.6758
  10  432.0704
  11  422.4962
  12  369.4421
  13  336.5587
  14  439.6865
  15  464.3539
  16  455.2695
  17  477.0883
  18  462.3724
  19  473.3583
  20  469.9497
  21  456.7636
  22  453.9933
  23  423.6489
  24  401.3258
  25  481.9634
  26  446.1945
  27  400.6378
  28  418.2837
  29  454.5706
  30  647.4541
  31  597.286
  32  480.7952
  33  423.3736
  34  424.8826
  35  473.8331
  36  414.5901
  37  491.2428
  38  370.0887
  39  423.6263
  40  489.9926
  41  483.8399
  42  367.7693
  43  477.0141
  44  537.7636
  45  479.1328
  46  510.1509
  47  542.6939
  48  386.2896
  49  418.7383
  50  548.9403
  51  453.7704
  52  497.9237
  53  416.5242
  54  373.6583
  55  394.6076
  56  462.9284
  57  425.4812
  58  420.1084
  59  394.159
  60  414.1776
  61  458.2315
  62  426.4567
  63  487.6586
  64  480.6068
  65  445.4326
  66  438.4059
  67  407.4323
  68  509.644
  69  489.0364
  70  527.2682
  71  603.468
  72  417.3152
  73  390.5631
  74  336.8412
  75  287.3982
  76  377.6607
  77  452.7861
  78  360.9916
  79  312.847
  80  331.9327
  81  303.733
  82  396.6858
  83  479.4854
  84  444.53
  85  461.1848
  86  459.3463
  87  522.0527
  88  389.6454
  89  389.9002
  90  453.9785
  91  386.3398
  92  325.8626
  93  435.1438
  94  514.6013
  95  386.7597
  96  425.3547
  97  479.1545
  98  371.8395
  99  427.0133
 100  576.6226
 101  569.6238
 102  554.1013
 103  498.1387
 104  548.3112
 105  417.4805
 106  426.6557
 107  454.7878
 108  462.1607
 109  461.3279
 110  420.3531
 111  448.412
 112  527.5397
 113  472.0829
 114  397.8655
 115  495.98
 116  590.1425
 117  610.2674
 118  545.0371
 119  523.0726
 120  492.2343
 121  527.8981
 122  575.4056
 123  472.9504
 124  456.2365
 125  510.1155
 126  420.8103
 127  423.9722
 128  602.2216
 129  571.4478
 130  482.4958
 131  504.9575
 132  567.7167
 133  393.0088
 134  361.7599
 135  340.9317
 136  433.0515
 137  476.6814
 138  455.3265
 139  367.971
 140  489.0314
 141  466.4746
 142  491.1921
 143  427.9823
 144  374.3331
 145  474.1934
 146  556.1542
 147  415.9526
 148  464.0699
 149  495.4658
 150  482.9701
 151  424.3699
 152  507.6319
 153  530.8267
 154  472.8756
 155  511.5619
 156  438.551
 157  428.0349
 158  404.0816
 159  512.6369
 160  498.7408
 161  473.454
 162  398.3079
 163  426.3238
 164  492.3048
 165  485.9377
 166  453.6552
 167  322.491
 168  318.5776
 169  393.6489
 170  439.1247
 171  561.4873
 172  497.9875
 173  373.3166
 174  382.5106
 175  510.5005
 176  620.1369
 177  648.9434
 178  506.1696
 179  420.1296
 180  405.0175
 181  435.2214
 182  516.9284
 183  495.1423
 184  518.2606
 185  397.7532
 186  429.2487
 187  514.1629
 188  593.9711
 189  580.2473
 190  544.8766
 191  514.6011
 192  560.3605
 193  489.6828
 194  410.7971
 195  327.7401
 196  398.8335
 197  521.5239
 198  498.557
 199  484.4367
 200  532.8029
 201  500.8857
 202  476.9666
 203  479.72
 204  539.7984
 205  555.5458
 206  487.7017
 207  458.9011
 208  571.4608
 209  552.8665
 210  493.4059
 211  531.5319
 212  570.5529
 213  565.8057
 214  430.4273
 215  369.9609
 216  510.684
 217  522.9341
 218  434.817
 219  446.3903
 220  467.5306
 221  400.6949
 222  475.9018
 223  453.7119
 224  424.7622
 225  530.2537
 226  456.2755
 227  492.2642
 228  592.241
 229  560.5178
 230  534.9821
 231  514.9828
 232  540.6247
 233  581.431
 234  518.2166
 235  431.1754
 236  455.7126
 237  391.969
 238  451.3033
 239  454.4024
 240  434.1656
 241  391.8001
 242  492.4364
 243  548.4797
 244  525.5214
 245  504.7484
 246  506.6284
 247  507.0498
 248  493.6684
 249  639.7705
 250  512.3345
 251  566.0294
 252  647.393
 253  553.4175
 254  505.6161
 255  492.5751
 256  487.071
 257  559.6614
 258  572.4305
 259  595.3327
 260  408.1168
 261  485.1762
 262  517.2668
 263  371.432
 264  458.5234
 265  488.0421
 266  468.1639
 267  517.8614
 268  468.9791
 269  425.4409
 270  386.6209
 271  486.0149
 272  546.3752
 273  465.6337
 274  481.6802
 275  459.8756
 276  312.2543
 277  414.618
 278  511.2339
 279  374.6807
 280  289.6929
 281  348.3452
 282  346.6909
 283  465.3781
 284  527.5721
 285  427.0067
 286  378.8365
 287  458.4858
 288  533.9804
 289  510.5573
 290  465.9259
 291  417.3855
 292  453.959
 293  492.2411
 294  471.7247
 295  355.5086
 296  343.2875
 297  405.9426
 298  282.8458
 299  442.91
 300  406.4684
 301  408.608
 302  396.8631
 303  424.1757
 304  429.8166
 305  446.772
 306  386.6213
 307  331.1181
 308  264.491
 309  410.8123
 310  442.3049
 311  488.668
 312  475.4174
 313  501.9545
 314  441.252
 315  449.5047
 316  464.3331
 317  422.2193
 318  379.1624
 319  418.8083
 320  453.5623
 321  317.4128
 322  307.7229
 323  381.5256
 324  339.3498
 325  323.1357
 326  292.8314
 327  257.6729
 328  268.3646
 329  381.267
 330  425.855
 331  389.5116
 332  327.4196
 333  350.9247
 334  282.1303
 335  387.4387
 336  391.6904
 337  314.0991
 338  382.5637
 339  393.4377
 340  349.1433
 341  298.2454
 342  313.3291
 343  364.44
 344  307.0849
 345  399.0406
 346  471.0394
 347  307.1813
 348  246.4897
 349  170.0027
 350  279.6101
 351  396.0809
 352  390.5909
 353  297.9333
 354  380.6583
 355  444.3495
 356  322.2144
 357  304.2209
 358  358.0764
 359  306.6967
 360  296.8914
 361  243.3729
 362  212.2336
 363  384.6999
 364  308.05
 365  296.6216
 366  377.0539
 367  328.4898
 368  266.3423
 369  250.1339
 370  371.6996
 371  446.2634
 372  434.0693
 373  318.5862
 374  352.656
 375  342.8838
 376  334.8936
 377  309.9482
 378  268.55
 379  328.3018
 380  287.462
 381  216.6018
 382  223.2683
 383  191.5824
 384  227.2443
 385  390.9263
 386  407.3176
 387  458.5402
 388  341.3729
 389  275.5203
 390  262.8488
 391  360.9568
 392  440.291
 393  353.1228
 394  367.0759
 395  436.7234
 396  407.4089
 397  403.0803
 398  462.7963
 399  471.169
 400  485.7179
 401  735.8408
 402  854.2621
 403  827.7374
 404  885.2637
 405  863.9128
 406  522.4834
 407  350.4132
 408  408.2174
 409  537.4432
 410  364.9554
 411  320.8592
 412  463.4834
 413  507.1593
 414  378.9399
 415  392.116
 416  422.6776
 417  453.4218
 418  441.0718
 419  426.803
 420  449.0739
 421  401.3248
 422  308.7557
 423  366.9554
 424  356.9986
 425  386.8236
 426  363.7306
 427  308.1019
 428  354.8221
 429  396.5135
 430  332.8346
 431  335.8362
 432  400.2734
 433  350.3799
 434  316.5941
 435  361.9792
 436  394.2648
 437  457.0738
 438  451.728
 439  467.7826
 440  365.0797
 441  373.2094
 442  424.3532
 443  467.869
 444  538.6315
 445  410.1533
 446  317.9222
 447  266.274
 448  230.9083
 449  349.8264
 450  318.7152
 451  266.6772
 452  269.4365
 453  301.1881
 454  305.3794
 455  454.8739
 456  525.2238
 457  520.8925
 458  488.7849
 459  394.3297
 460  408.9153
 461  295.2138
 462  385.2631
 463  497.7563
 464  425.5817
 465  371.4186
 466  432.7569
 467  342.4289
 468  382.9609
 469  341.6916
 470  353.5804
 471  246.0693
 472  312.1671
 473  468.168
 474  323.4586
 475  263.3352
 476  295.1511
 477  369.2318
 478  435.6794
 479  414.3474
 480  356.5012
 481  499.3389
 482  589.238
 483  470.114
 484  436.2816
 485  415.7457
 486  393.0622
 487  410.7516
 488  412.8264
 489  421.419
 490  442.0439
 491  403.2421
 492  460.7002
 493  459.5726
 494  418.1406
 495  494.4497
 496  520.3781
 497  498.2895
 498  468.464
 499  360.8835
 500  373.2294
 501  250.8229
 502  294.4073
 503  314.7572
 504  335.4587
 505  310.084
 506  313.9736
 507  229.3689
 508  278.0617
 509  362.9756
 510  343.2812
 511  348.974
