# Input file       =  1204822943.102232_cleaned.dat
# Candidate        =  PSR_0332+5434
# Telescope        =  AR
# Epoch_topo       =  58188.710209516576
# Epoch_bary       =  N/A
# T_sample         =  0.002
# Data Folded      =  7340032
# Data Avg         =  0.162570005499999
# Data StdDev      =  4.73444853637361 
# Profile Bins     =  512
# Profile Avg      =  2330.67217282169 
# Profile StdDev   =  566.869898829549 
# Reduced chi-sqr  =  1.152
# Prob(Noise)      <  0.00987   (~2.3 sigma)
# P_topo (ms)      =  714.578936794707  +/- 0.000622
# P'_topo (s/s)    =  -0                +/- 3.28e-10
# P''_topo (s/s^2) =  0                 +/- 1.45e-13
# P_bary (ms)      =  N/A
# P'_bary (s/s)    =  N/A
# P''_bary (s/s^2) =  N/A
# P_orb (s)        =  N/A
# asin(i)/c (s)    =  N/A
# eccentricity     =  N/A
# w (rad)          =  N/A
# T_peri           =  N/A
######################################################
   0  1963.737
   1  1915.252
   2  1913.888
   3  2027.099
   4  2136.883
   5  2410.613
   6  2361.217
   7  2312.898
   8  2674.163
   9  2505.231
  10  2763.647
  11  2513.46
  12  2377.125
  13  2365.836
  14  1888.733
  15  2348.414
  16  2579.749
  17  2656.787
  18  2286.18
  19  2380.002
  20  2825.467
  21  2857.788
  22  2350.48
  23  2254.361
  24  2637.354
  25  2537.583
  26  2692.334
  27  2697.162
  28  2825.714
  29  3242.655
  30  3052.039
  31  3068.798
  32  2927.944
  33  2689.133
  34  3179.912
  35  3481.48
  36  3476.601
  37  3097.836
  38  2742.866
  39  2527.976
  40  2580.122
  41  2577.169
  42  1994.078
  43  2252.682
  44  2355.282
  45  2255.426
  46  2373.369
  47  2724.384
  48  2597.556
  49  2698.004
  50  2445.056
  51  2438.777
  52  2389.808
  53  2838.479
  54  2866.444
  55  2614.617
  56  2895.942
  57  2844.662
  58  2483.477
  59  2350.017
  60  2737.437
  61  2858.993
  62  2885.496
  63  2844.45
  64  2855.129
  65  3024.787
  66  2679.095
  67  2630.764
  68  2572.315
  69  2326.246
  70  2241.119
  71  2439.775
  72  2664.404
  73  2372.57
  74  2475.778
  75  2625.627
  76  2449.907
  77  2813.583
  78  2342.186
  79  2592.402
  80  2626.416
  81  2432.541
  82  2467.474
  83  2496.858
  84  2667.668
  85  2330.614
  86  2182.204
  87  2604.385
  88  2611.038
  89  2432.331
  90  2337.071
  91  2235.992
  92  2406.367
  93  2296.001
  94  2634.448
  95  3111.248
  96  2755.479
  97  2511.819
  98  2319.653
  99  2290.655
 100  2797.177
 101  2913.047
 102  3016.71
 103  2664.087
 104  2391.786
 105  2629.651
 106  2863.775
 107  2991.097
 108  2917.355
 109  2465.542
 110  2142.749
 111  2143.928
 112  1796.613
 113  2082.926
 114  2908.731
 115  2911.65
 116  2595.683
 117  2085.374
 118  2267.696
 119  2482.834
 120  2205.045
 121  2335.286
 122  2470.17
 123  2311.781
 124  2703.894
 125  2895.07
 126  2682.336
 127  2860.497
 128  2526.124
 129  2654.134
 130  2819.596
 131  2979.685
 132  2674.868
 133  2591.773
 134  2863.652
 135  2406.938
 136  2591.643
 137  2700.139
 138  2573.326
 139  2656.662
 140  3442.563
 141  3469.957
 142  3712.403
 143  4042.998
 144  4573.565
 145  4140.564
 146  4084.796
 147  3704.237
 148  2815.469
 149  2808.012
 150  2813.242
 151  3061.819
 152  2597.597
 153  2684.61
 154  2941.046
 155  2568.725
 156  2465.118
 157  2542.192
 158  2901.883
 159  2813.605
 160  2714.208
 161  2775.72
 162  2612.558
 163  2623.539
 164  2404.97
 165  2392.97
 166  2088.74
 167  1843.865
 168  2008.625
 169  2424.315
 170  2133.066
 171  2110.905
 172  1986.907
 173  2577.207
 174  2714.575
 175  2285.773
 176  2208.791
 177  2191.981
 178  2160.618
 179  2246.215
 180  2686.504
 181  2980.062
 182  2629.453
 183  2873.074
 184  2945.013
 185  2621.361
 186  2179.764
 187  2715.864
 188  2926.179
 189  3134.243
 190  2859.673
 191  2742.635
 192  2704.347
 193  2669.533
 194  2839.627
 195  2774.711
 196  2783.791
 197  2866.879
 198  2671.154
 199  2947.062
 200  3029.117
 201  2693.578
 202  2256.438
 203  2503.272
 204  2650.082
 205  2568.757
 206  2741.866
 207  2590.776
 208  2595.036
 209  2762.351
 210  2452.515
 211  2057.366
 212  1715.762
 213  2267.101
 214  2134.835
 215  2037.154
 216  1969.703
 217  1940.136
 218  2067.277
 219  1950.166
 220  2085.43
 221  2079.879
 222  1835.119
 223  1937.781
 224  2207.19
 225  2578.163
 226  2330.467
 227  2126.788
 228  2218.883
 229  2098.577
 230  2425.163
 231  2746.738
 232  2825.69
 233  2713.73
 234  2263.231
 235  2179.508
 236  2198.765
 237  2226.908
 238  2043.059
 239  2080.261
 240  2438.225
 241  2376.809
 242  2489.958
 243  2405.514
 244  2360.861
 245  2180.218
 246  2220.163
 247  2254.153
 248  2022.352
 249  2023.625
 250  1930.423
 251  2092.296
 252  2112.046
 253  1874.446
 254  2159.776
 255  2002.029
 256  1449.804
 257  1586.004
 258  1715.583
 259  2001.619
 260  2238.981
 261  2122.68
 262  2100.542
 263  1839
 264  2033.468
 265  1998.636
 266  2444.371
 267  2237.104
 268  2067.014
 269  2165.174
 270  2279.423
 271  2274.185
 272  2231.996
 273  2646.934
 274  2367.823
 275  2206.639
 276  2233.41
 277  2512.778
 278  2251.247
 279  2035.755
 280  2238.625
 281  1973.263
 282  2023.313
 283  1976.439
 284  1966.537
 285  1849.034
 286  2121.624
 287  2075.653
 288  1533.624
 289  1876.985
 290  2021.836
 291  1625.057
 292  1575.318
 293  1943.529
 294  2102.924
 295  1842.448
 296  1710.576
 297  1906.448
 298  1379.427
 299  1542.409
 300  1687.781
 301  1388.957
 302  1414.85
 303  1443.311
 304  1607.877
 305  1227.513
 306  1294.624
 307  1322.479
 308  1783.222
 309  1675.88
 310  1708.127
 311  1845.055
 312  1659.793
 313  1791.139
 314  1779.542
 315  2215.642
 316  1991.621
 317  1483.37
 318  2319.253
 319  1998.49
 320  1925.799
 321  1950.674
 322  2133.256
 323  2127.477
 324  2155.261
 325  1987.667
 326  1956.36
 327  2109.103
 328  2206.92
 329  2336.609
 330  2506.578
 331  2478.825
 332  2229.035
 333  2024.267
 334  2309.3
 335  2141.93
 336  2319.835
 337  2476.587
 338  2588.32
 339  2284.425
 340  2371.77
 341  2220.702
 342  2251.976
 343  2212.028
 344  2515.547
 345  2796.633
 346  2454.541
 347  2119.078
 348  2273.939
 349  2182.512
 350  2298.507
 351  2642.03
 352  2986.846
 353  2745.873
 354  2344.522
 355  1857.768
 356  2202.655
 357  2301.288
 358  2382.362
 359  2416.759
 360  2509.465
 361  2389.142
 362  1827.652
 363  1844.024
 364  2066.859
 365  2528.425
 366  2705.693
 367  2419.587
 368  1996.131
 369  1538.503
 370  1684.465
 371  2189.229
 372  2414.447
 373  2367.4
 374  2568.435
 375  2911.127
 376  2731.952
 377  2496.909
 378  2762.279
 379  2822.572
 380  2351.031
 381  2106.261
 382  2061.492
 383  1883.884
 384  1954.692
 385  1859.251
 386  1462.958
 387  1852.681
 388  2212.053
 389  2128.035
 390  1461.558
 391  1573.638
 392  1945.023
 393  1841.85
 394  2172.678
 395  2053.749
 396  1737.079
 397  2110.876
 398  1714.083
 399  1488.248
 400  1642.284
 401  1971.54
 402  1930.675
 403  1660.475
 404  1431.653
 405  1706.549
 406  1694.014
 407  1701.783
 408  1997.636
 409  2170.883
 410  2107.533
 411  2212.827
 412  1917.006
 413  1608.209
 414  1833.752
 415  1581.937
 416  2012.954
 417  2077.062
 418  2058.299
 419  1667.977
 420  1952.164
 421  2311.056
 422  2547.907
 423  2366.469
 424  2301.191
 425  2199.264
 426  1961.374
 427  1897.251
 428  2036.156
 429  2547.554
 430  2453.097
 431  2144.881
 432  2109.127
 433  2364.885
 434  2414.913
 435  1706.057
 436  1926.714
 437  2039.186
 438  2039.384
 439  2118.702
 440  2919.776
 441  2701.967
 442  1949.109
 443  1887.206
 444  1960.209
 445  1920.629
 446  2310.152
 447  2618.024
 448  2083.535
 449  2089.5
 450  1988.636
 451  2078.879
 452  1948.324
 453  2024.021
 454  1838.101
 455  2068.94
 456  2095.068
 457  1914.298
 458  1920.345
 459  2152.737
 460  2432.265
 461  2144.202
 462  2178.529
 463  2231.9
 464  2049.602
 465  2165.65
 466  2027.261
 467  2524.526
 468  2099.6
 469  1907.425
 470  2261.604
 471  2392.854
 472  2301.082
 473  2566.997
 474  2693.078
 475  2414.194
 476  1921.122
 477  1922.138
 478  2002.35
 479  2171.209
 480  2132.547
 481  1826.292
 482  1537.341
 483  1688.427
 484  2205.911
 485  2295.41
 486  2411.632
 487  2354.064
 488  2516.748
 489  2746.876
 490  2758.763
 491  2889.231
 492  2833.494
 493  2766.119
 494  2824.818
 495  2997.782
 496  3161.015
 497  2950.749
 498  2599.937
 499  2396.603
 500  2327.254
 501  2014.237
 502  1718.82
 503  2174.063
 504  1994.735
 505  2133.546
 506  1787.999
 507  1680.887
 508  2106.202
 509  2185.314
 510  1991.642
 511  2218.029
