# Input file       =  1204534384.116725_cleaned.dat
# Candidate        =  PSR_0332+5434
# Telescope        =  AR
# Epoch_topo       =  58185.370406443573
# Epoch_bary       =  N/A
# T_sample         =  0.002
# Data Folded      =  7405568
# Data Avg         =  0.273547827211555
# Data StdDev      =  6.54527003437186 
# Profile Bins     =  512
# Profile Avg      =  3956.58597542023 
# Profile StdDev   =  787.175874425562 
# Reduced chi-sqr  =  1.087
# Prob(Noise)      <  0.086   (~1.4 sigma)
# P_topo (ms)      =  714.579384523657  +/- 3.33e-05
# P'_topo (s/s)    =  -0                +/- 1.74e-11
# P''_topo (s/s^2) =  0                 +/- 7.61e-15
# P_bary (ms)      =  N/A
# P'_bary (s/s)    =  N/A
# P''_bary (s/s^2) =  N/A
# P_orb (s)        =  N/A
# asin(i)/c (s)    =  N/A
# eccentricity     =  N/A
# w (rad)          =  N/A
# T_peri           =  N/A
######################################################
   0  4169.899
   1  4521.389
   2  4070.945
   3  4196.453
   4  4227.904
   5  3805.593
   6  2850.359
   7  3051.012
   8  3674.233
   9  4000.205
  10  4592.022
  11  4029.31
  12  4756.675
  13  5168.846
  14  3995.321
  15  3595.061
  16  2746.534
  17  3359.201
  18  4211.009
  19  4130.512
  20  4391.262
  21  4698.956
  22  4158.957
  23  3013.528
  24  3469.102
  25  4417.661
  26  4696.167
  27  4277.514
  28  4780.583
  29  5184.83
  30  4787.038
  31  3898.294
  32  3684.482
  33  3860.234
  34  3604.462
  35  3560.701
  36  3891.659
  37  4204.275
  38  3839.291
  39  2837.443
  40  2704.942
  41  4134.785
  42  4609.755
  43  4069.49
  44  4146.05
  45  4671.403
  46  4373.203
  47  4380.604
  48  4008.084
  49  3986.559
  50  4268.023
  51  4164.036
  52  3761.781
  53  4063.906
  54  4343.041
  55  3333.435
  56  2422.267
  57  3028.472
  58  4266.755
  59  4780.667
  60  4454.551
  61  4358.565
  62  4397.645
  63  4216.761
  64  3109.365
  65  3717.749
  66  4576.637
  67  4193.58
  68  3820.387
  69  3392.982
  70  3507.724
  71  3270.034
  72  2832.511
  73  2638.542
  74  3589.237
  75  4714.351
  76  4484.494
  77  4334.499
  78  4376.864
  79  4393.009
  80  3446.452
  81  3147.105
  82  3357.008
  83  3850.935
  84  4355.608
  85  4214.204
  86  4142.608
  87  4378.413
  88  3499.933
  89  2948.89
  90  2931.971
  91  3981.822
  92  4889.907
  93  4563.232
  94  4881.43
  95  5564.049
  96  4660.757
  97  3766.8
  98  3177.106
  99  3715.286
 100  3995.915
 101  4151.861
 102  3931.773
 103  4138.453
 104  4488.742
 105  3633.287
 106  3057.705
 107  3972.866
 108  4399.692
 109  4488.91
 110  4554.015
 111  5176.998
 112  5062.68
 113  4281.954
 114  4114.902
 115  4084.156
 116  3900.133
 117  3993.443
 118  3809.921
 119  4295.783
 120  4404.465
 121  3676.149
 122  2880.754
 123  3316.702
 124  4072.361
 125  4048.143
 126  4009.551
 127  4320.424
 128  5013.952
 129  4892.953
 130  4397.894
 131  3982.409
 132  3955.491
 133  4012.746
 134  3887.672
 135  3298.563
 136  3391.113
 137  3688.304
 138  3045.811
 139  3101.727
 140  3426.54
 141  4177.336
 142  4144.007
 143  4156.002
 144  4819.547
 145  4702.55
 146  4003.907
 147  3598
 148  4283.311
 149  4485.151
 150  4232.708
 151  3756.007
 152  3664.225
 153  3895.09
 154  3270.646
 155  3050.508
 156  3281.557
 157  4140.892
 158  4662.675
 159  4319.558
 160  4871.022
 161  4840.629
 162  4430.851
 163  3960.297
 164  3564.04
 165  3447.829
 166  3387.006
 167  3460.058
 168  3729.878
 169  3862.751
 170  3631.909
 171  2824.185
 172  2454.671
 173  2794.94
 174  3755.155
 175  4310.771
 176  4188.843
 177  4434.752
 178  4325.623
 179  3615.15
 180  3059.475
 181  3129.613
 182  3368.473
 183  3757.343
 184  3703.384
 185  4061.386
 186  3919.747
 187  3258.074
 188  2421.467
 189  2658.882
 190  3588.631
 191  3750.813
 192  4129.884
 193  4609.167
 194  4837.452
 195  4496.643
 196  3781.518
 197  3579.636
 198  3761.265
 199  3826.524
 200  3605.704
 201  3676.991
 202  4525.785
 203  4551.438
 204  3411.471
 205  3135.554
 206  4029.891
 207  4763.372
 208  4641.835
 209  4100.827
 210  4397.569
 211  4682.674
 212  4452.587
 213  4316.28
 214  4339.706
 215  3965.774
 216  4050.193
 217  3617.953
 218  3659.083
 219  3730.552
 220  3506.224
 221  3048.299
 222  3536.155
 223  4140.943
 224  4519.258
 225  4262.963
 226  4337.946
 227  4724.911
 228  4523.124
 229  3556.926
 230  3556.743
 231  3972.331
 232  4459.667
 233  4133.943
 234  3699.767
 235  4140.136
 236  3776.774
 237  3020.79
 238  2549.544
 239  3436.642
 240  4331.038
 241  4389.693
 242  4339.382
 243  4665.141
 244  4669.56
 245  4099.781
 246  3541.521
 247  3635.471
 248  4457.422
 249  3757.697
 250  3249.898
 251  3645.599
 252  3910.321
 253  3317.747
 254  2673.929
 255  3045.679
 256  4221.212
 257  4893.002
 258  4860.342
 259  4582.991
 260  4777.179
 261  3932.396
 262  3365.63
 263  3525.191
 264  4064.05
 265  3889.532
 266  4094.725
 267  4067.575
 268  4307.294
 269  4431.096
 270  3424.236
 271  2443.074
 272  3180.781
 273  4050.45
 274  4230.461
 275  4216.271
 276  4901.781
 277  5432.374
 278  4570.14
 279  3756.341
 280  3405.003
 281  3460.454
 282  3660.498
 283  3406.657
 284  3656.416
 285  4010.725
 286  3630.116
 287  3330.843
 288  3064.772
 289  4264.803
 290  4687.078
 291  4423.189
 292  3890.11
 293  4553.253
 294  4553.793
 295  4374.233
 296  4039.016
 297  4179.929
 298  4297.75
 299  4232.371
 300  4017.733
 301  4349.096
 302  4556.339
 303  4168.842
 304  4226.299
 305  5089.83
 306  5629.554
 307  4804.295
 308  4471.95
 309  4833.463
 310  4953.516
 311  4232.863
 312  3596.389
 313  2920.188
 314  3781.19
 315  4032.459
 316  3741.274
 317  3240.219
 318  3894.24
 319  3854.906
 320  2520.593
 321  2777.234
 322  3490.798
 323  4366.373
 324  4329.604
 325  4544.544
 326  4881.729
 327  4183.166
 328  3479.135
 329  3491.918
 330  3897.64
 331  4446.752
 332  3971.496
 333  3765.588
 334  4130.783
 335  3982.831
 336  3364
 337  2789.99
 338  3111.811
 339  4045.544
 340  4330.925
 341  4629.018
 342  4849.629
 343  4895.257
 344  4379.291
 345  4043.264
 346  4025.182
 347  4514.862
 348  4729.208
 349  4410.547
 350  4142.973
 351  4266.922
 352  3578.97
 353  2970.423
 354  3089.359
 355  4166.236
 356  4706.809
 357  4390.617
 358  4682.441
 359  5058.51
 360  4982.871
 361  4184.082
 362  4188.335
 363  4535.048
 364  3893.246
 365  3753.542
 366  3641.843
 367  3790.869
 368  3770.861
 369  3684.794
 370  3412.38
 371  4063.155
 372  4706.718
 373  4382.059
 374  4362.85
 375  4662.369
 376  4884.891
 377  4525.256
 378  4262.856
 379  3997.874
 380  3688.104
 381  3983.433
 382  3678.766
 383  3817.011
 384  4283.965
 385  3721.143
 386  3158.116
 387  2982.061
 388  3994.508
 389  4424.297
 390  4289.263
 391  4242.88
 392  4831.725
 393  4706.758
 394  4119.739
 395  4034.08
 396  4419.516
 397  4383.376
 398  4044.474
 399  3693.162
 400  3550.264
 401  3223.746
 402  3137.896
 403  3213.691
 404  3745.656
 405  4516.271
 406  4460.834
 407  4711.214
 408  4302.191
 409  4677.094
 410  4132.443
 411  3494.641
 412  3692.686
 413  3958.302
 414  4430.936
 415  3996.786
 416  4015.542
 417  4162.23
 418  3292.946
 419  2376.879
 420  2798.389
 421  4249.792
 422  4679.67
 423  4675.813
 424  4691.445
 425  5282.063
 426  4153.264
 427  3424.165
 428  3190.335
 429  3717.99
 430  4391.942
 431  3927.804
 432  3594.568
 433  3657.774
 434  3819.01
 435  3582.845
 436  2804.895
 437  3334.747
 438  4276.45
 439  4462.871
 440  4295.313
 441  4391.539
 442  4454.593
 443  4110.277
 444  3710.908
 445  3403.122
 446  3712.965
 447  3703.87
 448  3595.331
 449  3509.345
 450  3505.615
 451  3069.698
 452  2331.594
 453  2211.866
 454  3263.355
 455  4038.933
 456  3628.656
 457  4022.554
 458  4880.004
 459  4423.656
 460  4051.233
 461  3805.069
 462  3404.628
 463  3388.647
 464  3409.281
 465  3857.252
 466  3903.952
 467  4143.486
 468  3162.858
 469  2402.209
 470  3307.256
 471  3999.85
 472  4432.155
 473  3876.928
 474  4017.508
 475  4267.058
 476  4018.375
 477  3784.207
 478  4047.413
 479  4063.099
 480  3935.527
 481  3332.906
 482  3430.983
 483  3634.268
 484  3585.29
 485  2988.888
 486  3001.522
 487  4026.431
 488  4494.368
 489  3979.926
 490  3967.907
 491  4161.723
 492  4412.868
 493  3607.283
 494  3918.67
 495  4325.698
 496  4515.755
 497  4236.692
 498  3810.487
 499  3989.196
 500  3834.402
 501  3057.98
 502  2045.2
 503  3023.737
 504  4461.471
 505  4745.729
 506  4585.819
 507  4815.892
 508  4943.567
 509  3738.123
 510  3422.672
 511  3321.564
