# Input file       =  1204305439.103577_cleaned.dat
# Candidate        =  PSR_0332+5434
# Telescope        =  AR
# Epoch_topo       =  58182.720579902511
# Epoch_bary       =  N/A
# T_sample         =  0.002
# Data Folded      =  7340032
# Data Avg         =  0.170976196862675
# Data StdDev      =  5.46736135321993 
# Profile Bins     =  512
# Profile Avg      =  2451.13838084576 
# Profile StdDev   =  654.623775790007 
# Reduced chi-sqr  =  0.692
# Prob(Noise)      <  1   (~0.0 sigma)
# P_topo (ms)      =  714.580235737108  +/- 0.000483
# P'_topo (s/s)    =  -0                +/- 2.55e-10
# P''_topo (s/s^2) =  0                 +/- 1.12e-13
# P_bary (ms)      =  N/A
# P'_bary (s/s)    =  N/A
# P''_bary (s/s^2) =  N/A
# P_orb (s)        =  N/A
# asin(i)/c (s)    =  N/A
# eccentricity     =  N/A
# w (rad)          =  N/A
# T_peri           =  N/A
######################################################
   0  2842.949
   1  2968.17
   2  2886.945
   3  2834.371
   4  2622.745
   5  2358.127
   6  2234.384
   7  2328.206
   8  2032.822
   9  2151.316
  10  2389.855
  11  2545.646
  12  2190.987
  13  1959.449
  14  2089.096
  15  2389.825
  16  2772.724
  17  2658.052
  18  2129.94
  19  2023.508
  20  2192.731
  21  2015.609
  22  2095.156
  23  1969.067
  24  1845.314
  25  1898.331
  26  2090.27
  27  1831.974
  28  1790.322
  29  1883.692
  30  1766.028
  31  2030.134
  32  2521.508
  33  2518.619
  34  2659.16
  35  2516.985
  36  2354.418
  37  2602.809
  38  2907.75
  39  3005.542
  40  2871.195
  41  2663.633
  42  2678.972
  43  2542.751
  44  2556.905
  45  2497.868
  46  2690.638
  47  3074.069
  48  2577.529
  49  2269.39
  50  2449.295
  51  2015.843
  52  1956.455
  53  2008.424
  54  2245.75
  55  2156.865
  56  2210.13
  57  2153.02
  58  2534.025
  59  2705.512
  60  2512.119
  61  2417.948
  62  2773.544
  63  2618.432
  64  2895.565
  65  2999.218
  66  2761.321
  67  2613.466
  68  2613.757
  69  2825.79
  70  2727.931
  71  2699.872
  72  2479.543
  73  2304.731
  74  2128.522
  75  1891.576
  76  2004.106
  77  2236.232
  78  2102.474
  79  2227.52
  80  2320.772
  81  2290.221
  82  2049.989
  83  1905.1
  84  2368.495
  85  2592.669
  86  2860.849
  87  2287.111
  88  2014.32
  89  2094.891
  90  2164.656
  91  2113.971
  92  2264.328
  93  1919.347
  94  1694.677
  95  2125.812
  96  1926.531
  97  1892.322
  98  2406.771
  99  2313.291
 100  2248.729
 101  2272.148
 102  2381.842
 103  2501.154
 104  2326.163
 105  2307.795
 106  2323.339
 107  2877.09
 108  2907.475
 109  2297.055
 110  1779.313
 111  2392.959
 112  2614.633
 113  2805.23
 114  2869.454
 115  2979.322
 116  2795.53
 117  2551.208
 118  2687.269
 119  2639.366
 120  2542.386
 121  2522.514
 122  2173.61
 123  2154.787
 124  2594.548
 125  2673.483
 126  2376.382
 127  2122.434
 128  2138.352
 129  2091.126
 130  1835.556
 131  2079.377
 132  2130.192
 133  2236.999
 134  2292.521
 135  2316.83
 136  2120.919
 137  2246.068
 138  2429.121
 139  2660.943
 140  2746.679
 141  2570.657
 142  2515.011
 143  2375.503
 144  2304.999
 145  2316.505
 146  2496.683
 147  2448.644
 148  2548.113
 149  2276.248
 150  2103.061
 151  2512.098
 152  2601.363
 153  2632.01
 154  2698.035
 155  2802.299
 156  2751.245
 157  2668.982
 158  2446.321
 159  2667.727
 160  2632.782
 161  2537.876
 162  2631.995
 163  2725.746
 164  2795.832
 165  2463.613
 166  2691.77
 167  2563.403
 168  2459.427
 169  2552.439
 170  2820.536
 171  2738.534
 172  3191.826
 173  3456.163
 174  2815.651
 175  2431.28
 176  2697.232
 177  2430.386
 178  2218.592
 179  2143.728
 180  2017.377
 181  2134.858
 182  2037.141
 183  2205.36
 184  2045.426
 185  2109.18
 186  1791.8
 187  1845.82
 188  2123.019
 189  1876.753
 190  1925.475
 191  2383.112
 192  2103.211
 193  1773.018
 194  1964.508
 195  2609.836
 196  2462.96
 197  2119.308
 198  2286.477
 199  2201.659
 200  2073.642
 201  2419.965
 202  2588.081
 203  2525.47
 204  2675.798
 205  2607.305
 206  2240.574
 207  1999.115
 208  2181.084
 209  2049.707
 210  2122.614
 211  1995.039
 212  2227.309
 213  2623.074
 214  2451.6
 215  1930.341
 216  2055.548
 217  1974.407
 218  2095.158
 219  2456.793
 220  2693.296
 221  2323.612
 222  2079.891
 223  2345.332
 224  2386.939
 225  2227.441
 226  2568.789
 227  2464.727
 228  2395.249
 229  2593.465
 230  2425.79
 231  2481.988
 232  2408.572
 233  2737.134
 234  3202.918
 235  3226.565
 236  2931.118
 237  2804.757
 238  2745.84
 239  2858.732
 240  2330.277
 241  2675.797
 242  2525.357
 243  2315.442
 244  2619.188
 245  2475.489
 246  2136.289
 247  2190.574
 248  2377.708
 249  2745.849
 250  2440.389
 251  2327.75
 252  2261.077
 253  2287.945
 254  2908.813
 255  2312.411
 256  2167.262
 257  2391.649
 258  2406.872
 259  2401.624
 260  2739.026
 261  3249.576
 262  2774.124
 263  2510.116
 264  2505.405
 265  2722.458
 266  2586.102
 267  3287.408
 268  2759.075
 269  3024.134
 270  3606.554
 271  3377.193
 272  3479.406
 273  3331.019
 274  3109.708
 275  3329.136
 276  3197.906
 277  3520.023
 278  3500.725
 279  3451.709
 280  3003.366
 281  2635.419
 282  2764.858
 283  2546.29
 284  2644.962
 285  2758.312
 286  2855.469
 287  2755.282
 288  2514.749
 289  2550.627
 290  2473.145
 291  2762.386
 292  2766.512
 293  3295.937
 294  3602.978
 295  3323.07
 296  3561.481
 297  3353.115
 298  3050.901
 299  3075.533
 300  3128.1
 301  3225.959
 302  2994.294
 303  2860.987
 304  3171.05
 305  2670.146
 306  2419.802
 307  3056.602
 308  3334.471
 309  3135.834
 310  2900.187
 311  2941.79
 312  3097.772
 313  3025.861
 314  2841.695
 315  2883.56
 316  2921.291
 317  2873.496
 318  2684.007
 319  2627.188
 320  2973.492
 321  2668.161
 322  2741.569
 323  2915.826
 324  2468.086
 325  2504.92
 326  2718.46
 327  2765.996
 328  2334.993
 329  1740.873
 330  1966.33
 331  1975.374
 332  2148.409
 333  2121.063
 334  1994.823
 335  2289.261
 336  2085.133
 337  1682.576
 338  1620.782
 339  1850.536
 340  2139.18
 341  1990.923
 342  2045.979
 343  2031.182
 344  2159.033
 345  2437.684
 346  2499.035
 347  1993.83
 348  1941.26
 349  1932.668
 350  2173.099
 351  2563.105
 352  2859.447
 353  2545.149
 354  2242.205
 355  2360.676
 356  2315.384
 357  2239.403
 358  2166.856
 359  2064.659
 360  2230.922
 361  2461.008
 362  1960.548
 363  1778.205
 364  2175.288
 365  2338.161
 366  2395.428
 367  2118.097
 368  2162.184
 369  2028.594
 370  1943.422
 371  2115.775
 372  1548.322
 373  1295.531
 374  2054.618
 375  2385.878
 376  2459.165
 377  2776.137
 378  2870.478
 379  2737.451
 380  2852.476
 381  2487.331
 382  2651.47
 383  2513.681
 384  2690.577
 385  3095.9
 386  2771.417
 387  2696.581
 388  2494.201
 389  2243.635
 390  2247.88
 391  2617.614
 392  2404.245
 393  2723.712
 394  2824.441
 395  2788.885
 396  2122.024
 397  1929.828
 398  2111.021
 399  2313.526
 400  2326.001
 401  2252.785
 402  2068.691
 403  1890.847
 404  2087.574
 405  2241.502
 406  2339.394
 407  2659.441
 408  2599.868
 409  2657.844
 410  2323.699
 411  1857.873
 412  2131.433
 413  2021.633
 414  2447.839
 415  2706.528
 416  2264.179
 417  2460.222
 418  2896.028
 419  2807.549
 420  2646.997
 421  2767.057
 422  2741.645
 423  2741.61
 424  3073.977
 425  2921.026
 426  2509.093
 427  2545.287
 428  2628.849
 429  2131.831
 430  1962.755
 431  1767.734
 432  1453.451
 433  1874.501
 434  1983.895
 435  2166.28
 436  2339.812
 437  2464.404
 438  1900.394
 439  2032.95
 440  2356.303
 441  2401.571
 442  2402.064
 443  2171.742
 444  2368.985
 445  2338.326
 446  2314.49
 447  2246.338
 448  2318.718
 449  2572.108
 450  2426.542
 451  2448.037
 452  2244.575
 453  2181.589
 454  1924.551
 455  1837.081
 456  1871.232
 457  2199.827
 458  2040.274
 459  2358.351
 460  2562.227
 461  2768.634
 462  2719.802
 463  2669.732
 464  2747.861
 465  3245.425
 466  3778.268
 467  3851.136
 468  3509.97
 469  3040.846
 470  2603.808
 471  2677.441
 472  2317.413
 473  2049.658
 474  2250.987
 475  2615.857
 476  2802.736
 477  2108.767
 478  2258.102
 479  2536.575
 480  2522.792
 481  2655.081
 482  2880.069
 483  2276.44
 484  2225.133
 485  2293.091
 486  2499.156
 487  2596.676
 488  2734.749
 489  2710.175
 490  2587.056
 491  2447.712
 492  1836.483
 493  1890.718
 494  2346.732
 495  2466.741
 496  2353.27
 497  2575.707
 498  2248.931
 499  1917.663
 500  2068.156
 501  1460.312
 502  1727.727
 503  2074.877
 504  2191.732
 505  2020.194
 506  2280.721
 507  2623.136
 508  2604.781
 509  2609.361
 510  2536.468
 511  2568.562
