# Input file       =  1204275953.111562-PSRB0329-2ms-sampling-dd.dat
# Candidate        =  PSR_0332+5434
# Telescope        =  AR
# Epoch_topo       =  58182.379306846786
# Epoch_bary       =  N/A
# T_sample         =  0.002
# Data Folded      =  7143424
# Data Avg         =  7.43947896106474e-10
# Data StdDev      =  6.32218884462324 
# Profile Bins     =  512
# Profile Avg      =  0.0133109642601169
# Profile StdDev   =  746.767997153949 
# Reduced chi-sqr  =  0.914
# Prob(Noise)      <  0.918   (~0.0 sigma)
# P_topo (ms)      =  714.579943433929  +/- 5.27e-05
# P'_topo (s/s)    =  -0                +/- 2.86e-11
# P''_topo (s/s^2) =  0                 +/- 1.3e-14
# P_bary (ms)      =  N/A
# P'_bary (s/s)    =  N/A
# P''_bary (s/s^2) =  N/A
# P_orb (s)        =  N/A
# asin(i)/c (s)    =  N/A
# eccentricity     =  N/A
# w (rad)          =  N/A
# T_peri           =  N/A
######################################################
   0  406.0351
   1  309.944
   2  108.7607
   3  33.45241
   4  -325.4971
   5  -332.0651
   6  -348.4612
   7  -317.7209
   8  -278.7146
   9  130.1545
  10  68.24079
  11  -474.4351
  12  -752.028
  13  -1016.286
  14  -807.1359
  15  -546.209
  16  -122.0812
  17  333.9023
  18  688.5702
  19  765.1457
  20  228.1144
  21  -543.429
  22  -825.0126
  23  -634.9259
  24  -405.8777
  25  -116.9607
  26  114.3028
  27  -186.8981
  28  -324.8239
  29  -624.4445
  30  -489.9752
  31  -797.0211
  32  -611.2612
  33  86.95231
  34  222.9724
  35  406.2701
  36  54.19186
  37  -191.1563
  38  -595.6655
  39  -953.5934
  40  -895.5558
  41  -1214.186
  42  -535.6874
  43  -190.8553
  44  -236.9435
  45  -660.5558
  46  -596.8392
  47  -766.3159
  48  -399.3102
  49  -168.2776
  50  -10.95908
  51  498.5218
  52  493.9343
  53  469.8892
  54  -202.9839
  55  -460.7679
  56  -630.4184
  57  -326.3831
  58  515.8551
  59  276.5829
  60  -247.1331
  61  -380.383
  62  -426.6253
  63  -397.8951
  64  -178.6313
  65  123.1665
  66  223.2195
  67  113.4668
  68  223.4853
  69  141.4641
  70  -37.93855
  71  -343.0055
  72  -289.7519
  73  -219.1548
  74  -91.8783
  75  -38.59856
  76  -498.4233
  77  -721.8017
  78  -652.5015
  79  -730.075
  80  -525.138
  81  -167.6261
  82  56.63126
  83  335.6709
  84  478.5577
  85  13.86278
  86  119.4715
  87  -127.4996
  88  -216.8877
  89  -235.3028
  90  -214.2969
  91  216.3284
  92  405.6509
  93  454.7796
  94  -290.9016
  95  -780.3105
  96  -638.1918
  97  -892.6897
  98  -520.6852
  99  72.30696
 100  618.4788
 101  606.8939
 102  722.0277
 103  425.7741
 104  -224.6182
 105  -741.6556
 106  -613.5944
 107  -426.82
 108  229.8125
 109  536.3946
 110  170.4301
 111  322.1099
 112  -102.4451
 113  -455.9201
 114  -94.56416
 115  -173.649
 116  222.5816
 117  774.1307
 118  1161.045
 119  812.7882
 120  519.7557
 121  136.7056
 122  -331.32
 123  -215.5682
 124  -165.7876
 125  166.25
 126  291.208
 127  367.9646
 128  18.09437
 129  -297.8951
 130  -425.6404
 131  -270.4856
 132  424.9643
 133  569.3279
 134  911.8837
 135  540.6208
 136  594.7957
 137  30.80945
 138  -187.3361
 139  111.3461
 140  315.5518
 141  248.3781
 142  132.4472
 143  -408.9316
 144  -135.979
 145  -136.0216
 146  -202.3769
 147  -78.70785
 148  226.0969
 149  630.7244
 150  670.171
 151  970.1649
 152  1301.619
 153  1621.383
 154  1918.389
 155  1658.739
 156  1153.838
 157  862.0938
 158  531.5504
 159  -50.62018
 160  -281.6009
 161  79.53428
 162  246.41
 163  290.0711
 164  429.9297
 165  471.866
 166  588.8644
 167  855.2468
 168  825.652
 169  343.4148
 170  31.99524
 171  -65.51784
 172  -3.065355
 173  257.7328
 174  542.0435
 175  152.8703
 176  -227.6453
 177  -536.5949
 178  -765.5802
 179  -597.1044
 180  -549.1826
 181  -174.2893
 182  343.394
 183  366.9739
 184  583.8445
 185  224.388
 186  -503.723
 187  -767.444
 188  -574.575
 189  -549.1105
 190  -373.502
 191  205.7791
 192  47.00686
 193  -356.0486
 194  -509.4222
 195  -802.056
 196  -856.0598
 197  -697.971
 198  192.0538
 199  899.8573
 200  903.4713
 201  589.2281
 202  -273.7388
 203  -629.1566
 204  -726.8037
 205  -277.6611
 206  -82.34373
 207  -136.7305
 208  -120.0388
 209  -148.4723
 210  -534.9189
 211  -544.5394
 212  -431.0039
 213  -325.3892
 214  119.1504
 215  263.19
 216  -61.37829
 217  -356.9016
 218  45.09435
 219  -350.5618
 220  -669.5139
 221  -510.2856
 222  -500.0482
 223  -264.6909
 224  -325.2852
 225  -575.6342
 226  -649.1949
 227  -606.1965
 228  -151.0977
 229  -226.7377
 230  -158.6412
 231  68.90772
 232  699.0859
 233  640.3874
 234  299.868
 235  78.83631
 236  -220.673
 237  -17.25258
 238  34.49406
 239  -170.2006
 240  -416.7547
 241  0.8833606
 242  -368.1504
 243  -636.4709
 244  -591.0101
 245  -562.881
 246  -420.9263
 247  -281.0707
 248  183.5391
 249  43.78149
 250  -232.6274
 251  -504.5916
 252  -897.2963
 253  -629.5795
 254  -817.4716
 255  -515.935
 256  -80.46523
 257  306.993
 258  -210.9678
 259  -663.3516
 260  -900.2584
 261  -1103.52
 262  -848.6014
 263  -7.569654
 264  326.683
 265  918.7349
 266  544.6085
 267  215.0297
 268  -83.5728
 269  -463.2144
 270  -664.4155
 271  -749.3072
 272  -148.1652
 273  -319.9644
 274  -339.0451
 275  -689.8069
 276  -1430.063
 277  -1355.508
 278  -1188.582
 279  -518.9453
 280  -35.86991
 281  305.5537
 282  549.7331
 283  229.7009
 284  -65.29387
 285  -435.4941
 286  -621.9858
 287  -502.1972
 288  -542.9399
 289  -101.8653
 290  298.5919
 291  -95.0777
 292  -463.9181
 293  -319.0391
 294  -398.6514
 295  -130.0333
 296  -75.20066
 297  305.4082
 298  543.3497
 299  790.16
 300  541.2787
 301  78.93131
 302  215.5328
 303  88.12112
 304  332.0219
 305  245.3201
 306  128.4671
 307  420.4706
 308  3.459881
 309  -36.86237
 310  139.7441
 311  225.8371
 312  196.2666
 313  -78.59172
 314  236.9482
 315  457.3462
 316  261.5379
 317  -10.59646
 318  415.4246
 319  364.7534
 320  106.7728
 321  -359.9666
 322  -273.3104
 323  297.6946
 324  28.48084
 325  -303.5775
 326  -407.905
 327  -131.5777
 328  -238.2814
 329  300.6617
 330  743.7869
 331  913.7382
 332  479.8522
 333  291.3184
 334  12.62878
 335  -20.67718
 336  125.1155
 337  95.65086
 338  -20.28424
 339  614.6673
 340  1129.675
 341  671.7874
 342  -148.5774
 343  -483.9485
 344  -644.1348
 345  -411.6678
 346  234.4625
 347  1043.226
 348  1357.981
 349  761.8646
 350  325.3858
 351  -147.2674
 352  -442.9268
 353  -309.5149
 354  11.8226
 355  130.5811
 356  492.6062
 357  563.0664
 358  -116.4541
 359  -297.0225
 360  -287.8342
 361  -142.4884
 362  176.6355
 363  496.4103
 364  1004.341
 365  1061.006
 366  593.8387
 367  250.1749
 368  -18.70267
 369  57.415
 370  157.9664
 371  588.8201
 372  614.689
 373  633.0419
 374  102.3515
 375  -55.97955
 376  195.8268
 377  -15.17557
 378  224.5065
 379  396.5561
 380  942.8268
 381  756.5937
 382  596.8
 383  567.6589
 384  199.3465
 385  307.5575
 386  160.931
 387  13.91625
 388  178.2241
 389  193.3842
 390  230.6037
 391  -46.78175
 392  142.4174
 393  535.4422
 394  747.9616
 395  864.4623
 396  474.7027
 397  1001.193
 398  1184.875
 399  597.1671
 400  52.24723
 401  911.6105
 402  1182.989
 403  1766.521
 404  1755.884
 405  1879.853
 406  1188.493
 407  198.2804
 408  -296.2625
 409  -8.311826
 410  102.7619
 411  335.815
 412  294.9911
 413  1105.464
 414  912.9228
 415  684.7916
 416  125.2886
 417  -332.5612
 418  -494.7747
 419  -110.6956
 420  19.00758
 421  171.4085
 422  336.7422
 423  86.54546
 424  -537.9553
 425  -707.3213
 426  -819.5414
 427  -538.7308
 428  140.4344
 429  561.0138
 430  922.7955
 431  676.7988
 432  499.3042
 433  166.1241
 434  -157.1533
 435  -25.74043
 436  120.2786
 437  230.7863
 438  176.783
 439  -114.4875
 440  -401.8244
 441  -324.2959
 442  -862.6331
 443  -807.0944
 444  -675.7501
 445  -114.9355
 446  345.5105
 447  212.6907
 448  479.1505
 449  127.762
 450  -642.2339
 451  -429.1813
 452  -474.7063
 453  -833.4948
 454  -545.2354
 455  -348.5534
 456  -182.1239
 457  -543.2738
 458  -832.7418
 459  -636.7613
 460  -342.9096
 461  -270.89
 462  -160.7386
 463  16.46371
 464  24.20247
 465  10.07201
 466  120.9812
 467  52.15496
 468  1.729261
 469  -140.4004
 470  -12.08741
 471  44.33792
 472  -69.86829
 473  -479.2818
 474  -234.1574
 475  111.365
 476  -146.0332
 477  -186.1375
 478  38.85254
 479  375.4225
 480  389.4049
 481  272.0855
 482  286.1262
 483  43.40591
 484  -285.2914
 485  -529.8228
 486  -322.6562
 487  -46.29203
 488  -130.9175
 489  -363.0206
 490  -346.6236
 491  -588.6215
 492  -558.8728
 493  -489.8146
 494  76.77388
 495  877.1216
 496  1033.249
 497  303.2504
 498  97.43396
 499  -198.1734
 500  -226.1124
 501  -254.7326
 502  11.49897
 503  146.7365
 504  396.9232
 505  187.3243
 506  -174.2423
 507  -468.032
 508  -719.4849
 509  -532.476
 510  -419.2448
 511  113.9692
