# Input file       =  1204792879.116628-PSRB0329-2ms-sampling-dd.dat
# Candidate        =  PSR_0332+5434
# Telescope        =  AR
# Epoch_topo       =  58188.362246720229
# Epoch_bary       =  N/A
# T_sample         =  0.002
# Data Folded      =  7471104
# Data Avg         =  -2.41424909793438e-11
# Data StdDev      =  7.79729073118731 
# Profile Bins     =  512
# Profile Avg      =  -0.270484003580671
# Profile StdDev   =  941.892065026166 
# Reduced chi-sqr  =  3.964
# Prob(Noise)      <  7e-179   (~28.5 sigma)
# P_topo (ms)      =  714.578668915946  +/- 1.71e-05
# P'_topo (s/s)    =  -0                +/- 8.87e-12
# P''_topo (s/s^2) =  0                 +/- 3.85e-15
# P_bary (ms)      =  N/A
# P'_bary (s/s)    =  N/A
# P''_bary (s/s^2) =  N/A
# P_orb (s)        =  N/A
# asin(i)/c (s)    =  N/A
# eccentricity     =  N/A
# w (rad)          =  N/A
# T_peri           =  N/A
######################################################
   0  269.11
   1  -747.4224
   2  -756.8235
   3  -1247.395
   4  -2034.337
   5  -1427.188
   6  218.1238
   7  94.16142
   8  -544.6813
   9  -952.6334
  10  -790.8243
  11  -1203.605
  12  -1477.958
  13  203.0539
  14  2082.142
  15  2453.79
  16  1334.719
  17  321.4932
  18  37.54044
  19  -556.6696
  20  -1324.469
  21  -1474.594
  22  -578.8323
  23  -173.9087
  24  -718.2474
  25  -1300.235
  26  -1378.874
  27  -838.0329
  28  -423.2173
  29  574.5497
  30  1823.892
  31  2347.38
  32  1970.996
  33  757.5986
  34  -379.2345
  35  -623.9074
  36  -742.1548
  37  -1628.303
  38  -1411.836
  39  -682.0859
  40  -297.4235
  41  -1196.011
  42  -1939.833
  43  -1806.272
  44  -1119.028
  45  -427.7847
  46  834.7664
  47  2614.988
  48  3026.218
  49  1698.791
  50  -209.3598
  51  -846.6786
  52  -1124.679
  53  -1308.763
  54  -1435.333
  55  -146.5957
  56  825.8201
  57  230.4524
  58  -1198.161
  59  -1683.941
  60  -972.056
  61  -220.9263
  62  760.9434
  63  2049.861
  64  3059.041
  65  2530.32
  66  1155.818
  67  122.9457
  68  103.9167
  69  -688.277
  70  -946.8146
  71  -346.3745
  72  1012.047
  73  1369.434
  74  -29.16426
  75  -883.5337
  76  -862.5968
  77  -794.0718
  78  -335.9056
  79  1021.903
  80  2655.339
  81  2975.876
  82  1723.624
  83  170.9312
  84  -326.5633
  85  -465.1978
  86  -946.168
  87  -832.5419
  88  24.19271
  89  598.6766
  90  294.2962
  91  -579.46
  92  -983.3491
  93  -633.8372
  94  -433.568
  95  119.5123
  96  1552.92
  97  3269.079
  98  2485.444
  99  1332.074
 100  54.71561
 101  -385.4683
 102  -554.4416
 103  -1500.753
 104  -1580.025
 105  -373.4991
 106  158.3108
 107  -724.1409
 108  -1321.309
 109  -840.2565
 110  -209.0448
 111  -640.4603
 112  707.7539
 113  2432.025
 114  2582.082
 115  1647.638
 116  213.5226
 117  -737.3694
 118  -589.2156
 119  -1177.056
 120  -1529.568
 121  -628.205
 122  394.4383
 123  -243.4021
 124  -1255.908
 125  -1499.925
 126  -1003.992
 127  -485.2445
 128  81.95452
 129  1491.819
 130  2534.139
 131  2804.95
 132  853.8775
 133  -532.8238
 134  -643.7446
 135  -1057.207
 136  -1458.314
 137  -725.4613
 138  -36.4267
 139  -13.62419
 140  -508.1389
 141  -1445.836
 142  -1333.265
 143  -780.1189
 144  -459.4056
 145  662.7363
 146  2435.904
 147  2920.288
 148  1873.969
 149  12.49946
 150  -179.2859
 151  -726.787
 152  -1246.188
 153  -1371.285
 154  -412.9171
 155  490.4105
 156  -455.3141
 157  -1453.75
 158  -1891.368
 159  -1571.262
 160  -1124.399
 161  214.18
 162  1945.782
 163  2925.997
 164  2894.719
 165  1534.986
 166  -192.5907
 167  -1334.3
 168  -1719.281
 169  -1991.919
 170  -1070.336
 171  657.3627
 172  858.2632
 173  -281.0996
 174  -1165.406
 175  -1534.166
 176  -1335.555
 177  -599.4819
 178  817.4213
 179  2376.429
 180  3317.564
 181  2185.278
 182  257.5343
 183  -825.9902
 184  -982.397
 185  -1235.273
 186  -1189.541
 187  -125.3461
 188  411.0878
 189  408.8802
 190  -770.2277
 191  -1614.979
 192  -1331.371
 193  -947.7163
 194  -300.097
 195  967.396
 196  2811.165
 197  3140.913
 198  1219.664
 199  -358.1264
 200  -734.9125
 201  -862.8461
 202  -1432.345
 203  -1321.176
 204  -184.1434
 205  332.7874
 206  -489.1761
 207  -1005.949
 208  -613.4413
 209  -655.3069
 210  -271.8478
 211  238.6315
 212  2107.294
 213  2672.658
 214  2077.123
 215  1116.516
 216  -83.59975
 217  -152.7614
 218  -757.6632
 219  -989.3224
 220  -163.4954
 221  -49.87083
 222  -341.5731
 223  -794.4421
 224  -1670.615
 225  -1196.116
 226  -291.8554
 227  388.2845
 228  1369.896
 229  2911.942
 230  2698.167
 231  1338.797
 232  -18.8146
 233  -437.7534
 234  -919.862
 235  -1042.256
 236  -782.5565
 237  2.793654
 238  418.8047
 239  -520.1914
 240  -1386.049
 241  -1658.194
 242  -1189.527
 243  -589.5436
 244  757.5563
 245  3080.837
 246  3873.036
 247  2743.846
 248  118.6901
 249  -246.7264
 250  -644.6824
 251  -1319.331
 252  -1416.617
 253  -675.0372
 254  479.9527
 255  258.5856
 256  -376.9688
 257  -1482.834
 258  -1560.512
 259  -1133.709
 260  -734.1142
 261  1231.033
 262  2907.979
 263  3216.714
 264  1577.832
 265  -638.208
 266  -1201.369
 267  -1702.339
 268  -2352.722
 269  -1983.382
 270  -457.7768
 271  249.0904
 272  -730.5998
 273  -1803.86
 274  -1573.372
 275  -1034.921
 276  -1050.753
 277  17.74178
 278  1193.931
 279  2879.276
 280  2269.49
 281  434.4481
 282  61.11905
 283  -414.6677
 284  -1056.895
 285  -1776.056
 286  -937.7654
 287  -192.7225
 288  -334.7591
 289  -578.2396
 290  -326.1739
 291  -74.38035
 292  -167.689
 293  -61.00802
 294  664.8889
 295  1660.166
 296  1833.888
 297  735.1226
 298  -109.7464
 299  -413.1041
 300  -436.6777
 301  -985.4728
 302  -1463.742
 303  -397.434
 304  -73.78833
 305  -350.5739
 306  -1191.423
 307  -422.6282
 308  539.4222
 309  1678.982
 310  2603.853
 311  3501.705
 312  3953.284
 313  2815.547
 314  1354.608
 315  -43.09968
 316  -281.0419
 317  -864.16
 318  -906.9384
 319  145.0334
 320  464.6057
 321  59.74675
 322  -1508.252
 323  -1887.567
 324  -1170.366
 325  -1051.75
 326  -207.5846
 327  1267.46
 328  3000.098
 329  3043.038
 330  1355.33
 331  -262.3351
 332  -1656.065
 333  -1758.675
 334  -1959.326
 335  -1444.905
 336  -111.6536
 337  458.9388
 338  -591.823
 339  -1772.382
 340  -2139.298
 341  -1352.111
 342  -855.3065
 343  374.0377
 344  2526.789
 345  3089.031
 346  2487.923
 347  479.7842
 348  -564.6183
 349  -856.6058
 350  -1175.203
 351  -1132.753
 352  -660.139
 353  369.4453
 354  124.3066
 355  -1195.628
 356  -1719.112
 357  -1416.241
 358  -1433.497
 359  -857.4582
 360  1008.739
 361  2491.682
 362  2501.306
 363  1341.966
 364  -114.3616
 365  -615.5681
 366  -924.5947
 367  -1746.897
 368  -1682.4
 369  -1019.574
 370  -408.4848
 371  -1075.937
 372  -1087.496
 373  -1041.935
 374  -657.5573
 375  -467.2383
 376  53.47784
 377  1880.893
 378  2800.196
 379  2250.278
 380  953.9054
 381  27.95508
 382  -233.2281
 383  -492.6689
 384  -819.8429
 385  -436.7263
 386  359.4518
 387  210.4735
 388  -819.368
 389  -1317.736
 390  -250.5334
 391  -323.3076
 392  -271.9836
 393  1385.731
 394  2640.309
 395  2443.848
 396  1309.664
 397  272.2081
 398  -333.3299
 399  -685.6578
 400  -1181.986
 401  -1161.216
 402  -160.6532
 403  351.2715
 404  -260.4457
 405  -1235.65
 406  -1419.621
 407  -1134.41
 408  -368.2873
 409  817.674
 410  2319.297
 411  3551.266
 412  2972.072
 413  1099.933
 414  -270.0299
 415  -194.1521
 416  -885.9188
 417  -921.1549
 418  22.53981
 419  960.5187
 420  656.8351
 421  -944.5221
 422  -1922.817
 423  -1721.981
 424  -1264.495
 425  0.1741578
 426  1648.76
 427  2722.586
 428  2510.498
 429  1063.577
 430  -526.8159
 431  -1136.364
 432  -1306.507
 433  -1332.849
 434  -530.1417
 435  -19.79883
 436  787.1225
 437  0.1474397
 438  -1136.634
 439  -1129.768
 440  -981.0565
 441  -608.9622
 442  475.329
 443  1671.745
 444  3233.321
 445  2343.814
 446  949.1105
 447  -126.4329
 448  -324.9905
 449  -530.3305
 450  -1509.417
 451  -1255.502
 452  -53.4466
 453  121.1322
 454  -671.9463
 455  -1484.063
 456  -1468.481
 457  -885.5602
 458  -589.1142
 459  797.0431
 460  2259.922
 461  2331.046
 462  1308.519
 463  -338.3023
 464  -802.7463
 465  -1068.359
 466  -1173.311
 467  -1513.258
 468  -746.8471
 469  -35.16925
 470  -1084.926
 471  -1275.155
 472  -1682.768
 473  -637.7683
 474  -195.6153
 475  508.4676
 476  2526.745
 477  3060.319
 478  2655.335
 479  853.2522
 480  -318.9014
 481  -821.2422
 482  -953.2683
 483  -1089.632
 484  -119.1433
 485  876.3711
 486  446.306
 487  -1254.883
 488  -1707.018
 489  -1634.737
 490  -1325.486
 491  -360.0053
 492  859.084
 493  2259.599
 494  2441.891
 495  885.7832
 496  -499.742
 497  -903.7755
 498  -814.5856
 499  -1506.83
 500  -891.7386
 501  152.387
 502  650.7092
 503  -9.762771
 504  -1647.101
 505  -1718.008
 506  -670.6639
 507  -507.697
 508  509.3004
 509  1791.394
 510  2710.386
 511  1916.941
