# Input file       =  1205152155.100529-PSRB0329-2ms-sampling-dd.dat
# Candidate        =  PSR_0332+5434
# Telescope        =  AR
# Epoch_topo       =  58192.520533570940
# Epoch_bary       =  N/A
# T_sample         =  0.002
# Data Folded      =  7340032
# Data Avg         =  9.57772309744101e-10
# Data StdDev      =  99.5366757144866 
# Profile Bins     =  512
# Profile Avg      =  -0.0137380702405911
# Profile StdDev   =  11917.828414145  
# Reduced chi-sqr  =  0.923
# Prob(Noise)      <  0.893   (~0.0 sigma)
# P_topo (ms)      =  714.57742565247   +/- 0.000219
# P'_topo (s/s)    =  -0                +/- 1.15e-10
# P''_topo (s/s^2) =  0                 +/- 5.09e-14
# P_bary (ms)      =  N/A
# P'_bary (s/s)    =  N/A
# P''_bary (s/s^2) =  N/A
# P_orb (s)        =  N/A
# asin(i)/c (s)    =  N/A
# eccentricity     =  N/A
# w (rad)          =  N/A
# T_peri           =  N/A
######################################################
   0  746.7303
   1  -2001.957
   2  -148.96
   3  2916.47
   4  4035.879
   5  2098.304
   6  -129.7709
   7  -2255.899
   8  316.1271
   9  1524.966
  10  2953.95
  11  1610.002
  12  -14.83887
  13  -1436.866
  14  -2965.692
  15  -4089.477
  16  -4473.266
  17  2481.009
  18  5978.529
  19  7578.793
  20  5699.519
  21  -219.1563
  22  -1464.934
  23  -20.32212
  24  4121.573
  25  4256.221
  26  3058.81
  27  -2845.363
  28  -4829.535
  29  -6009.173
  30  -7222.794
  31  -6597.084
  32  -6072.295
  33  -4885.303
  34  -5825.152
  35  -5704.293
  36  -5914.778
  37  -7157.909
  38  -4090.302
  39  -2398.066
  40  382.9828
  41  1046.37
  42  595.1937
  43  -3736.252
  44  -6155.761
  45  -3452.755
  46  1326.191
  47  9387.199
  48  9226.585
  49  9178.454
  50  2726.676
  51  -1331.211
  52  -4804.222
  53  -4856.578
  54  1978.689
  55  5776.303
  56  7299.632
  57  5529.86
  58  1692.557
  59  -2712.592
  60  3655.081
  61  7530.881
  62  9151.389
  63  7850.248
  64  1308.112
  65  615.957
  66  895.37
  67  4854.98
  68  6171.547
  69  6762.727
  70  2775.563
  71  749.4318
  72  -483.2841
  73  -4646.467
  74  1816.212
  75  6575.931
  76  12499.14
  77  9567.175
  78  5313.321
  79  -215.6873
  80  101.9173
  81  2900.269
  82  5125.208
  83  6351.386
  84  3448.934
  85  2107.174
  86  -1297.458
  87  -3085.165
  88  -378.0927
  89  4197.447
  90  10027.84
  91  9543.466
  92  7784.925
  93  -1087.963
  94  2308.376
  95  3509.725
  96  4786.946
  97  6078.625
  98  5314.085
  99  3459.583
 100  -498.5515
 101  -1953.559
 102  -3751.533
 103  -737.9752
 104  2385.313
 105  3629.76
 106  3025.779
 107  1372.669
 108  1050.822
 109  -136.3189
 110  1872.937
 111  1986.091
 112  1752.381
 113  1201.715
 114  530.8068
 115  -410.1945
 116  -3724.163
 117  -2615.291
 118  -2077.801
 119  398.3638
 120  1077.474
 121  89.41724
 122  -1507.616
 123  -5097.384
 124  -5297.54
 125  -6030.242
 126  -4711.275
 127  -3785.953
 128  -3401.65
 129  -4584.519
 130  -5282.635
 131  -4826.5
 132  -4634.892
 133  -3068.838
 134  -3670.879
 135  -4032.199
 136  -4998.505
 137  -5501.375
 138  -5648.313
 139  -4986.561
 140  -2953.566
 141  -2959.586
 142  -2313.313
 143  -2842.832
 144  -5760.914
 145  -7400.084
 146  -3421.419
 147  -1034.061
 148  -195.988
 149  -353.1707
 150  -4840.201
 151  -6795.589
 152  -7680.347
 153  -5497.372
 154  -4204.006
 155  -3638.424
 156  -3078.439
 157  -4441.406
 158  -3849.893
 159  -3306.303
 160  1534.581
 161  4497.04
 162  7444.193
 163  3967.92
 164  2081.72
 165  576.2039
 166  1114.272
 167  4141.723
 168  5972.037
 169  7775.356
 170  5006.499
 171  2663.518
 172  -2.790636
 173  -3665.443
 174  -1947.662
 175  319.2334
 176  5935.686
 177  4942.24
 178  3482.082
 179  -1729.153
 180  -1394.197
 181  79.29493
 182  3255.264
 183  3351
 184  1524.012
 185  -70.09121
 186  -6013.384
 187  -6015.091
 188  -4677.062
 189  3705.341
 190  6120.015
 191  7386.876
 192  6377.928
 193  -965.7503
 194  -1494.606
 195  -159.933
 196  8210.491
 197  9811.87
 198  10490.01
 199  9566.63
 200  2107.266
 201  -2357.976
 202  -2387.92
 203  5674.209
 204  8508.643
 205  10083.88
 206  5324.436
 207  326.8539
 208  -5402.411
 209  -2336.766
 210  227.7621
 211  1357.554
 212  2610.589
 213  144.1582
 214  -2403.457
 215  -5642.823
 216  -5557.118
 217  -2759.219
 218  297.3594
 219  2772.998
 220  1343.748
 221  -34.40876
 222  -6230.077
 223  -4513.388
 224  -3088.223
 225  -1358.602
 226  -1800.041
 227  -2948.32
 228  -4017.002
 229  -6745.778
 230  -5273.797
 231  -4367.3
 232  -2283.542
 233  -896.7865
 234  -847.6872
 235  -1875.163
 236  -3946.61
 237  -2206.033
 238  362.6204
 239  3942.413
 240  2299.323
 241  1148.881
 242  -946.584
 243  -52.4374
 244  -416.0631
 245  -418.695
 246  772.9626
 247  -339.9442
 248  -84.73851
 249  -172.6504
 250  -793.2151
 251  -1518.088
 252  -987.9832
 253  -184.6883
 254  -1597.295
 255  -2138.998
 256  -5194.129
 257  -5712.539
 258  -6270.287
 259  -6015.912
 260  -5636.343
 261  -5327.272
 262  -4520.237
 263  -5759.567
 264  -5882.542
 265  -6473.367
 266  -7244.052
 267  -5250.594
 268  -3404.16
 269  -1519.546
 270  -369.8728
 271  369.0527
 272  -4373.173
 273  -1786.4
 274  1313.442
 275  7109.057
 276  9515.397
 277  3452.238
 278  482.536
 279  -4513.855
 280  3721.791
 281  4561.148
 282  4699.624
 283  2022.54
 284  -3777.488
 285  -5554.448
 286  -6314.062
 287  -6275.851
 288  -6493.14
 289  -5090.813
 290  -3370.129
 291  -2684.536
 292  -2617.155
 293  -3683.705
 294  -5589.708
 295  -5842.174
 296  -4715.471
 297  -3260.555
 298  -3415.5
 299  -4308.874
 300  -5178.179
 301  -6277.332
 302  -6912.69
 303  -6286.703
 304  -6028.909
 305  -3784.347
 306  -3949.663
 307  -4781.583
 308  -6620.116
 309  -5669.881
 310  -4539.331
 311  -3765.083
 312  -2627.337
 313  -3830.888
 314  -4979.858
 315  -5382.444
 316  -5501.806
 317  -5291.74
 318  -3764.561
 319  -2608.197
 320  -2683.946
 321  -4089.441
 322  -5292.187
 323  -4687.855
 324  -3769.958
 325  -3228.797
 326  -3860.069
 327  -3415.238
 328  -5182.414
 329  -5877.371
 330  -5199.478
 331  -5076.066
 332  -4454.159
 333  -4421.092
 334  -4127.245
 335  -4342.673
 336  -4557.915
 337  -4492.417
 338  -3947.053
 339  -3176.497
 340  -3679.377
 341  -3700.006
 342  -4040.216
 343  -4209.276
 344  -4024.168
 345  -2748.12
 346  -1863.521
 347  -1564.335
 348  -156.9405
 349  -1681.843
 350  -664.3632
 351  -1637.136
 352  3368.854
 353  5337.43
 354  3877.102
 355  2623.687
 356  129.6441
 357  5214.134
 358  6420.746
 359  5685.523
 360  2001.244
 361  -4871.86
 362  161.2985
 363  1536.729
 364  3975.13
 365  1477.662
 366  -1857.418
 367  -3928.21
 368  -5961.207
 369  -5123.347
 370  -5318.091
 371  -5385.304
 372  -5130.652
 373  -4200.519
 374  -4782.901
 375  -4634.709
 376  -4987.355
 377  -4234.108
 378  -3048.75
 379  -3082.381
 380  -2665.621
 381  -4630.593
 382  -4800.675
 383  -5432.358
 384  -4467.751
 385  -2996.582
 386  -2528.398
 387  -1818.216
 388  -1784.405
 389  1945.579
 390  14161.57
 391  27827.3
 392  36540.86
 393  40864.52
 394  31440.14
 395  20578.53
 396  5078.334
 397  40535.68
 398  60257.56
 399  77961.44
 400  71479.67
 401  45803.51
 402  22504.33
 403  -9091.232
 404  -6598.096
 405  -5878.358
 406  -7798.881
 407  -5827.014
 408  -6443.899
 409  -7230.621
 410  -5542.511
 411  -5714.093
 412  -5186.3
 413  -4327.586
 414  -3488.03
 415  -3155.839
 416  -2373.115
 417  -3839.849
 418  -4973.737
 419  -6173.685
 420  -5744.077
 421  -5267.417
 422  -5142.143
 423  -2900.595
 424  -3264.229
 425  -3436.589
 426  -3951.761
 427  -6008.171
 428  -6794.485
 429  -5541.751
 430  -1470.31
 431  -958.7048
 432  -137.6609
 433  -2801.096
 434  -3922.055
 435  -5339.907
 436  -5813.521
 437  -4192.84
 438  -4033.375
 439  -2731.465
 440  -118.0853
 441  131.3999
 442  204.4269
 443  827.3281
 444  4460.03
 445  6767.196
 446  5519.373
 447  3171.214
 448  3191.771
 449  4340.121
 450  6093.244
 451  5658.739
 452  6151.973
 453  2767.26
 454  2633.492
 455  2635.98
 456  3054.691
 457  7515.419
 458  11038.69
 459  16474.05
 460  10609.01
 461  9844.383
 462  10712.67
 463  13006.3
 464  14476.52
 465  14403.08
 466  10281.26
 467  3984.134
 468  535.1265
 469  -2987.771
 470  -3874.842
 471  -3919.729
 472  -2716.155
 473  1398.376
 474  1737.419
 475  2066.459
 476  -1843.293
 477  -3242.273
 478  -4470.056
 479  -4379.386
 480  -3629.292
 481  -4273.259
 482  -4428.234
 483  -7286.967
 484  -7267.438
 485  -6996.074
 486  -5653.554
 487  -5443.052
 488  -5347.185
 489  -5561.44
 490  -7489.608
 491  -6721.166
 492  -6599.189
 493  -5372.07
 494  -5396.51
 495  -5826.993
 496  -4633.856
 497  -5107.969
 498  -5424.305
 499  -6778.187
 500  -5214.778
 501  -4428.843
 502  -2414.69
 503  -2388.144
 504  -1695.035
 505  -3438.867
 506  -5182.466
 507  -2728.503
 508  -2368.706
 509  -1098.553
 510  1042.149
 511  1564.932
