# Input file       =  1205051296.112978-PSRB0329-2ms-sampling-dd.dat
# Candidate        =  PSR_0332+5434
# Telescope        =  AR
# Epoch_topo       =  58191.353184177984
# Epoch_bary       =  N/A
# T_sample         =  0.002
# Data Folded      =  7208960
# Data Avg         =  5.57869593830942e-10
# Data StdDev      =  8.36885736501769 
# Profile Bins     =  512
# Profile Avg      =  0.0985441289843496
# Profile StdDev   =  993.041717266617 
# Reduced chi-sqr  =  0.459
# Prob(Noise)      <  1   (~0.0 sigma)
# P_topo (ms)      =  714.577797068561  +/- 7.2e-05
# P'_topo (s/s)    =  -0                +/- 3.87e-11
# P''_topo (s/s^2) =  0                 +/- 1.74e-14
# P_bary (ms)      =  N/A
# P'_bary (s/s)    =  N/A
# P''_bary (s/s^2) =  N/A
# P_orb (s)        =  N/A
# asin(i)/c (s)    =  N/A
# eccentricity     =  N/A
# w (rad)          =  N/A
# T_peri           =  N/A
######################################################
   0  601.2692
   1  159.4479
   2  -141.5431
   3  -253.3106
   4  46.43009
   5  123.3453
   6  -443.9618
   7  -288.9694
   8  -451.929
   9  70.06905
  10  115.966
  11  97.96268
  12  63.10247
  13  145.5368
  14  149.6759
  15  -501.8782
  16  242.5172
  17  249.0033
  18  204.3803
  19  -102.5035
  20  96.51525
  21  185.657
  22  -458.2723
  23  -707.3431
  24  -693.1197
  25  -94.36038
  26  -120.5644
  27  -442.5534
  28  30.15229
  29  397.0304
  30  100.6045
  31  -84.50896
  32  -183.6759
  33  -176.7818
  34  150.8702
  35  -145.0071
  36  81.89786
  37  1254.078
  38  2026.124
  39  1448.932
  40  617.619
  41  240.9991
  42  -410.5162
  43  -182.861
  44  135.5612
  45  395.5411
  46  279.7874
  47  543.2228
  48  33.01671
  49  -344.3666
  50  -145.021
  51  -178.5285
  52  46.37389
  53  437.8285
  54  80.53987
  55  -103.6597
  56  -460.9409
  57  -663.8773
  58  -257.4967
  59  -364.701
  60  -58.17573
  61  301.5963
  62  761.8862
  63  48.82864
  64  -29.79867
  65  25.4086
  66  213.9173
  67  395.1623
  68  -302.3063
  69  -440.2446
  70  -417.0598
  71  146.747
  72  -76.13602
  73  -253.7246
  74  423.5992
  75  453.7229
  76  640.0206
  77  230.9277
  78  650.0228
  79  654.678
  80  581.6473
  81  566.5591
  82  888.4877
  83  814.0388
  84  -353.926
  85  -727.01
  86  -491.6218
  87  103.6542
  88  -92.33841
  89  -636.5322
  90  -719.1357
  91  -272.101
  92  138.4916
  93  185.1918
  94  759.5501
  95  903.9332
  96  644.7585
  97  315.9602
  98  11.63509
  99  388.734
 100  540.6961
 101  691.9338
 102  468.394
 103  983.9757
 104  766.5548
 105  -83.68441
 106  -669.8034
 107  -24.13995
 108  769.6566
 109  818.816
 110  444.6386
 111  805.5817
 112  771.9505
 113  16.9127
 114  -300.2495
 115  183.9527
 116  242.6505
 117  546.0018
 118  199.5829
 119  -166.8019
 120  54.58352
 121  -581.804
 122  -815.9949
 123  -847.6188
 124  -626.0448
 125  -173.3168
 126  -159.9485
 127  159.3875
 128  630.6196
 129  1079.591
 130  267.3931
 131  -332.6391
 132  -227.5458
 133  120.6668
 134  425.173
 135  350.5905
 136  655.7357
 137  495.1623
 138  708.6575
 139  45.73456
 140  -198.8305
 141  -79.70891
 142  -479.8194
 143  61.342
 144  457.822
 145  1141.773
 146  649.2803
 147  362.5376
 148  605.2715
 149  498.6156
 150  -60.3727
 151  -294.8535
 152  2.768835
 153  414.92
 154  381.8854
 155  110.6207
 156  30.62489
 157  -348.4548
 158  -414.2976
 159  -442.7164
 160  93.29913
 161  236.8805
 162  -100.0484
 163  -43.50972
 164  -59.75947
 165  345.4297
 166  560.6871
 167  -153.8277
 168  -543.6539
 169  -825.4496
 170  -907.8422
 171  -734.4705
 172  -1134.325
 173  -968.1578
 174  -511.0339
 175  -408.7417
 176  209.5655
 177  -129.5029
 178  239.4393
 179  -400.7404
 180  -489.8149
 181  -775.3423
 182  -434.0973
 183  -282.6042
 184  119.332
 185  436.8585
 186  219.6611
 187  -264.7577
 188  -1096.249
 189  -930.0374
 190  -533.722
 191  10.1286
 192  434.2794
 193  810.0554
 194  913.4396
 195  319.6444
 196  -27.11269
 197  -113.2985
 198  388.1424
 199  968.8601
 200  849.7436
 201  333.9694
 202  448.0223
 203  250.2295
 204  -956.65
 205  -662.7429
 206  -218.5923
 207  46.33702
 208  -13.01946
 209  -299.7804
 210  847.5821
 211  1364.742
 212  836.2051
 213  -119.7978
 214  -6.75198
 215  -29.24882
 216  -71.80419
 217  -21.24349
 218  547.835
 219  954.1359
 220  373.8335
 221  128.5244
 222  -666.5852
 223  -179.5791
 224  29.24806
 225  192.4704
 226  633.0576
 227  1238.606
 228  1240.077
 229  569.8528
 230  345.7087
 231  115.5459
 232  274.6365
 233  -427.554
 234  -553.2542
 235  -19.27037
 236  -69.89201
 237  -103.0758
 238  -475.2062
 239  -215.3375
 240  350.0062
 241  594.0897
 242  100.0274
 243  975.7922
 244  794.1592
 245  25.83497
 246  307.7454
 247  491.9516
 248  232.8454
 249  153.5196
 250  76.77675
 251  -9.676944
 252  378.2939
 253  -19.22161
 254  -460.5628
 255  -956.8777
 256  -675.6227
 257  45.70841
 258  537.0363
 259  587.5007
 260  636.135
 261  174.1376
 262  -969.967
 263  -729.392
 264  -97.94264
 265  701.9771
 266  117.0086
 267  -105.0274
 268  -303.5361
 269  -893.6088
 270  -556.8237
 271  -993.7904
 272  -717.1942
 273  -385.1578
 274  -220.4004
 275  -355.7628
 276  78.22242
 277  -55.29988
 278  -570.6845
 279  -1005.612
 280  -404.5139
 281  -77.87304
 282  -80.58726
 283  -300.8075
 284  -296.1382
 285  -168.3846
 286  -487.014
 287  -142.9359
 288  -63.42025
 289  -232.6848
 290  -332.7557
 291  -205.2699
 292  112.6447
 293  736.0868
 294  788.2527
 295  199.5481
 296  -440.5017
 297  -228.7631
 298  -312.8319
 299  -85.15208
 300  -90.44423
 301  160.8922
 302  70.86224
 303  -548.4442
 304  -774.1281
 305  -1092.871
 306  -757.3072
 307  -889.5169
 308  -399.903
 309  -189.845
 310  403.1776
 311  182.614
 312  -621.9611
 313  -473.3004
 314  -34.70456
 315  -277.8321
 316  -370.2662
 317  256.2042
 318  384.8457
 319  -223.6028
 320  -201.0517
 321  -683.582
 322  12.05791
 323  306.293
 324  -167.9384
 325  -167.0716
 326  263.678
 327  498.0302
 328  233.2965
 329  133.5003
 330  40.574
 331  298.5822
 332  -180.5564
 333  -328.6049
 334  -86.08718
 335  -119.3362
 336  -711.3939
 337  -1205.22
 338  -1115.668
 339  -229.1402
 340  -36.93067
 341  128.0023
 342  74.53617
 343  124.8162
 344  -306.377
 345  -491.5612
 346  -143.9117
 347  -14.55134
 348  351.7383
 349  109.9212
 350  -135.1413
 351  36.33095
 352  1.54965
 353  -884.9667
 354  -586.2745
 355  -380.3632
 356  662.578
 357  628.2599
 358  770.7345
 359  887.1279
 360  -203.3573
 361  -114.6748
 362  -181.6373
 363  268.7761
 364  754.6956
 365  544.707
 366  202.9666
 367  163.3523
 368  30.74891
 369  -337.104
 370  -746.5412
 371  -557.7795
 372  -667.9841
 373  160.366
 374  270.4219
 375  574.5995
 376  853.4238
 377  518.9382
 378  -337.5607
 379  -858.8432
 380  -262.7398
 381  -102.6377
 382  448.5121
 383  373.573
 384  272.7378
 385  121.1819
 386  -517.7694
 387  -711.3099
 388  -73.68254
 389  118.3155
 390  333.1031
 391  384.4591
 392  1213.581
 393  643.8391
 394  103.0479
 395  -378.2556
 396  -130.6841
 397  520.8455
 398  -528.0506
 399  -483.6534
 400  141.1416
 401  152.3577
 402  -50.92079
 403  -548.4005
 404  -491.1238
 405  -2.688655
 406  -307.0139
 407  -610.3107
 408  -419.1847
 409  37.01965
 410  -120.7849
 411  -493.734
 412  -621.1817
 413  -132.3812
 414  -262.279
 415  -490.4861
 416  -703.6946
 417  -250.0418
 418  -384.1452
 419  -520.0115
 420  -404.4294
 421  53.58276
 422  414.5689
 423  15.63144
 424  11.41247
 425  36.10336
 426  405.7933
 427  239.0933
 428  -120.939
 429  144.5834
 430  -45.22376
 431  -404.6467
 432  -355.2558
 433  -139.2894
 434  -350.156
 435  -760.041
 436  -1068.901
 437  -811.6144
 438  -11.35095
 439  -160.4422
 440  -48.57124
 441  359.2093
 442  526.5521
 443  144.9369
 444  -713.2424
 445  -811.6565
 446  -206.2124
 447  398.6472
 448  -9.913118
 449  118.4285
 450  480.3826
 451  -273.4203
 452  -850.3689
 453  -1047.528
 454  -633.9775
 455  -477.8924
 456  226.1366
 457  317.082
 458  467.3625
 459  696.3902
 460  224.0857
 461  -208.7559
 462  -144.445
 463  163.4294
 464  -52.16398
 465  -509.2356
 466  -62.39569
 467  -45.44016
 468  -162.2059
 469  -418.9254
 470  -430.4802
 471  -336.0008
 472  -613.5156
 473  -470.5763
 474  -38.25926
 475  641.1354
 476  767.7564
 477  500.8808
 478  458.0045
 479  173.5945
 480  -448.5413
 481  -886.4307
 482  -791.8615
 483  283.3965
 484  426.1502
 485  -55.7401
 486  -570.2069
 487  69.00951
 488  -4.831317
 489  -152.1035
 490  633.6125
 491  870.9
 492  1153.241
 493  709.2523
 494  791.4652
 495  361.4305
 496  471.2317
 497  35.47926
 498  -309.8426
 499  -447.198
 500  120.5555
 501  -154.2682
 502  -182.59
 503  -673.4205
 504  -458.7809
 505  175.1658
 506  270.5619
 507  336.4127
 508  254.0824
 509  153.9042
 510  -162.3555
 511  77.70142
