# Input file       =  1205740786.108979-PSRB0329-2ms-sampling-dd.dat
# Candidate        =  PSR_0332+5434
# Telescope        =  AR
# Epoch_topo       =  58199.333392465036
# Epoch_bary       =  N/A
# T_sample         =  0.002
# Data Folded      =  7208960
# Data Avg         =  6.64138886116115e-10
# Data StdDev      =  6.01577924873607 
# Profile Bins     =  512
# Profile Avg      =  -0.069142096169428
# Profile StdDev   =  713.827407410846 
# Reduced chi-sqr  =  2.999
# Prob(Noise)      <  1.35e-102   (~21.5 sigma)
# P_topo (ms)      =  714.574702056774  +/- 1.57e-05
# P'_topo (s/s)    =  -0                +/- 8.46e-12
# P''_topo (s/s^2) =  0                 +/- 3.8e-15
# P_bary (ms)      =  N/A
# P'_bary (s/s)    =  N/A
# P''_bary (s/s^2) =  N/A
# P_orb (s)        =  N/A
# asin(i)/c (s)    =  N/A
# eccentricity     =  N/A
# w (rad)          =  N/A
# T_peri           =  N/A
######################################################
   0  -2021.203
   1  -1740.354
   2  -1120.731
   3  -348.6306
   4  520.9673
   5  -299.1173
   6  -1087.435
   7  -1920.17
   8  -1558.196
   9  -1289.931
  10  -342.5241
  11  801.6011
  12  1287.965
  13  968.3183
  14  -135.7593
  15  -1020.1
  16  -1763.103
  17  -1963.401
  18  -1094.641
  19  -488.7255
  20  -213.4696
  21  -24.34335
  22  -555.6097
  23  -1601.133
  24  -1376.116
  25  -1193.618
  26  -533.4837
  27  614.3815
  28  1116.092
  29  1422.922
  30  688.4433
  31  77.27729
  32  -346.3639
  33  -611.8938
  34  -1519.828
  35  -1602.397
  36  -765.1152
  37  -26.64447
  38  81.76295
  39  -1022.299
  40  -1261.018
  41  -1095.732
  42  -1287.472
  43  -528.4407
  44  528.8893
  45  1533.045
  46  1605.785
  47  847.2559
  48  131.4351
  49  60.96392
  50  577.2377
  51  1052.937
  52  1315.486
  53  1738.72
  54  1210.121
  55  -11.3122
  56  -763.5656
  57  -311.4595
  58  -598.7033
  59  -356.3751
  60  310.9545
  61  1170.287
  62  1570.596
  63  1401.944
  64  289.4378
  65  -537.6207
  66  -624.7604
  67  -548.0291
  68  -569.5991
  69  39.76015
  70  643.9288
  71  463.5026
  72  -408.5937
  73  -799.1566
  74  -661.5908
  75  -575.44
  76  -310.2991
  77  880.6658
  78  1899.925
  79  1650.368
  80  562.0301
  81  -129.7022
  82  -545.2665
  83  -974.9205
  84  -648.822
  85  411.4271
  86  1244.012
  87  1265.751
  88  228.7524
  89  -882.0228
  90  -975.9113
  91  -356.1237
  92  -37.55592
  93  513.2061
  94  1557.375
  95  1446.34
  96  713.2547
  97  -39.63737
  98  -402.1736
  99  -697.955
 100  -778.3722
 101  -468.3246
 102  27.60217
 103  706.9576
 104  673.512
 105  -410.5676
 106  -983.7762
 107  -1113.908
 108  -226.0748
 109  584.8057
 110  1449.038
 111  2513.179
 112  1859.004
 113  710.2345
 114  -228.6988
 115  -223.4291
 116  -741.952
 117  -721.9286
 118  -445.0199
 119  242.723
 120  507.0871
 121  -3.845087
 122  -717.1481
 123  -834.3978
 124  -507.4348
 125  -99.21127
 126  674.0178
 127  1261.706
 128  1528.809
 129  1077.832
 130  513.0581
 131  94.71111
 132  -442.6003
 133  -565.1161
 134  -489.7404
 135  -94.37397
 136  938.5198
 137  939.0253
 138  5.865779
 139  -351.1794
 140  -654.3843
 141  -583.5581
 142  -31.34429
 143  1277.879
 144  2019.791
 145  1568.562
 146  616.5319
 147  116.0064
 148  -582.102
 149  -784.4865
 150  -313.6812
 151  -143.1682
 152  646.8967
 153  973.6036
 154  285.0969
 155  -1036.231
 156  -994.3218
 157  -742.1697
 158  -248.5397
 159  280.551
 160  1304.192
 161  2213.027
 162  1346.164
 163  305.3987
 164  -548.5796
 165  -747.9404
 166  -842.1732
 167  -783.8397
 168  72.67906
 169  532.3316
 170  551.2875
 171  154.1129
 172  -423.9078
 173  -624.9589
 174  -747.6075
 175  -278.1252
 176  924.674
 177  1837.934
 178  1952.406
 179  1189.974
 180  169.7144
 181  -602.6639
 182  -1138.259
 183  -1161.887
 184  -390.2313
 185  576.3226
 186  809.0441
 187  222.3359
 188  -817.7559
 189  -1027.739
 190  -1321.494
 191  -1074.034
 192  219.2113
 193  1327.27
 194  1698.289
 195  1228.488
 196  252.3698
 197  -337.1165
 198  -767.0824
 199  -965.662
 200  -526.1177
 201  54.13312
 202  631.6877
 203  615.8646
 204  15.61322
 205  -614.3583
 206  -369.352
 207  -94.99905
 208  219.8896
 209  877.9731
 210  1985.02
 211  2142.384
 212  1468.96
 213  57.44337
 214  -431.635
 215  -809.1945
 216  -677.0955
 217  34.99345
 218  773.6013
 219  1104.813
 220  -140.6421
 221  -1000.286
 222  -1202.618
 223  -1487.397
 224  -874.2668
 225  444.3128
 226  1423.969
 227  2031.179
 228  1566.195
 229  213.8952
 230  -1045.27
 231  -1395.835
 232  -1190.33
 233  -454.0745
 234  24.76359
 235  768.2626
 236  1154.712
 237  152.5498
 238  -649.8029
 239  -629.0389
 240  -207.5329
 241  -49.17115
 242  785.2079
 243  2079.595
 244  2582.238
 245  1317.799
 246  643.0823
 247  -328.5299
 248  -980.7385
 249  -1354.735
 250  -626.468
 251  189.0675
 252  685.9186
 253  166.6511
 254  -623.7589
 255  -1023.062
 256  -1068.253
 257  -997.0797
 258  -330.5027
 259  909.1519
 260  1850.8
 261  1625.818
 262  908.6503
 263  -10.05811
 264  -776.0574
 265  -807.1398
 266  -49.42999
 267  263.0779
 268  626.95
 269  475.5612
 270  -104.4896
 271  -538.229
 272  -605.5057
 273  -434.4318
 274  291.286
 275  835.5535
 276  1956.682
 277  1912.119
 278  1223.143
 279  639.9829
 280  741.5962
 281  364.9281
 282  -585.9622
 283  -395.2526
 284  -75.92028
 285  495.7474
 286  229.8833
 287  -357.2613
 288  -795.6695
 289  -882.2922
 290  -760.752
 291  -168.4567
 292  785.0594
 293  1541.836
 294  1379.462
 295  488.1837
 296  -578.8729
 297  -1026.805
 298  -891.4725
 299  -177.5393
 300  606.9446
 301  1254.552
 302  1066.889
 303  413.2055
 304  -397.8528
 305  -937.4086
 306  -519.8109
 307  -33.01382
 308  1036.553
 309  2475.842
 310  2387.914
 311  1540.164
 312  456.0325
 313  -146.1593
 314  -372.8942
 315  -526.092
 316  -446.7607
 317  26.36
 318  665.6529
 319  501.9728
 320  67.5734
 321  -184.6417
 322  -550.5076
 323  -925.6528
 324  -492.0659
 325  1103.53
 326  1488.679
 327  1518.629
 328  840.9755
 329  80.87542
 330  -477.5801
 331  -1278.315
 332  -866.8145
 333  -182.0638
 334  749.2765
 335  265.1914
 336  75.30013
 337  -365.676
 338  -325.6119
 339  -295.269
 340  -393.2913
 341  746.4693
 342  1701.412
 343  1863.56
 344  1306.122
 345  685.3857
 346  -41.89906
 347  -662.8215
 348  -506.831
 349  -677.1136
 350  110.1204
 351  599.3019
 352  144.4583
 353  -37.27581
 354  -396.9784
 355  -531.4171
 356  -413.2962
 357  -136.9484
 358  557.2018
 359  1453.626
 360  1212.256
 361  1006.202
 362  303.0292
 363  -432.4825
 364  -766.7861
 365  -655.1788
 366  -16.88311
 367  636.5264
 368  411.1289
 369  145.739
 370  -287.6194
 371  -448.4057
 372  -339.5109
 373  -222.9333
 374  792.9303
 375  1934.763
 376  2111.164
 377  640.9604
 378  -277.6951
 379  -494.6482
 380  -569.252
 381  -803.5905
 382  -817.4338
 383  -73.64586
 384  562.39
 385  188.0625
 386  -440.9124
 387  -857.2668
 388  -888.9017
 389  -879.6554
 390  -34.23603
 391  1201.042
 392  1376.028
 393  1055.884
 394  268.6143
 395  -6.149554
 396  -261.2827
 397  -677.4911
 398  -740.7972
 399  -294.2354
 400  376.0594
 401  933.3481
 402  431.1696
 403  -119.9953
 404  -159.6892
 405  -247.4133
 406  -71.94935
 407  611.7419
 408  1358.987
 409  1700.128
 410  1297.214
 411  551.3207
 412  -18.03615
 413  -325.9444
 414  -800.1699
 415  -575.9956
 416  -32.68075
 417  103.3106
 418  -37.34703
 419  -802.3671
 420  -848.8397
 421  -813.4141
 422  -682.3873
 423  -499.9099
 424  128.3433
 425  768.7869
 426  789.8739
 427  201.8854
 428  -297.639
 429  -677.0977
 430  -1091.373
 431  -1176.086
 432  -461.471
 433  160.2521
 434  19.54084
 435  -544.1288
 436  -827.2666
 437  -968.5868
 438  -1370.989
 439  -930.6187
 440  -260.213
 441  744.6911
 442  1406.775
 443  307.898
 444  -447.7755
 445  -1236.129
 446  -1203.524
 447  -886.371
 448  -667.8883
 449  -265.3594
 450  273.689
 451  -157.1906
 452  -1054.112
 453  -1085.238
 454  -1254.829
 455  -727.3156
 456  -99.45315
 457  438.2602
 458  1161.198
 459  658.2292
 460  32.27809
 461  -638.2075
 462  -1086.18
 463  -1066.75
 464  -1106.725
 465  -365.8922
 466  -202.1866
 467  128.5919
 468  -649.3665
 469  -1151.132
 470  -1055.127
 471  -1013.484
 472  -1090.015
 473  -316.7486
 474  1100.677
 475  1234.015
 476  680.1905
 477  -286.6275
 478  -602.6389
 479  -926.0873
 480  -1395.544
 481  -1134.246
 482  -737.6585
 483  -161.6073
 484  -529.961
 485  -1513.076
 486  -1477.955
 487  -1036.191
 488  -826.8343
 489  -551.6159
 490  411.0768
 491  990.6758
 492  544.6646
 493  -343.3791
 494  -938.7792
 495  -650.7138
 496  -655.0781
 497  -760.6093
 498  -355.7532
 499  -155.4114
 500  -289.6751
 501  -418.6647
 502  -1000.12
 503  -1329.455
 504  -1152.172
 505  -907.3355
 506  16.24949
 507  884.2849
 508  841.7608
 509  640.3272
 510  -544.218
 511  -1331.036
