# Input file       =  1205583670.095333_cleaned.dat
# Candidate        =  PSR_0332+5434
# Telescope        =  AR
# Epoch_topo       =  58197.514920084875
# Epoch_bary       =  N/A
# T_sample         =  0.002
# Data Folded      =  7340032
# Data Avg         =  0.506582088217588
# Data StdDev      =  5.92922262971017 
# Profile Bins     =  256
# Profile Avg      =  14525.2361271582 
# Profile StdDev   =  1003.98390695357 
# Reduced chi-sqr  =  1.394
# Prob(Noise)      <  3.22e-05   (~4.0 sigma)
# P_topo (ms)      =  714.575526382837  +/- 0.00142
# P'_topo (s/s)    =  -0                +/- 7.48e-10
# P''_topo (s/s^2) =  0                 +/- 3.3e-13
# P_bary (ms)      =  N/A
# P'_bary (s/s)    =  N/A
# P''_bary (s/s^2) =  N/A
# P_orb (s)        =  N/A
# asin(i)/c (s)    =  N/A
# eccentricity     =  N/A
# w (rad)          =  N/A
# T_peri           =  N/A
######################################################
   0  13012.27
   1  13173.89
   2  14100.4
   3  13555.76
   4  13275.83
   5  13367.89
   6  13938.75
   7  13692.67
   8  14324.51
   9  13981.73
  10  13542.41
  11  13173.82
  12  13161.03
  13  13485.94
  14  13180.87
  15  12938.17
  16  12940.71
  17  12933.93
  18  14154.41
  19  13982.32
  20  13484.65
  21  13734.72
  22  14105.61
  23  14426.62
  24  14047.31
  25  14399.56
  26  13786.95
  27  14466.51
  28  14173.15
  29  14698.36
  30  14391.95
  31  14154.54
  32  15028.75
  33  14441.94
  34  14555.97
  35  13958.6
  36  14046.1
  37  13902.34
  38  13308.37
  39  13688.15
  40  13452.36
  41  13353.93
  42  13319.52
  43  14173.57
  44  13680.07
  45  13679.75
  46  13529.9
  47  13753.91
  48  14216
  49  13724.89
  50  14524.43
  51  14709.31
  52  14941.81
  53  14271.05
  54  14439.07
  55  13918.64
  56  13765.1
  57  13599.42
  58  13890.03
  59  13559.36
  60  13729.68
  61  14491.34
  62  14017.3
  63  14641.74
  64  14389.97
  65  14569.4
  66  14634.23
  67  14092.79
  68  14081.05
  69  14153.1
  70  14335.47
  71  14477.39
  72  14109.63
  73  14925.75
  74  14971.23
  75  14567.23
  76  14771.81
  77  13917.74
  78  14204.82
  79  13969.37
  80  14140.39
  81  14006.23
  82  14733.77
  83  15387.97
  84  15518.98
  85  14856.61
  86  15098.7
  87  15398.5
  88  14984.72
  89  15327.68
  90  14403.39
  91  13698.14
  92  14099.48
  93  15215.11
  94  14932.04
  95  14716.06
  96  14537.83
  97  14825.27
  98  14591.88
  99  14481.38
 100  13969.93
 101  14088.06
 102  14229.72
 103  13601.4
 104  12822.11
 105  13742.81
 106  13610.66
 107  13183.79
 108  12792.19
 109  13046.65
 110  13066.24
 111  12662.75
 112  12454.39
 113  11909.64
 114  12141.49
 115  13253.77
 116  13485.93
 117  12825.46
 118  13459.23
 119  13889.55
 120  13821.28
 121  13843.04
 122  14095.33
 123  13510.07
 124  14049.6
 125  13800.45
 126  13493.73
 127  13272.11
 128  13567.42
 129  14181.84
 130  15199.76
 131  15024.05
 132  15030.47
 133  15478.57
 134  15587.29
 135  15053.13
 136  16325.39
 137  16202.56
 138  16288.25
 139  16419.52
 140  15858.52
 141  15663.45
 142  15966.59
 143  15742.63
 144  15471.75
 145  15906.85
 146  16395.93
 147  16564.56
 148  16627.08
 149  16711.69
 150  18048.11
 151  18488.73
 152  18707
 153  16742.48
 154  15454.99
 155  15774.72
 156  15105.65
 157  15126.29
 158  15462.09
 159  15437.21
 160  15502.1
 161  15195.99
 162  15852.04
 163  15473.85
 164  14913.67
 165  15184.9
 166  15622.78
 167  15370.77
 168  15789.63
 169  15767.78
 170  15467.51
 171  16478.61
 172  16193.43
 173  15775.51
 174  15477.35
 175  16021.84
 176  16023.66
 177  15229.57
 178  16603.13
 179  16522.65
 180  15981.3
 181  14689.86
 182  15710.05
 183  17036.99
 184  16059.88
 185  15743.44
 186  15905.68
 187  16406.31
 188  15872.04
 189  14904.76
 190  14923.54
 191  15548.55
 192  15062.29
 193  14836
 194  15293.08
 195  15105.56
 196  15202.06
 197  14201.51
 198  14532.05
 199  14442.04
 200  14307.48
 201  14242.18
 202  14096.96
 203  14098.34
 204  14440.34
 205  14544.88
 206  14449.79
 207  14956.07
 208  15113.83
 209  15556.21
 210  15199.12
 211  14861.32
 212  14995.63
 213  14655.35
 214  13955.57
 215  13945.24
 216  14816.52
 217  14959.11
 218  14390.15
 219  14406.97
 220  14480.55
 221  14715.92
 222  14848.12
 223  14170.45
 224  14295.75
 225  14035.2
 226  14954.58
 227  14348.67
 228  14204.55
 229  14312.11
 230  13556.75
 231  13995.66
 232  13947.3
 233  13587.44
 234  14134.39
 235  13817.25
 236  14355.08
 237  14129.12
 238  14151.03
 239  14210.86
 240  13631.89
 241  13942.32
 242  14275.2
 243  14487.93
 244  13678.4
 245  13581.98
 246  13859.12
 247  13730.89
 248  14255.99
 249  13974.7
 250  13949.55
 251  13903.16
 252  13544.47
 253  14341.23
 254  14369.16
 255  13808.16
