# Input file       =  1205740786.108979_cleaned.dat
# Candidate        =  PSR_0332+5434
# Telescope        =  AR
# Epoch_topo       =  58199.333392465036
# Epoch_bary       =  N/A
# T_sample         =  0.002
# Data Folded      =  7143424
# Data Avg         =  0.0558025024173388
# Data StdDev      =  3.84778468898144 
# Profile Bins     =  512
# Profile Avg      =  778.330322933737 
# Profile StdDev   =  454.494880853489 
# Reduced chi-sqr  =  6.384
# Prob(Noise)      <  0   (~42.5 sigma)
# P_topo (ms)      =  714.574702220701  +/- 1.03e-05
# P'_topo (s/s)    =  -0                +/- 5.56e-12
# P''_topo (s/s^2) =  0                 +/- 2.52e-15
# P_bary (ms)      =  N/A
# P'_bary (s/s)    =  N/A
# P''_bary (s/s^2) =  N/A
# P_orb (s)        =  N/A
# asin(i)/c (s)    =  N/A
# eccentricity     =  N/A
# w (rad)          =  N/A
# T_peri           =  N/A
######################################################
   0  2590.735
   1  2125.552
   2  1223.092
   3  555.9615
   4  249.9954
   5  308.1582
   6  866.0355
   7  1071.457
   8  1486.802
   9  1068.264
  10  465.0016
  11  12.03991
  12  -45.63813
  13  208.2186
  14  1016.525
  15  1951.237
  16  2771.119
  17  2601.343
  18  1788.75
  19  1270.45
  20  1148.87
  21  669.1157
  22  180.416
  23  358.9126
  24  1116.236
  25  1341.517
  26  932.2894
  27  323.9571
  28  141.5657
  29  297.131
  30  451.064
  31  1157.285
  32  2015.44
  33  2538.428
  34  2199.008
  35  1162.729
  36  208.2731
  37  -39.78299
  38  229.2433
  39  708.4984
  40  1344.692
  41  1880.135
  42  1325.355
  43  638.5255
  44  -120.6446
  45  -373.2919
  46  40.68901
  47  641.8235
  48  1887.001
  49  3061.439
  50  2509.404
  51  1555.619
  52  579.7613
  53  -70.39524
  54  -32.7135
  55  62.88587
  56  430.4721
  57  859.7004
  58  1370.985
  59  699.6968
  60  410.5153
  61  204.5483
  62  217.3994
  63  -2.935541
  64  816.074
  65  2120.794
  66  2326.946
  67  1912.944
  68  1018.8
  69  439.0021
  70  35.36985
  71  -317.2955
  72  110.7313
  73  769.3454
  74  1268.832
  75  632.3552
  76  455.2259
  77  44.21962
  78  117.2724
  79  64.44295
  80  219.4817
  81  1508.99
  82  2050.868
  83  2204.365
  84  1673.69
  85  924.0812
  86  340.3706
  87  -20.94047
  88  54.75442
  89  4.115774
  90  1054.093
  91  1389.652
  92  775.3019
  93  323.0327
  94  -36.49306
  95  93.70922
  96  491.7406
  97  991.5157
  98  2089.997
  99  2315.015
 100  2037.182
 101  1391.31
 102  536.629
 103  -36.34584
 104  -130.891
 105  180.5106
 106  949.7693
 107  1166.596
 108  816.4161
 109  386.8266
 110  -95.03983
 111  -150.9003
 112  -27.58581
 113  500.6829
 114  1748.366
 115  2880.843
 116  2760.662
 117  1249.924
 118  391.1762
 119  251.4408
 120  4.984989
 121  -232.0125
 122  67.30053
 123  1053.281
 124  1385.836
 125  831.1028
 126  143.952
 127  -206.165
 128  -153.5934
 129  115.5095
 130  1127.993
 131  2284.592
 132  2363.927
 133  1544.087
 134  785.9489
 135  291.4789
 136  65.66878
 137  -80.85928
 138  2.227537
 139  693.8068
 140  1266.231
 141  1310.615
 142  533.7452
 143  138.4804
 144  -11.53798
 145  130.2362
 146  613.1558
 147  1392.464
 148  2288.429
 149  2308.569
 150  1670.389
 151  878.9587
 152  283.3966
 153  133.5146
 154  -67.40688
 155  490.425
 156  1155.776
 157  1318.393
 158  688.8534
 159  12.24645
 160  -12.33171
 161  17.93958
 162  319.8054
 163  723.4259
 164  1435.69
 165  2078.882
 166  2088.009
 167  1236.268
 168  364.6696
 169  27.93267
 170  -296.9408
 171  14.15433
 172  710.3364
 173  1182.685
 174  1005.733
 175  284.227
 176  131.5157
 177  -265.4608
 178  -314.5257
 179  112.6527
 180  1104.483
 181  2120.522
 182  2500.296
 183  1429.604
 184  468.2541
 185  -273.3103
 186  -299.7454
 187  73.8531
 188  363.2722
 189  949.0214
 190  1233.451
 191  693.6662
 192  24.38628
 193  -53.92809
 194  -450.9525
 195  89.90658
 196  812.9193
 197  1332.454
 198  2101.507
 199  1808.252
 200  975.4544
 201  184.3844
 202  -424.6154
 203  -346.39
 204  -361.7904
 205  451.8123
 206  649.8124
 207  934.615
 208  259.3622
 209  -326.5007
 210  -172.5367
 211  -109.104
 212  -6.301888
 213  1044.565
 214  2195.966
 215  2195.035
 216  1409.994
 217  643.0529
 218  333.7534
 219  -83.35574
 220  -220.6377
 221  268.0214
 222  710.8807
 223  948.8192
 224  303.7135
 225  -462.3662
 226  -449.527
 227  -232.9977
 228  108.3373
 229  704.5709
 230  1605.434
 231  2117.821
 232  1502.465
 233  548.871
 234  -207.7964
 235  -160.2835
 236  -84.21066
 237  -59.9018
 238  415.8646
 239  723.3175
 240  738.4355
 241  521.2458
 242  -104.5428
 243  -409.4284
 244  -497.6223
 245  54.09644
 246  1065.395
 247  1883.049
 248  1827.95
 249  1565.329
 250  341.7047
 251  -391.1717
 252  -619.1907
 253  -391.5879
 254  270.2628
 255  909.7924
 256  1438.662
 257  608.5693
 258  -38.95174
 259  -521.0908
 260  -414.4233
 261  86.03094
 262  903.3368
 263  1988.07
 264  2178.169
 265  1801.063
 266  924.3578
 267  42.0477
 268  -617.4874
 269  -592.5435
 270  244.1943
 271  463.7263
 272  701.1543
 273  734.9243
 274  136.3493
 275  -818.0726
 276  -506.4495
 277  -118.0661
 278  551.6734
 279  1747.532
 280  1909.706
 281  2169.786
 282  1341.553
 283  892.2571
 284  518.8776
 285  41.56887
 286  -430.3463
 287  -371.1828
 288  654.1962
 289  1119.43
 290  811.8774
 291  -216.5425
 292  -98.84662
 293  -16.25258
 294  -246.8468
 295  669.3781
 296  1593.102
 297  2460.876
 298  2549.128
 299  1874.567
 300  1118.73
 301  910.6255
 302  1406.068
 303  1734.777
 304  2152.908
 305  2589.417
 306  1922.771
 307  602.0811
 308  96.12602
 309  190.1405
 310  -116.634
 311  299.8289
 312  1057.966
 313  1807.125
 314  2290.861
 315  2112.499
 316  1023.864
 317  366.5588
 318  215.1331
 319  159.2374
 320  253.4168
 321  849.6694
 322  1251.926
 323  975.1942
 324  242.1531
 325  -142.3154
 326  115.3339
 327  -21.01939
 328  409.7609
 329  1337.805
 330  2189.923
 331  1959.91
 332  1172.031
 333  725.178
 334  176.1321
 335  -104.4144
 336  270.0808
 337  1068.194
 338  1506.715
 339  1583.975
 340  770.4374
 341  -236.909
 342  -113.6978
 343  327.2716
 344  668.6191
 345  1316.88
 346  2286.315
 347  1922.804
 348  1326.116
 349  435.482
 350  330.6154
 351  180.8512
 352  140.5935
 353  276.0407
 354  631.2781
 355  1165.5
 356  657.3551
 357  -38.29038
 358  -525.2426
 359  -450.9279
 360  515.7223
 361  988.4695
 362  2134.671
 363  2532.93
 364  1879.795
 365  910.0718
 366  260.8848
 367  130.2899
 368  -197.5888
 369  16.81451
 370  126.056
 371  763.843
 372  912.0486
 373  385.5208
 374  -355.4485
 375  -397.7831
 376  91.1424
 377  591.0181
 378  1524.112
 379  1832.37
 380  2277.1
 381  1570.063
 382  1263.345
 383  635.3312
 384  28.76616
 385  -59.26501
 386  98.68578
 387  761.5345
 388  1547.763
 389  1404.331
 390  510.7607
 391  374.8647
 392  92.78554
 393  137.7554
 394  924.8588
 395  1876.991
 396  2626.56
 397  2032.493
 398  1563.647
 399  1031.248
 400  154.2905
 401  127.7576
 402  301.6904
 403  613.7405
 404  1278.579
 405  1569.522
 406  833.6805
 407  -105.8067
 408  33.83437
 409  150.8865
 410  677.8641
 411  1267.487
 412  2453.269
 413  2976.524
 414  2008.859
 415  1105.958
 416  355.6235
 417  234.5495
 418  5.404416
 419  404.5377
 420  1136.85
 421  1312.109
 422  1188.755
 423  709.7934
 424  379.542
 425  223.9045
 426  254.2918
 427  800.4216
 428  1896.837
 429  2459.377
 430  2308.909
 431  1467.447
 432  771.1907
 433  357.8141
 434  1.190659
 435  120.0707
 436  692.0142
 437  1178.212
 438  1527.414
 439  802.5397
 440  200.1715
 441  92.57015
 442  -138.8849
 443  357.0465
 444  1315.789
 445  2238.708
 446  2444.815
 447  1899.062
 448  797.855
 449  638.7063
 450  170.9048
 451  61.15231
 452  412.3868
 453  1219.09
 454  1511.97
 455  1065.695
 456  463.9725
 457  134.9708
 458  323.019
 459  460.2448
 460  1036.469
 461  1900.035
 462  2473.524
 463  2569.149
 464  1692.606
 465  728.3911
 466  50.98896
 467  45.72116
 468  441.1654
 469  1043.008
 470  1806.153
 471  1782.343
 472  638.8558
 473  -24.58994
 474  -77.72709
 475  -102.0643
 476  283.1844
 477  1688.79
 478  2477.461
 479  2944.193
 480  2420.779
 481  1173.585
 482  191.2356
 483  -40.6778
 484  -30.8115
 485  307.595
 486  728.8464
 487  1518.462
 488  1456.402
 489  342.6897
 490  -313.0131
 491  -32.27147
 492  393.8803
 493  873.5304
 494  1632.55
 495  2626.877
 496  2308.55
 497  1210.097
 498  772.94
 499  123.8136
 500  -81.54881
 501  -151.0034
 502  788.8697
 503  1070.345
 504  1373.42
 505  577.7068
 506  -76.3432
 507  -225.6008
 508  42.80153
 509  373.3537
 510  905.6575
 511  2110.291
