# Input file       =  1205425822.113558-PSRB0329-2ms-sampling-dd.dat
# Candidate        =  PSR_0332+5434
# Telescope        =  AR
# Epoch_topo       =  58195.687975851368
# Epoch_bary       =  N/A
# T_sample         =  0.002
# Data Folded      =  7340032
# Data Avg         =  2.32952253561177e-09
# Data StdDev      =  23.6366850696863 
# Profile Bins     =  512
# Profile Avg      =  -0.101650324590796
# Profile StdDev   =  2830.09207327491 
# Reduced chi-sqr  =  0.768
# Prob(Noise)      <  1   (~0.0 sigma)
# P_topo (ms)      =  714.576605791818  +/- 0.000732
# P'_topo (s/s)    =  -0                +/- 3.86e-10
# P''_topo (s/s^2) =  0                 +/- 1.7e-13
# P_bary (ms)      =  N/A
# P'_bary (s/s)    =  N/A
# P''_bary (s/s^2) =  N/A
# P_orb (s)        =  N/A
# asin(i)/c (s)    =  N/A
# eccentricity     =  N/A
# w (rad)          =  N/A
# T_peri           =  N/A
######################################################
   0  3600.289
   1  3913.333
   2  3595
   3  3526.935
   4  3012.972
   5  2361.368
   6  1145.298
   7  1303.382
   8  1300.412
   9  1054.072
  10  1102.434
  11  839.3159
  12  740.2278
  13  795.8011
  14  591.7209
  15  531.9198
  16  322.1801
  17  668.3448
  18  835.0345
  19  887.9951
  20  802.7407
  21  426.2213
  22  943.8589
  23  615.6979
  24  399.7413
  25  141.7781
  26  554.4503
  27  373.1597
  28  106.8364
  29  18.18539
  30  90.73431
  31  -116.4904
  32  -574.015
  33  -407.2103
  34  -394.35
  35  -350.6514
  36  -559.5942
  37  -615.638
  38  -1257.615
  39  -1600.539
  40  -1559.461
  41  -1198.133
  42  -1274.254
  43  -1394.651
  44  -1793.129
  45  -2191.055
  46  -2087.495
  47  -2240.53
  48  -2407.784
  49  -2363.772
  50  -2158.255
  51  -1765.563
  52  -1893.576
  53  -1959.626
  54  -1616.03
  55  -1461.267
  56  -753.1664
  57  -259.7984
  58  27.62378
  59  -149.9739
  60  -57.26933
  61  -343.7419
  62  -348.928
  63  -116.2122
  64  -191.2602
  65  -761.166
  66  -772.9563
  67  -416.6923
  68  -641.8063
  69  -509.6921
  70  -112.9066
  71  194.2986
  72  -51.39574
  73  -298.4328
  74  127.3563
  75  269.2424
  76  253.2434
  77  135.242
  78  -146.1056
  79  -12.6484
  80  105.6012
  81  185.3148
  82  456.4283
  83  977.4146
  84  1021.349
  85  1138.306
  86  959.3694
  87  1169.577
  88  1448.233
  89  1964.15
  90  1696.348
  91  1500.696
  92  1686.596
  93  1438.101
  94  1278.931
  95  1457.591
  96  2651.501
  97  2771.431
  98  3189.683
  99  3698.723
 100  4800.688
 101  4567.138
 102  4375.667
 103  4315.164
 104  4537.506
 105  4666.18
 106  4291.729
 107  3873.386
 108  4561.535
 109  4932.476
 110  4679.195
 111  5375.975
 112  5285.662
 113  5438.145
 114  4871.089
 115  4632.981
 116  5049.743
 117  5771.149
 118  5221.066
 119  4575.333
 120  2997.761
 121  1579.978
 122  1051.58
 123  998.7642
 124  1333.959
 125  1599.39
 126  1090.228
 127  639.1328
 128  983.6792
 129  1355.87
 130  1158.179
 131  1137.74
 132  1278.255
 133  1458.108
 134  781.6328
 135  319.3713
 136  106.27
 137  479.6465
 138  821.6312
 139  1017.664
 140  1061.506
 141  1302.628
 142  1092.516
 143  1033.309
 144  643.2361
 145  1033.589
 146  896.9899
 147  767.5928
 148  153.5742
 149  95.95238
 150  408.5696
 151  338.676
 152  38.6423
 153  -172.8204
 154  -781.376
 155  -201.0793
 156  -242.7258
 157  95.107
 158  577.2629
 159  476.9447
 160  -154.435
 161  -422.256
 162  -487.1101
 163  -703.5474
 164  -1584.235
 165  -1453.356
 166  -1105.241
 167  -1496.922
 168  -1967.938
 169  -2217.769
 170  -2048.584
 171  -1924.451
 172  -1619.92
 173  -1398.91
 174  -1678.753
 175  -2279.133
 176  -2235.039
 177  -2316.259
 178  -2069.159
 179  -1530.275
 180  -1196.017
 181  -911.353
 182  -840.4647
 183  -782.0417
 184  -1011.011
 185  -1027.753
 186  -798.9252
 187  -579.9011
 188  -831.4274
 189  -1068.821
 190  -1012.656
 191  -471.7528
 192  -634.7302
 193  -1131.453
 194  -1918.245
 195  -2246.583
 196  -1427.476
 197  -1480.16
 198  -1334.006
 199  -1124.38
 200  -1257.62
 201  -1435.188
 202  -1246.579
 203  -835.5396
 204  -474.8429
 205  -789.9178
 206  -1139.286
 207  -1472.173
 208  -1754.219
 209  -2326.239
 210  -2959.685
 211  -2481.155
 212  -1979.214
 213  -2493.63
 214  -2078.88
 215  -1842.925
 216  -1590.224
 217  -1592.723
 218  -1798.375
 219  -1826.34
 220  -1991.489
 221  -1798.6
 222  -2154.772
 223  -2120.995
 224  -2534.049
 225  -2617.624
 226  -2779.045
 227  -3200.399
 228  -2485.394
 229  -1768.066
 230  -2057.496
 231  -2111.901
 232  -1162.083
 233  -954.6702
 234  -1326.665
 235  -1561.489
 236  -965.7339
 237  -1074.298
 238  -959.9529
 239  -638.811
 240  -663.0973
 241  -363.5735
 242  -639.4455
 243  -622.0785
 244  -866.1261
 245  -818.4527
 246  -722.099
 247  -468.9449
 248  6.577499
 249  -717.28
 250  -936.576
 251  -1022.309
 252  -1032.525
 253  -779.9537
 254  -986.8509
 255  -1617.268
 256  -1465.835
 257  -1491.649
 258  -1579.309
 259  -1755.204
 260  -2023.63
 261  -1473.457
 262  -1269.02
 263  -1025.564
 264  -630.826
 265  378.4922
 266  382.2759
 267  -210.3967
 268  81.1582
 269  1224.703
 270  1461.495
 271  1656.512
 272  2227.401
 273  2435.264
 274  2444.765
 275  1957.693
 276  1886.779
 277  2340.245
 278  1879.897
 279  1721.457
 280  1631.033
 281  1122.691
 282  922.3061
 283  854.7801
 284  636.5846
 285  469.7533
 286  530.7265
 287  855.223
 288  1072.857
 289  1291.3
 290  1447.289
 291  1506.343
 292  882.9053
 293  202.8878
 294  -92.57349
 295  627.1321
 296  156.147
 297  -276.0475
 298  36.54993
 299  654.1583
 300  6.171366
 301  -826.4374
 302  -1208.586
 303  -1159.481
 304  -1517.675
 305  -2044.021
 306  -2111.434
 307  -2174.606
 308  -2756.74
 309  -3209.113
 310  -3297.42
 311  -2933.736
 312  -3019.756
 313  -3015.119
 314  -2990.357
 315  -2851.667
 316  -2815.511
 317  -2788.573
 318  -2867.326
 319  -2355.899
 320  -1982.484
 321  -2267.661
 322  -2335.329
 323  -2595.412
 324  -2020.764
 325  -1950.784
 326  -1979.694
 327  -2430.75
 328  -2024.015
 329  -2165.237
 330  -2571.374
 331  -1649.276
 332  -1162.875
 333  -1349.855
 334  -1914.009
 335  -1000.261
 336  -430.5201
 337  -431.9592
 338  63.08939
 339  943.9957
 340  1372.011
 341  1118.773
 342  1064.226
 343  819.8794
 344  1170.435
 345  602.9664
 346  286.1888
 347  340.2506
 348  244.6583
 349  177.1819
 350  -198.2148
 351  -686.8609
 352  -580.9044
 353  -26.25046
 354  130.1774
 355  547.559
 356  1111.523
 357  956.5541
 358  695.2018
 359  -348.0233
 360  -472.9647
 361  -187.8414
 362  -581.8809
 363  78.44897
 364  596.3791
 365  436.3391
 366  419.2068
 367  58.4352
 368  -283.191
 369  -785.0493
 370  -932.1359
 371  -939.1841
 372  -77.33902
 373  576.855
 374  166.1001
 375  -1003.686
 376  -1032.363
 377  -746.4813
 378  -823.7853
 379  -1228.159
 380  -818.3984
 381  -315.8593
 382  -390.3664
 383  -585.2048
 384  -480.3975
 385  86.73544
 386  -124.3206
 387  -663.5707
 388  -675.8471
 389  -391.5519
 390  53.43422
 391  -535.8861
 392  -819.5104
 393  -744.1648
 394  -494.3287
 395  -688.5879
 396  -377.8603
 397  -184.5161
 398  254.7636
 399  465.6203
 400  479.0592
 401  1392.265
 402  1524.944
 403  1008.135
 404  424.7375
 405  494.4823
 406  393.1249
 407  408.2213
 408  198.1908
 409  493.3191
 410  112.0951
 411  680.4019
 412  707.4612
 413  1400.347
 414  2063.915
 415  1473.336
 416  1636.922
 417  775.1805
 418  553.3459
 419  584.4649
 420  78.86207
 421  -299.136
 422  -326.2004
 423  -282.5765
 424  -1354.321
 425  -1693.934
 426  -1607.653
 427  -1279.475
 428  -1414.826
 429  -1817.332
 430  -1230.339
 431  -921.3331
 432  -828.6122
 433  -1041.079
 434  -863.9352
 435  -1154.957
 436  -1835.093
 437  -1693.643
 438  -965.8021
 439  -68.79627
 440  -904.744
 441  -1344.242
 442  -1754.842
 443  -1110.832
 444  -1202.942
 445  -1236.383
 446  -1215.872
 447  -1126.261
 448  -807.4558
 449  -1031.192
 450  -1117.445
 451  -1094.602
 452  -1166.416
 453  -1398.801
 454  -1094.326
 455  -830.7178
 456  -539.5313
 457  -832.519
 458  -1212.503
 459  -1491.88
 460  -1071.693
 461  -1514.497
 462  -1484.417
 463  -1269.664
 464  -1151.806
 465  -1140.001
 466  -1317.717
 467  -722.4047
 468  -271.7341
 469  -1002.385
 470  -740.4951
 471  -396.734
 472  271.8135
 473  532.5536
 474  124.9554
 475  569.5826
 476  605.8338
 477  294.0747
 478  -187.2307
 479  0.06803876
 480  -20.89029
 481  -132.448
 482  56.89244
 483  -116.9273
 484  -303.5008
 485  -781.6422
 486  -741.6501
 487  -129.5388
 488  218.5729
 489  812.3248
 490  609.2059
 491  507.8344
 492  606.6753
 493  775.4315
 494  1617.757
 495  1827.903
 496  2333.721
 497  3071.207
 498  3449.799
 499  3816.912
 500  4537.241
 501  5068.05
 502  5419.195
 503  5182.899
 504  5649.497
 505  5613.94
 506  5837.88
 507  5166.744
 508  4128.501
 509  4155.629
 510  3993.1
 511  3364.269
