# Input file       =  1205238896.100999_cleaned.dat
# Candidate        =  PSR_0332+5434
# Telescope        =  AR
# Epoch_topo       =  58193.524480335640
# Epoch_bary       =  N/A
# T_sample         =  0.002
# Data Folded      =  7340032
# Data Avg         =  0.0242525778495022
# Data StdDev      =  1.00005645617428 
# Profile Bins     =  512
# Profile Avg      =  347.636242140043 
# Profile StdDev   =  119.739796045934 
# Reduced chi-sqr  =  1.220
# Prob(Noise)      <  0.000476   (~3.3 sigma)
# P_topo (ms)      =  714.577084200998  +/- 0.000621
# P'_topo (s/s)    =  -0                +/- 3.27e-10
# P''_topo (s/s^2) =  0                 +/- 1.45e-13
# P_bary (ms)      =  N/A
# P'_bary (s/s)    =  N/A
# P''_bary (s/s^2) =  N/A
# P_orb (s)        =  N/A
# asin(i)/c (s)    =  N/A
# eccentricity     =  N/A
# w (rad)          =  N/A
# T_peri           =  N/A
######################################################
   0  897.9301
   1  826.3686
   2  681.6379
   3  367.9314
   4  277.3238
   5  357.3884
   6  353.1824
   7  350.6845
   8  358.6542
   9  342.0913
  10  335.8355
  11  354.8062
  12  337.5874
  13  297.1409
  14  294.2723
  15  358.7281
  16  381.7065
  17  264.1992
  18  294.0668
  19  360.9088
  20  273.1357
  21  201.1351
  22  307.0767
  23  367.8976
  24  221.0923
  25  262.2827
  26  223.0606
  27  406.3984
  28  410.6134
  29  277.6183
  30  275.0809
  31  285.5318
  32  302.5765
  33  301.1801
  34  411.1069
  35  426.9211
  36  364.4676
  37  414.8308
  38  413.6906
  39  323.0805
  40  292.9473
  41  421.0914
  42  424.3815
  43  371.0627
  44  407.6581
  45  451.0308
  46  285.2813
  47  269.8066
  48  359.0315
  49  485.5632
  50  483.5834
  51  391.2995
  52  334.0331
  53  439.7599
  54  404.3513
  55  350.8255
  56  501.0449
  57  459.4676
  58  495.8706
  59  477.0834
  60  419.1246
  61  412.7395
  62  430.0818
  63  423.5311
  64  434.3611
  65  476.1835
  66  452.1113
  67  424.7117
  68  439.3882
  69  403.2186
  70  434.1497
  71  519.8724
  72  412.2456
  73  354.2204
  74  373.0541
  75  514.4407
  76  456.9521
  77  419.2042
  78  394.3656
  79  378.9399
  80  457.3114
  81  433.2484
  82  334.0242
  83  306.5695
  84  329.4032
  85  447.206
  86  483.044
  87  319.9493
  88  343.891
  89  389.5065
  90  323.61
  91  308.7222
  92  249.6835
  93  227.85
  94  352.396
  95  433.7234
  96  292.2705
  97  332.0919
  98  370.6108
  99  338.1481
 100  340.7878
 101  362.5894
 102  372.489
 103  489.6889
 104  402.2483
 105  233.6525
 106  177.705
 107  143.1905
 108  157.1086
 109  413.7919
 110  317.3159
 111  235.8881
 112  197.6833
 113  328.8098
 114  335.5644
 115  370.8592
 116  433.7006
 117  229.6205
 118  273.5874
 119  316.6249
 120  348.3991
 121  310.5869
 122  303.7305
 123  296.1792
 124  206.2717
 125  245.9047
 126  350.2084
 127  346.2406
 128  283.1037
 129  184.942
 130  274.7523
 131  286.6106
 132  203.8627
 133  301.2972
 134  446.1211
 135  398.3909
 136  373.7939
 137  316.0421
 138  443.5782
 139  411.9777
 140  345.2167
 141  379.6065
 142  437.7794
 143  353.4663
 144  402.8744
 145  404.0993
 146  304.668
 147  290.0995
 148  322.6095
 149  364.8635
 150  372.6606
 151  261.5423
 152  229.8898
 153  387.9124
 154  387.7826
 155  260.341
 156  267.3708
 157  265.5816
 158  307.1132
 159  315.7386
 160  400.7875
 161  241.2622
 162  281.6297
 163  328.7486
 164  273.2798
 165  340.0916
 166  401.9517
 167  323.2985
 168  287.4688
 169  376.8026
 170  379.8177
 171  324.8625
 172  495.6729
 173  454.1986
 174  284.1112
 175  291.3047
 176  386.0948
 177  456.1212
 178  338.8087
 179  331.7349
 180  386.6863
 181  370.4993
 182  342.6331
 183  310.9195
 184  301.2525
 185  253.1338
 186  231.7416
 187  263.6775
 188  263.0033
 189  287.6993
 190  271.528
 191  304.5655
 192  291.3324
 193  295.7682
 194  338.3899
 195  302.9354
 196  320.9641
 197  409.5945
 198  307.2122
 199  360.0217
 200  375.3112
 201  371.3687
 202  294.8487
 203  415.0247
 204  456.6825
 205  452.688
 206  554.7424
 207  448.2758
 208  404.442
 209  402.6909
 210  246.8457
 211  278.014
 212  415.5915
 213  371.5113
 214  397.9826
 215  377.7958
 216  402.6439
 217  407.5328
 218  417.457
 219  308.4388
 220  305.1519
 221  359.7568
 222  440.2028
 223  403.8288
 224  475.6822
 225  474.7293
 226  367.834
 227  400.5653
 228  372.5412
 229  353.9614
 230  340.2682
 231  291.391
 232  356.3593
 233  336.4216
 234  330.7204
 235  284.6121
 236  265.116
 237  323.3832
 238  395.9899
 239  432.3107
 240  482.1592
 241  488.6903
 242  553.7023
 243  437.7564
 244  394.7875
 245  447.7243
 246  377.2415
 247  366.4143
 248  387.5987
 249  362.1907
 250  322.7091
 251  369.5587
 252  362.1436
 253  433.3098
 254  389.2693
 255  441.0482
 256  380.9458
 257  314.7487
 258  501.8162
 259  350.334
 260  370.4933
 261  462.029
 262  479.9251
 263  484.492
 264  437.3053
 265  312.3841
 266  389.2677
 267  475.4676
 268  414.8283
 269  438.2786
 270  423.3098
 271  376.8847
 272  387.9761
 273  302.5735
 274  366.6458
 275  307.3979
 276  298.7489
 277  389.4369
 278  341.9659
 279  236.8976
 280  312.2092
 281  406.3808
 282  319.0183
 283  230.675
 284  213.7066
 285  345.524
 286  342.0714
 287  305.3331
 288  337.0295
 289  366.6167
 290  328.4289
 291  463.1875
 292  480.1454
 293  371.6092
 294  386.5172
 295  313.5185
 296  271.7083
 297  379.0859
 298  417.197
 299  294.2886
 300  289.0313
 301  297.7704
 302  233.8085
 303  288.2901
 304  239.4278
 305  301.7786
 306  309.9411
 307  315.3112
 308  324.1518
 309  252.4757
 310  258.9986
 311  327.8185
 312  287.0858
 313  306.5282
 314  261.8051
 315  237.0648
 316  221.2995
 317  146.4096
 318  243.2283
 319  261.4004
 320  243.135
 321  291.4099
 322  286.3603
 323  175.6268
 324  174.1041
 325  300.4568
 326  262.2751
 327  146.9688
 328  201.7572
 329  317.9718
 330  259.8208
 331  261.6021
 332  194.0797
 333  125.9398
 334  120.5097
 335  237.5117
 336  235.0867
 337  346.7855
 338  342.5414
 339  271.0695
 340  295.77
 341  355.1402
 342  236.24
 343  181.904
 344  346.1325
 345  432.2159
 346  418.533
 347  266.1806
 348  235.8882
 349  250.0896
 350  308.5934
 351  450.2345
 352  400.0054
 353  304.1027
 354  358.1191
 355  367.7999
 356  398.1959
 357  381.5397
 358  221.3907
 359  239.6644
 360  294.5068
 361  352.5867
 362  238.0346
 363  299.8318
 364  314.9986
 365  357.5367
 366  349.9254
 367  297.3712
 368  347.6558
 369  355.127
 370  298.6469
 371  283.4123
 372  417.1962
 373  437.6425
 374  303.7888
 375  294.8879
 376  366.4744
 377  235.8748
 378  112.4898
 379  143.3845
 380  261.9057
 381  350.8362
 382  387.5872
 383  388.2833
 384  420.0693
 385  491.1388
 386  338.3405
 387  290.0996
 388  345.6203
 389  338.0079
 390  423.6398
 391  482.6547
 392  485.2632
 393  388.8114
 394  337.4901
 395  366.7528
 396  399.1693
 397  319.3769
 398  374.8324
 399  335.3592
 400  341.1808
 401  395.1817
 402  297.1917
 403  355.8415
 404  410.0104
 405  398.0283
 406  357.2857
 407  376.6375
 408  366.1544
 409  310.4586
 410  339.6461
 411  306.1095
 412  335.9659
 413  198.9121
 414  173.7492
 415  247.4
 416  307.436
 417  346.7774
 418  264.6901
 419  269.4945
 420  373.7938
 421  361.2362
 422  323.7124
 423  310.2033
 424  272.4337
 425  298.9805
 426  264.3499
 427  237.1825
 428  351.3916
 429  371.2039
 430  377.5595
 431  292.42
 432  281.0267
 433  311.183
 434  267.5392
 435  362.2716
 436  464.4145
 437  422.2573
 438  331.2782
 439  377.6144
 440  357.4158
 441  294.4012
 442  299.4665
 443  408.8069
 444  328.8619
 445  212.6453
 446  161.7456
 447  244.2428
 448  352.8743
 449  363.9584
 450  345.0125
 451  359.7437
 452  244.9519
 453  287.1768
 454  471.1653
 455  350.7669
 456  372.2849
 457  347.5477
 458  165.8217
 459  137.1652
 460  317.1437
 461  357.4681
 462  325.1924
 463  205.7875
 464  215.0751
 465  267.2478
 466  264.3838
 467  264.2845
 468  294.0355
 469  266.1779
 470  314.7685
 471  296.4315
 472  285.9741
 473  257.5868
 474  257.9622
 475  298.2034
 476  308.7061
 477  368.1813
 478  404.5258
 479  478.2809
 480  380.9679
 481  377.5837
 482  369.6606
 483  361.7242
 484  312.0258
 485  302.6202
 486  359.4262
 487  368.6583
 488  215.9372
 489  352.8308
 490  307.4066
 491  288.4963
 492  275.1108
 493  218.0997
 494  303.3625
 495  321.9729
 496  379.8049
 497  337.072
 498  417.127
 499  432.9487
 500  503.8726
 501  569.6819
 502  581.8504
 503  455.1153
 504  426.1452
 505  549.768
 506  500.9332
 507  631.8209
 508  712.2584
 509  707.4328
 510  833.6246
 511  852.0555
