# Input file       =  1205841527.112188_cleaned.dat
# Candidate        =  PSR_0332+5434
# Telescope        =  AR
# Epoch_topo       =  58200.499376298474
# Epoch_bary       =  N/A
# T_sample         =  0.002
# Data Folded      =  7340032
# Data Avg         =  0.00934536163566429
# Data StdDev      =  1.00036361699617 
# Profile Bins     =  512
# Profile Avg      =  134.014417143596 
# Profile StdDev   =  119.776573343796 
# Reduced chi-sqr  =  1.424
# Prob(Noise)      <  8.22e-10   (~6.0 sigma)
# P_topo (ms)      =  714.574176041734  +/- 0.000485
# P'_topo (s/s)    =  -0                +/- 2.56e-10
# P''_topo (s/s^2) =  0                 +/- 1.13e-13
# P_bary (ms)      =  N/A
# P'_bary (s/s)    =  N/A
# P''_bary (s/s^2) =  N/A
# P_orb (s)        =  N/A
# asin(i)/c (s)    =  N/A
# eccentricity     =  N/A
# w (rad)          =  N/A
# T_peri           =  N/A
######################################################
   0  725.2801
   1  692.0862
   2  538.9628
   3  314.4856
   4  206.492
   5  121.4404
   6  165.5303
   7  216.702
   8  157.3776
   9  209.7959
  10  275.5893
  11  229.5997
  12  224.1032
  13  351.3007
  14  294.8365
  15  335.1667
  16  309.3112
  17  266.2727
  18  291.2649
  19  247.9428
  20  227.244
  21  183.8198
  22  164.0954
  23  150.141
  24  147.015
  25  152.6617
  26  121.2114
  27  175.4895
  28  70.25037
  29  63.35696
  30  91.5101
  31  66.72873
  32  139.8223
  33  162.6168
  34  132.1517
  35  27.06561
  36  57.48231
  37  113.7455
  38  100.5621
  39  88.18661
  40  127.7951
  41  21.37957
  42  1.953616
  43  48.93427
  44  137.2543
  45  68.6034
  46  47.60081
  47  114.6605
  48  195.8243
  49  97.30514
  50  1.038307
  51  18.08995
  52  95.79755
  53  118.3321
  54  66.48018
  55  38.93343
  56  41.02647
  57  32.92496
  58  -20.2866
  59  14.28631
  60  94.33973
  61  145.0037
  62  132.3541
  63  116.3378
  64  181.8472
  65  164.8553
  66  149.8426
  67  245.967
  68  160.6976
  69  186.2203
  70  140.5024
  71  170.2542
  72  127.0807
  73  112.4007
  74  148.4315
  75  178.1279
  76  208.875
  77  219.19
  78  139.0356
  79  174.718
  80  137.1013
  81  123.9553
  82  107.359
  83  67.05394
  84  107.7132
  85  195.2206
  86  228.1511
  87  198.477
  88  195.8628
  89  116.1767
  90  90.37589
  91  36.0295
  92  134.9868
  93  116.7893
  94  147.1282
  95  124.9703
  96  178.7464
  97  260.8032
  98  163.612
  99  65.57942
 100  158.6411
 101  180.4285
 102  150.0991
 103  197.163
 104  176.5691
 105  161.5982
 106  227.0399
 107  189.6857
 108  134.5562
 109  84.68475
 110  215.7148
 111  110.3182
 112  119.2777
 113  152.0976
 114  124.258
 115  169.1761
 116  165.2167
 117  142.5184
 118  128.1801
 119  40.56168
 120  81.14468
 121  183.4867
 122  163.3183
 123  87.19596
 124  106.9457
 125  204.4272
 126  163.1168
 127  156.5298
 128  237.6446
 129  202.3805
 130  120.6863
 131  104.9748
 132  183.1131
 133  165.6696
 134  101.2499
 135  124.7494
 136  68.53886
 137  147.709
 138  156.2222
 139  206.912
 140  139.8631
 141  86.86116
 142  173.2425
 143  143.6776
 144  81.68974
 145  159.804
 146  194.4165
 147  154.6399
 148  74.16057
 149  209.7369
 150  225.3294
 151  105.2859
 152  138.9473
 153  171.7639
 154  126.7486
 155  91.41216
 156  55.25666
 157  59.84194
 158  91.31509
 159  152.2032
 160  35.83696
 161  93.32421
 162  98.26421
 163  100.3089
 164  48.77732
 165  30.16316
 166  25.03292
 167  66.46391
 168  70.73924
 169  107.0999
 170  58.43237
 171  76.44986
 172  83.86624
 173  58.64589
 174  119.2784
 175  111.5322
 176  12.58194
 177  0.4713752
 178  -4.871572
 179  62.49743
 180  86.75833
 181  77.15701
 182  62.05727
 183  23.88248
 184  0.7926705
 185  68.07269
 186  91.86024
 187  165.0239
 188  168.9874
 189  226.7866
 190  120.3509
 191  79.26917
 192  87.57585
 193  77.26698
 194  46.73418
 195  48.77218
 196  59.85057
 197  50.70832
 198  24.12207
 199  75.94347
 200  152.8288
 201  105.057
 202  16.25523
 203  -11.2732
 204  -52.14124
 205  -22.98262
 206  5.428363
 207  142.9819
 208  183.7258
 209  136.8736
 210  142.0574
 211  23.64816
 212  44.67321
 213  134.5594
 214  97.38065
 215  77.30832
 216  2.432424
 217  49.55021
 218  31.16618
 219  81.38988
 220  63.88612
 221  62.63134
 222  100.0116
 223  60.90403
 224  72.64919
 225  73.84191
 226  83.2689
 227  15.42615
 228  86.87983
 229  69.20811
 230  32.71673
 231  29.47058
 232  69.10516
 233  31.95424
 234  -25.28064
 235  -31.84674
 236  44.57774
 237  154.7346
 238  192.318
 239  144.6875
 240  80.22385
 241  34.55464
 242  104.9996
 243  54.27439
 244  47.9739
 245  36.69921
 246  6.792427
 247  101.2962
 248  142.0524
 249  86.56593
 250  99.35886
 251  114.9005
 252  149.1847
 253  122.6787
 254  111.3066
 255  23.4896
 256  94.56662
 257  98.86607
 258  42.21224
 259  95.28894
 260  136.2153
 261  162.8795
 262  66.65414
 263  -34.58307
 264  -46.11427
 265  58.09832
 266  91.71229
 267  17.36666
 268  7.183868
 269  -9.900105
 270  -2.589443
 271  78.71782
 272  72.92569
 273  70.94474
 274  126.4802
 275  145.7117
 276  97.02943
 277  126.8326
 278  164.4865
 279  214.8559
 280  137.2387
 281  54.53392
 282  129.4757
 283  191.3962
 284  274.5551
 285  160.323
 286  142.2684
 287  216.9656
 288  172.8668
 289  160.0143
 290  215.8833
 291  149.5489
 292  143.0041
 293  89.94693
 294  145.0278
 295  210.7254
 296  162.7568
 297  94.63701
 298  123.8339
 299  91.27942
 300  64.51749
 301  94.74113
 302  128.0357
 303  119.6285
 304  176.2997
 305  104.1941
 306  133.6851
 307  133.5019
 308  123.6688
 309  112.3327
 310  111.7195
 311  261.4846
 312  209.9137
 313  90.71896
 314  68.40863
 315  101.2879
 316  134.6523
 317  118.7911
 318  157.6195
 319  178.1951
 320  147.3188
 321  142.4431
 322  159.04
 323  121.5636
 324  116.3363
 325  188.547
 326  177.7178
 327  99.88422
 328  142.9687
 329  121.2096
 330  98.09888
 331  222.9419
 332  229.9221
 333  233.771
 334  270.5322
 335  244.9103
 336  201.8393
 337  182.7009
 338  136.9382
 339  121.6225
 340  192.5187
 341  195.1257
 342  177.4778
 343  80.1841
 344  81.44794
 345  84.55425
 346  139.7002
 347  212.5489
 348  140.3855
 349  190.2718
 350  208.0111
 351  171.9122
 352  220.3569
 353  313.4422
 354  372.2769
 355  333.0219
 356  341.6523
 357  273.3519
 358  266.5519
 359  261.881
 360  287.5127
 361  359.4897
 362  308.8466
 363  206.203
 364  325.8267
 365  320.6474
 366  273.5179
 367  249.8289
 368  331.3601
 369  267.8429
 370  302.1047
 371  295.5381
 372  245.1023
 373  184.4058
 374  244.7678
 375  203.5931
 376  175.4393
 377  200.8655
 378  165.398
 379  195.3876
 380  220.1035
 381  253.1581
 382  227.9554
 383  231.7034
 384  264.1948
 385  191.9466
 386  227.2075
 387  177.2704
 388  234.0385
 389  280.7284
 390  190.3399
 391  193.8181
 392  260.9969
 393  312.4043
 394  346.5508
 395  343.8233
 396  372.9501
 397  329.4832
 398  331.9602
 399  334.4371
 400  210.8917
 401  154.2416
 402  218.7577
 403  298.9983
 404  301.3401
 405  234.3019
 406  191.4921
 407  184.3697
 408  148.2451
 409  83.89743
 410  117.9395
 411  142.7161
 412  145.8831
 413  115.6257
 414  114.1884
 415  138.9656
 416  120.4853
 417  -7.975513
 418  31.03293
 419  78.60329
 420  118.5699
 421  120.2974
 422  124.3101
 423  131.5906
 424  127.3122
 425  119.9319
 426  105.3368
 427  121.2361
 428  212.4643
 429  167.8208
 430  192.4056
 431  224.087
 432  148.2343
 433  198.9834
 434  184.4285
 435  171.791
 436  138.5599
 437  156.5311
 438  92.21849
 439  93.24741
 440  132.4687
 441  110.9697
 442  155.8208
 443  205.8073
 444  176.8668
 445  159.9693
 446  157.9722
 447  175.1083
 448  141.8328
 449  48.60505
 450  58.11223
 451  141.1232
 452  103.7097
 453  40.40058
 454  58.88966
 455  70.67031
 456  47.26577
 457  -8.616179
 458  -128.5277
 459  -116.4734
 460  5.847666
 461  -23.01856
 462  -29.6452
 463  49.83414
 464  77.48327
 465  34.73552
 466  -42.46479
 467  -57.94212
 468  48.69236
 469  -54.88553
 470  -44.89374
 471  -74.71014
 472  7.153102
 473  9.523443
 474  51.8539
 475  67.42396
 476  0.1141111
 477  -37.79509
 478  11.26788
 479  15.48117
 480  -5.149128
 481  53.99853
 482  -35.06037
 483  -48.19396
 484  -125.3072
 485  -139.9756
 486  -119.6049
 487  17.48434
 488  77.74567
 489  0.9094118
 490  -35.60348
 491  74.84524
 492  9.118393
 493  -4.983181
 494  42.49356
 495  36.50996
 496  42.02216
 497  78.7729
 498  105.1216
 499  149.3437
 500  94.37908
 501  147.3891
 502  171.8994
 503  195.1124
 504  227.3033
 505  228.1604
 506  249.4032
 507  251.2734
 508  308.7406
 509  494.2622
 510  644.4218
 511  673.8304
