# Input file       =  1205080843.115398_cleaned.dat
# Candidate        =  PSR_0332+5434
# Telescope        =  AR
# Epoch_topo       =  58191.695163372664
# Epoch_bary       =  N/A
# T_sample         =  0.002
# Data Folded      =  7340032
# Data Avg         =  0.193731883123941
# Data StdDev      =  4.68917289449514 
# Profile Bins     =  512
# Profile Avg      =  2777.34728106404 
# Profile StdDev   =  561.448908753532 
# Reduced chi-sqr  =  1.604
# Prob(Noise)      <  1.03e-16   (~8.2 sigma)
# P_topo (ms)      =  714.578032103569  +/- 0.000725
# P'_topo (s/s)    =  -0                +/- 3.83e-10
# P''_topo (s/s^2) =  0                 +/- 1.69e-13
# P_bary (ms)      =  N/A
# P'_bary (s/s)    =  N/A
# P''_bary (s/s^2) =  N/A
# P_orb (s)        =  N/A
# asin(i)/c (s)    =  N/A
# eccentricity     =  N/A
# w (rad)          =  N/A
# T_peri           =  N/A
######################################################
   0  3011.905
   1  2773.593
   2  3030.887
   3  3079.186
   4  2987.551
   5  2756.163
   6  2704.604
   7  2700.201
   8  2718.658
   9  2632.789
  10  2083.874
  11  2384.595
  12  2644.307
  13  2397.926
  14  2448.588
  15  2212.657
  16  2241.786
  17  2538.443
  18  2290.845
  19  1885.725
  20  2059.325
  21  1953.055
  22  2522.723
  23  2298.634
  24  2454.067
  25  2369.588
  26  2381.97
  27  2520.839
  28  2582.887
  29  3046.531
  30  2949.549
  31  2853.283
  32  2914.176
  33  3071.395
  34  3030.392
  35  2764.161
  36  2724.389
  37  3053.141
  38  2851.097
  39  2882.661
  40  2933.227
  41  2869.807
  42  2928.544
  43  2802.08
  44  2538.386
  45  2368.187
  46  2449.961
  47  2703.792
  48  2608.152
  49  3029.712
  50  2921.612
  51  2646.718
  52  3237.935
  53  2932.558
  54  3119.358
  55  3152.138
  56  2873.104
  57  2604.407
  58  2389.781
  59  2690.587
  60  2431.141
  61  2469.573
  62  2599.216
  63  2346.017
  64  2140.213
  65  2450.442
  66  2275.285
  67  2421.571
  68  2576.978
  69  2484.564
  70  2541.391
  71  2446.811
  72  2448.963
  73  2130.677
  74  2349.351
  75  2474.756
  76  2706.114
  77  2508.854
  78  2614.162
  79  2800.055
  80  2835.593
  81  3029.95
  82  2796.276
  83  2519.633
  84  2469.751
  85  2329.386
  86  2353.351
  87  2426.634
  88  2620.276
  89  2301.194
  90  2205.544
  91  2407.462
  92  2313.259
  93  2164.781
  94  2456.672
  95  2177.499
  96  2107.543
  97  1973.611
  98  1949.46
  99  1864.671
 100  1831.625
 101  1700.118
 102  1948.322
 103  2388.824
 104  2544.992
 105  2081.938
 106  1898.677
 107  1936.927
 108  1666.914
 109  1588.201
 110  2178.483
 111  2017.959
 112  2378.029
 113  2301.643
 114  2188.952
 115  2436.753
 116  2545.422
 117  2396.83
 118  2234.788
 119  2389.444
 120  2801.179
 121  2621.778
 122  2362.711
 123  2657.601
 124  2377.355
 125  2440.594
 126  2183.331
 127  2141.566
 128  2768.053
 129  2379.939
 130  2139.424
 131  2567.2
 132  2216.458
 133  2217.143
 134  2545.488
 135  2539.706
 136  2613.942
 137  2388.775
 138  2657.979
 139  3043.161
 140  2811.687
 141  2783.549
 142  2536.306
 143  2710.548
 144  2730.277
 145  2597.215
 146  2455.186
 147  3032.987
 148  2639.306
 149  2499.52
 150  2590.491
 151  2383.367
 152  2528.196
 153  2692.898
 154  2311.906
 155  2512.619
 156  2566.86
 157  2472.582
 158  2662.627
 159  2474.401
 160  2434.952
 161  2580.693
 162  2443.898
 163  2587.408
 164  2949.176
 165  2454.293
 166  1931.776
 167  2030.951
 168  2370.451
 169  2922.727
 170  2624.922
 171  2074.532
 172  1974.268
 173  2462.594
 174  1987.064
 175  2256.127
 176  2401.319
 177  2670.84
 178  2583.045
 179  2535.984
 180  2114.356
 181  2074.958
 182  2107.022
 183  2168.144
 184  2245.709
 185  2211.722
 186  2298.579
 187  2331.617
 188  2270.27
 189  2159.613
 190  2201.436
 191  2554.461
 192  2252.339
 193  2085.819
 194  2408.389
 195  2546.296
 196  2388.371
 197  1989.664
 198  2100.917
 199  1982.176
 200  2077.399
 201  2095.042
 202  2014.415
 203  1895.891
 204  2046.698
 205  2372.801
 206  2009.479
 207  1791.444
 208  1669.19
 209  1809.776
 210  1953.294
 211  2398.68
 212  2542.474
 213  2282.924
 214  1966.837
 215  2216.138
 216  2406.991
 217  2514.869
 218  2426.396
 219  2571.309
 220  2598.413
 221  2292.939
 222  2595.767
 223  2593.282
 224  2559.547
 225  2556.288
 226  2480.325
 227  2322.562
 228  2780.406
 229  2362.236
 230  2183.348
 231  2248.904
 232  2534.604
 233  2291.029
 234  2817.461
 235  2599.145
 236  2652.135
 237  2507.644
 238  2380.864
 239  2301.485
 240  2169.414
 241  2584.207
 242  2985.018
 243  3376.775
 244  3313.324
 245  3104.406
 246  2919.464
 247  2941.895
 248  3148.437
 249  3040.766
 250  3014.6
 251  3090.124
 252  3197.53
 253  3499.528
 254  3231.39
 255  3258.952
 256  3026.715
 257  3136.106
 258  3297.237
 259  3500.033
 260  3252.558
 261  3153.606
 262  3277.073
 263  3384.605
 264  3161.557
 265  3159.649
 266  3334.132
 267  3633.525
 268  3541.797
 269  3621.055
 270  3534.512
 271  3274.299
 272  2920.659
 273  3219.814
 274  3292.613
 275  2939.979
 276  3200.358
 277  3502.155
 278  3203.615
 279  3099.685
 280  3152.407
 281  3199.707
 282  3325.053
 283  3170.183
 284  2964.746
 285  3080.555
 286  3162.886
 287  3000.689
 288  2845.184
 289  2797.103
 290  2906.231
 291  3031.229
 292  2762.282
 293  2714.411
 294  2859.714
 295  3334.1
 296  3858.111
 297  3828.156
 298  3780.516
 299  4378.065
 300  4216.497
 301  4639.537
 302  5337.026
 303  5248.196
 304  5607.632
 305  5408.814
 306  4737.555
 307  4169.827
 308  3637.663
 309  3462.288
 310  3127.324
 311  2810.342
 312  3031.865
 313  3173.139
 314  3867.74
 315  3554.921
 316  3745.595
 317  3692.583
 318  3537.616
 319  3305.02
 320  3208.428
 321  2947.689
 322  2745.06
 323  2644.944
 324  2684.963
 325  3378.879
 326  3185.474
 327  2944.401
 328  3331.587
 329  3143.795
 330  3073.74
 331  3066.369
 332  2909.932
 333  2629.143
 334  2637.935
 335  2821.447
 336  2780.929
 337  3037.613
 338  2972.508
 339  3222.562
 340  2828.301
 341  2410.405
 342  2546.898
 343  2558.385
 344  2928.38
 345  3081.944
 346  3263.56
 347  3072.727
 348  2890.635
 349  2822.906
 350  2923.66
 351  2969.474
 352  3130.557
 353  3056.584
 354  2904.189
 355  2801.146
 356  3123.416
 357  3317.959
 358  3147.417
 359  3340.217
 360  3392.092
 361  3078.756
 362  3234.477
 363  2894.297
 364  3082.461
 365  3221.141
 366  3177.068
 367  3582.655
 368  3311.351
 369  3339.516
 370  3227.668
 371  3300.758
 372  3572.031
 373  3769.231
 374  3430.399
 375  3238.584
 376  3309.305
 377  3149.083
 378  3208.903
 379  3417.873
 380  3521.583
 381  3422.732
 382  3263.653
 383  3072.036
 384  2975.961
 385  2929.458
 386  3366.824
 387  3436.274
 388  3373.686
 389  3059.651
 390  3378.931
 391  3317.801
 392  3032.914
 393  3000.134
 394  2907.687
 395  3003.067
 396  3054.887
 397  3119.149
 398  2929.159
 399  2974.031
 400  2981.719
 401  3156.916
 402  2999.902
 403  2836.21
 404  2703.473
 405  2754.103
 406  2999.141
 407  2902.227
 408  2799.948
 409  2923.052
 410  3029.341
 411  2841.092
 412  2565.874
 413  2755.963
 414  2588.802
 415  2756.323
 416  3088.395
 417  2640.551
 418  2792.665
 419  2592.4
 420  2492.603
 421  2683.705
 422  2612.358
 423  2627.91
 424  3022.405
 425  3007.498
 426  2818.993
 427  2669.208
 428  2982.667
 429  3114.869
 430  3072.818
 431  3022.803
 432  3036.342
 433  2658.421
 434  2518.464
 435  2640.089
 436  2644.781
 437  2766.482
 438  2800.111
 439  2734.262
 440  2427.588
 441  2197.792
 442  2022.277
 443  2051.8
 444  1915.646
 445  2140.337
 446  2243.254
 447  2698.353
 448  2956.5
 449  3051.524
 450  2768.067
 451  2521.715
 452  2442.483
 453  2556.18
 454  2573.802
 455  2762.678
 456  2616.417
 457  2562.901
 458  2924.087
 459  2950.812
 460  2965.493
 461  2579.805
 462  2608.457
 463  2652.122
 464  3191.376
 465  3217.019
 466  2953.842
 467  3012.41
 468  3024.284
 469  2713.451
 470  2981.925
 471  2835.029
 472  3139.027
 473  3173.259
 474  3379.734
 475  3419.487
 476  3078.596
 477  3633.79
 478  3675.795
 479  3458.908
 480  3190.786
 481  3186.508
 482  2771.371
 483  2635.963
 484  2801.386
 485  3103.592
 486  3058.345
 487  2759.27
 488  2526.755
 489  2452.689
 490  2138.026
 491  2170.96
 492  2647.608
 493  2747.558
 494  2699.284
 495  2643.027
 496  2528.773
 497  2607.129
 498  3197.209
 499  3005.02
 500  2854.845
 501  2893.72
 502  3090.353
 503  3134.322
 504  3148.57
 505  2797.231
 506  2944.207
 507  2884.821
 508  3079.253
 509  3041.117
 510  3096.283
 511  2956.873
