# Input file       =  1205513153.125172_cleaned.dat
# Candidate        =  PSR_0332+5434
# Telescope        =  AR
# Epoch_topo       =  58196.698751448748
# Epoch_bary       =  N/A
# T_sample         =  0.002
# Data Folded      =  7340032
# Data Avg         =  0.0275008620977669
# Data StdDev      =  1.00005645992507 
# Profile Bins     =  512
# Profile Avg      =  394.24229848955  
# Profile StdDev   =  119.739796495028 
# Reduced chi-sqr  =  1.434
# Prob(Noise)      <  3.84e-10   (~6.2 sigma)
# P_topo (ms)      =  714.576229146543  +/- 0.000336
# P'_topo (s/s)    =  -0                +/- 1.77e-10
# P''_topo (s/s^2) =  0                 +/- 7.82e-14
# P_bary (ms)      =  N/A
# P'_bary (s/s)    =  N/A
# P''_bary (s/s^2) =  N/A
# P_orb (s)        =  N/A
# asin(i)/c (s)    =  N/A
# eccentricity     =  N/A
# w (rad)          =  N/A
# T_peri           =  N/A
######################################################
   0  495.515
   1  446.5731
   2  419.5562
   3  490.6539
   4  521.2598
   5  435.5023
   6  386.3245
   7  382.0593
   8  326.0328
   9  255.1985
  10  215.1044
  11  298.8244
  12  270.5886
  13  276.1375
  14  289.8194
  15  200.9507
  16  209.5358
  17  271.1962
  18  271.6845
  19  317.784
  20  404.2692
  21  228.8018
  22  221.9506
  23  280.1133
  24  267.6499
  25  312.2374
  26  251.0653
  27  265.2189
  28  178.7134
  29  99.12833
  30  156.8072
  31  291.5279
  32  411.6966
  33  265.6331
  34  311.1741
  35  317.5341
  36  300.8536
  37  239.9603
  38  347.1088
  39  312.2496
  40  296.6625
  41  240.7058
  42  257.6215
  43  305.0397
  44  345.7045
  45  324.656
  46  459.1546
  47  444.7883
  48  349.6466
  49  393.926
  50  384.5484
  51  317.6359
  52  412.7232
  53  339.582
  54  269.3105
  55  343.3148
  56  380.3916
  57  368.426
  58  451.9167
  59  395.2376
  60  262.5941
  61  289.2461
  62  239.8644
  63  367.375
  64  418.881
  65  371.5979
  66  374.8026
  67  349.665
  68  352.5053
  69  403.4789
  70  309.3871
  71  386.4842
  72  404.3896
  73  336.7559
  74  285.5217
  75  365.3709
  76  424.8
  77  433.051
  78  381.2038
  79  436.9975
  80  482.4079
  81  432.8661
  82  346.5364
  83  331.6026
  84  309.0663
  85  267.2077
  86  341.313
  87  326.4178
  88  339.678
  89  363.5953
  90  258.2088
  91  154.1984
  92  216.4348
  93  235.0551
  94  269.6147
  95  397.4771
  96  282.0189
  97  293.6109
  98  289.673
  99  332.2502
 100  315.3232
 101  332.5721
 102  415.9854
 103  365.5548
 104  354.449
 105  256.3439
 106  207.8188
 107  332.7074
 108  272.7966
 109  380.896
 110  317.4477
 111  221.3573
 112  232.8503
 113  239.5342
 114  340.2105
 115  180.4188
 116  131.4838
 117  308.4671
 118  359.4321
 119  324.7079
 120  248.1328
 121  245.1791
 122  281.6679
 123  262.4829
 124  362.887
 125  321.8866
 126  211.8957
 127  230.069
 128  315.8224
 129  419.4779
 130  286.6173
 131  300.1501
 132  376.3156
 133  383.4722
 134  362.1432
 135  461.949
 136  559.5429
 137  506.9977
 138  423.4592
 139  474.7229
 140  486.8062
 141  375.9777
 142  484.9667
 143  477.0707
 144  438.7214
 145  285.8664
 146  373.6487
 147  536.4896
 148  509.2523
 149  518.2077
 150  498.8896
 151  427.2794
 152  391.8503
 153  373.0174
 154  527.4662
 155  475.5004
 156  429.4772
 157  403.0609
 158  275.8289
 159  339.083
 160  358.3907
 161  373.7798
 162  341.7897
 163  403.407
 164  360.0505
 165  305.5861
 166  341.0717
 167  383.5415
 168  231.9262
 169  213.9771
 170  363.7764
 171  402.9428
 172  188.5511
 173  153.2822
 174  334.6214
 175  425.4619
 176  342.5811
 177  219.093
 178  267.7498
 179  372.7812
 180  415.5389
 181  304.2109
 182  329.4068
 183  353.5005
 184  295.78
 185  342.4733
 186  335.8456
 187  282.6073
 188  335.3105
 189  457.4401
 190  380.7245
 191  297.9062
 192  344.7938
 193  278.2908
 194  365.4038
 195  370.1927
 196  301.6194
 197  392.9315
 198  406.5327
 199  370.6966
 200  311.284
 201  319.0723
 202  370.4729
 203  413.3422
 204  524.6058
 205  579.4719
 206  518.343
 207  492.247
 208  507.885
 209  405.2513
 210  367.9489
 211  527.2629
 212  457.2844
 213  518.5497
 214  521.4309
 215  475.8615
 216  565.3086
 217  529.8077
 218  504.5864
 219  413.4646
 220  463.313
 221  589.4641
 222  535.3359
 223  486.104
 224  426.7665
 225  434.1715
 226  451.5102
 227  442.9402
 228  458.6491
 229  449.5927
 230  474.4898
 231  508.4022
 232  523.0681
 233  475.3526
 234  468.0683
 235  546.2582
 236  593.1145
 237  551.8506
 238  487.379
 239  584.6792
 240  507.1922
 241  424.4389
 242  424.6526
 243  538.7048
 244  441.8893
 245  423.2546
 246  453.0182
 247  388.4897
 248  446.5387
 249  477.8423
 250  392.78
 251  452.6399
 252  449.2311
 253  389.7184
 254  363.0637
 255  364.3994
 256  464.3543
 257  338.0852
 258  284.0738
 259  270.6039
 260  322.253
 261  305.9577
 262  325.5063
 263  367.7913
 264  425.8113
 265  372.9054
 266  340.0077
 267  357.6729
 268  321.2006
 269  422.6529
 270  313.5049
 271  317.7842
 272  404.36
 273  374.7448
 274  372.1991
 275  491.6819
 276  519.1443
 277  464.4178
 278  462.8602
 279  424.5924
 280  532.6224
 281  506.3253
 282  409.4108
 283  410.2342
 284  443.7347
 285  544.949
 286  526.9266
 287  529.6973
 288  563.9286
 289  553.6755
 290  555.8809
 291  547.438
 292  532.6247
 293  512.8804
 294  499.8173
 295  464.7991
 296  502.9656
 297  498.0798
 298  563.5111
 299  669.4095
 300  621.9153
 301  376.778
 302  435.8107
 303  411.2383
 304  441.2464
 305  428.3063
 306  471.7142
 307  461.5574
 308  412.0147
 309  361.8572
 310  388.1096
 311  371.2888
 312  422.9596
 313  351.3108
 314  277.151
 315  303.1373
 316  300.6191
 317  377.1936
 318  346.9192
 319  310.675
 320  405.5992
 321  354.498
 322  270.8358
 323  235.39
 324  358.7835
 325  384.1302
 326  322.3926
 327  395.9871
 328  489.9453
 329  470.9182
 330  411.1102
 331  340.754
 332  325.7348
 333  373.1902
 334  465.5417
 335  419.1999
 336  430.7957
 337  421.4963
 338  347.739
 339  413.3057
 340  486.813
 341  356.6053
 342  402.8662
 343  555.3543
 344  547.9254
 345  490.9681
 346  506.2518
 347  434.5329
 348  438.6695
 349  478.7737
 350  490.2629
 351  480.464
 352  413.296
 353  557.7952
 354  474.9797
 355  498.7278
 356  507.4419
 357  350.5553
 358  358.2243
 359  483.0893
 360  544.1594
 361  411.5053
 362  398.5917
 363  364.4022
 364  458.9419
 365  331.2987
 366  358.2738
 367  397.1172
 368  438.7558
 369  432.0286
 370  379.2741
 371  464.6148
 372  433.018
 373  405.6668
 374  298.7469
 375  444.9887
 376  456.3344
 377  387.3983
 378  405.707
 379  370.7789
 380  403.4729
 381  431.0235
 382  389.7697
 383  375.2949
 384  361.2239
 385  382.0723
 386  436.1937
 387  318.2839
 388  405.5325
 389  336.0061
 390  359.4613
 391  300.1387
 392  231.1836
 393  408.923
 394  418.1756
 395  412.2421
 396  398.121
 397  371.3832
 398  387.8228
 399  430.7111
 400  397.1509
 401  390.059
 402  427.4241
 403  346.3554
 404  305.4911
 405  290.7452
 406  358.5613
 407  437.8941
 408  492.4413
 409  411.269
 410  431.9335
 411  404.204
 412  376.0872
 413  422.3943
 414  485.6115
 415  538.5434
 416  464.3884
 417  536.9732
 418  427.3053
 419  433.6242
 420  450.5197
 421  342.1926
 422  328.3562
 423  363.6595
 424  298.7821
 425  466.192
 426  369.3089
 427  264.1531
 428  404.7044
 429  390.5088
 430  491.4696
 431  399.6087
 432  451.9778
 433  486.7859
 434  494.7363
 435  409.9344
 436  376.0459
 437  375.9892
 438  403.4168
 439  459.797
 440  382.4717
 441  381.7534
 442  451.8207
 443  420.074
 444  435.7196
 445  343.4526
 446  254.9651
 447  284.935
 448  394.6384
 449  360.8161
 450  416.5097
 451  446.0395
 452  428.84
 453  411.3862
 454  461.4532
 455  367.5283
 456  303.0825
 457  342.8996
 458  288.1692
 459  196.2233
 460  222.0637
 461  228.6359
 462  282.9873
 463  251.3651
 464  328.2626
 465  441.6858
 466  430.1962
 467  269.5833
 468  373.5823
 469  357.204
 470  278.1107
 471  327.0685
 472  406.8676
 473  331.5971
 474  299.7926
 475  332.5207
 476  272.1174
 477  340.2818
 478  385.0807
 479  392.4576
 480  428.659
 481  384.4075
 482  531.6403
 483  563.0154
 484  616.576
 485  518.0421
 486  482.1443
 487  579.1724
 488  531.9275
 489  472.0202
 490  397.1145
 491  400.4944
 492  393.4341
 493  383.8926
 494  410.9362
 495  363.2629
 496  436.0541
 497  500.6632
 498  589.9147
 499  630.4949
 500  736.8011
 501  881.2084
 502  901.3426
 503  926.9095
 504  809.0986
 505  665.9669
 506  612.2931
 507  497.7833
 508  516.1585
 509  491.766
 510  491.9651
 511  482.3102
