# Input file       =  1205324951.116461_cleaned.dat
# Candidate        =  PSR_0332+5434
# Telescope        =  AR
# Epoch_topo       =  58194.520487459042
# Epoch_bary       =  N/A
# T_sample         =  0.002
# Data Folded      =  7340032
# Data Avg         =  0.818723191849129
# Data StdDev      =  6.86396369363336 
# Profile Bins     =  512
# Profile Avg      =  11737.3802971384 
# Profile StdDev   =  821.843214618605 
# Reduced chi-sqr  =  1.227
# Prob(Noise)      <  0.000327   (~3.4 sigma)
# P_topo (ms)      =  714.576719515132  +/- 0.000528
# P'_topo (s/s)    =  -0                +/- 2.79e-10
# P''_topo (s/s^2) =  0                 +/- 1.23e-13
# P_bary (ms)      =  N/A
# P'_bary (s/s)    =  N/A
# P''_bary (s/s^2) =  N/A
# P_orb (s)        =  N/A
# asin(i)/c (s)    =  N/A
# eccentricity     =  N/A
# w (rad)          =  N/A
# T_peri           =  N/A
######################################################
   0  11445.21
   1  11635.77
   2  11538.47
   3  11313.48
   4  10769.36
   5  10783.72
   6  11132.88
   7  11266.54
   8  11067.85
   9  11453.49
  10  11325.3
  11  11437.35
  12  11352.04
  13  11736.12
  14  11679.99
  15  11760.84
  16  11655.16
  17  11586.06
  18  12084.47
  19  12048.88
  20  12265.75
  21  12326.26
  22  12085.42
  23  11704.18
  24  11222.33
  25  11755.29
  26  12065.16
  27  12361.16
  28  11722.43
  29  11498.15
  30  11442.71
  31  11601.45
  32  11814.83
  33  11872.88
  34  11585.68
  35  11187.25
  36  11226.45
  37  11357.89
  38  11731.02
  39  11554.55
  40  11193.03
  41  11163.95
  42  11501.57
  43  11287.6
  44  11212.29
  45  11060.65
  46  11242.8
  47  11262.11
  48  11096.24
  49  11323.07
  50  11443.77
  51  11206.78
  52  11046.1
  53  11460.42
  54  11291.41
  55  11552.95
  56  11812.31
  57  11605.82
  58  11467.04
  59  11846.45
  60  12113.4
  61  11970.1
  62  12348.98
  63  12644.18
  64  12590.13
  65  12734.24
  66  12417.52
  67  12330.48
  68  12385.28
  69  12341.35
  70  12470.27
  71  12544.51
  72  12498.43
  73  12428.78
  74  12237.98
  75  11773.17
  76  11849.14
  77  11848.27
  78  11598.12
  79  11955.76
  80  12097.38
  81  11860.78
  82  11851.05
  83  11838.9
  84  11581.38
  85  11573.41
  86  11807.08
  87  12214.5
  88  12427.09
  89  12403.75
  90  12494.03
  91  12519.57
  92  12469.61
  93  12508.75
  94  12807.01
  95  13020.01
  96  13146.06
  97  13051.45
  98  12774.48
  99  12783.01
 100  12768.48
 101  12952.74
 102  13190.75
 103  13522.92
 104  13256.14
 105  13061.75
 106  13242.84
 107  12847.22
 108  12794.67
 109  13000.41
 110  12848.22
 111  12764.83
 112  13010.62
 113  12583.85
 114  12805.83
 115  12556.99
 116  12258.73
 117  12094.43
 118  11758.33
 119  11789.48
 120  11265.56
 121  11293.01
 122  11594.02
 123  11722.24
 124  11534.15
 125  11772.7
 126  11811.99
 127  11801.52
 128  12045.33
 129  12234.8
 130  12307.99
 131  12140.23
 132  12450.44
 133  12257.05
 134  11972.63
 135  11910.28
 136  12085.97
 137  11683.18
 138  12253.99
 139  12713.98
 140  12151.74
 141  12080.21
 142  12380.86
 143  12364.06
 144  12101.93
 145  12493.57
 146  13143.38
 147  12950.61
 148  12954.71
 149  12696.74
 150  12399.7
 151  12189.61
 152  12503.77
 153  12166.2
 154  12299.52
 155  12830.79
 156  12644.41
 157  12398
 158  12315.29
 159  12433.37
 160  11970.6
 161  12082.61
 162  11667.3
 163  11940.79
 164  12197
 165  12557.06
 166  11940.72
 167  11493.39
 168  11706.17
 169  11783.98
 170  11670.98
 171  11624.96
 172  11371.84
 173  11350.57
 174  11770.99
 175  11748.62
 176  11506.44
 177  11446.39
 178  11616.87
 179  11793.27
 180  11755.9
 181  11492.38
 182  11793.95
 183  11824.63
 184  11783.3
 185  11335.88
 186  11400.56
 187  11546.04
 188  11882.79
 189  11905.89
 190  11637.16
 191  11337.64
 192  11315.94
 193  11386.62
 194  11199.23
 195  11142.42
 196  11178.62
 197  11435.69
 198  11447.31
 199  11151.1
 200  11508.89
 201  11363.54
 202  11274.14
 203  11124.03
 204  11089.2
 205  11115.8
 206  11031.28
 207  10712.94
 208  10942.22
 209  10951.62
 210  10785.2
 211  10855.76
 212  11223.89
 213  11272.72
 214  10959.62
 215  11202.99
 216  11173.25
 217  11079.21
 218  11236
 219  11000.7
 220  10953.55
 221  11259.79
 222  11037.37
 223  11108.16
 224  11293.14
 225  11342.49
 226  11275.67
 227  11270.55
 228  10935.39
 229  11171.56
 230  10929.75
 231  11200.95
 232  10905.37
 233  10635.45
 234  10792.96
 235  11093.07
 236  11043.85
 237  10600.4
 238  10700.61
 239  10962.68
 240  10957.2
 241  11128.78
 242  11162.89
 243  11164.18
 244  11047.62
 245  11090.5
 246  11288.3
 247  11391.25
 248  11323.56
 249  11057.36
 250  11484.14
 251  11147.62
 252  10954.82
 253  11004.7
 254  10815.83
 255  11189.51
 256  11264.45
 257  11350.33
 258  11501.05
 259  11694.99
 260  11793.48
 261  11537.85
 262  11545.92
 263  11034.46
 264  11135.91
 265  11192.68
 266  10742.32
 267  10807.81
 268  11309.11
 269  11666.76
 270  11650.19
 271  11706.84
 272  11746.35
 273  11659.16
 274  11742.03
 275  11945.68
 276  11994.06
 277  11996.03
 278  11729.1
 279  11998.13
 280  11641.76
 281  11712.96
 282  11684.28
 283  11524.26
 284  11452.59
 285  11815.99
 286  11932.47
 287  12016.39
 288  11869.89
 289  12265.13
 290  11921.15
 291  11480.91
 292  11447.38
 293  11176.24
 294  11302.71
 295  11800.01
 296  11895.73
 297  11929.84
 298  11883.36
 299  11961.25
 300  12429.79
 301  12455.48
 302  13057.37
 303  13687.33
 304  13844.28
 305  13867.25
 306  13552.6
 307  13395.28
 308  12759.56
 309  12343.44
 310  12000.39
 311  12124
 312  11871.08
 313  11925.82
 314  12336.27
 315  12145.86
 316  11838.25
 317  11983.4
 318  11968.23
 319  12053.06
 320  12056.94
 321  11903.57
 322  12137.55
 323  12353.71
 324  12484.34
 325  12478.43
 326  12019.11
 327  11840.76
 328  12075.56
 329  12101.49
 330  11655.6
 331  11566.7
 332  11463.37
 333  10775.33
 334  10913.28
 335  11527.1
 336  11257.06
 337  10815.17
 338  10714.73
 339  11282.25
 340  10880.17
 341  10880.97
 342  10997.64
 343  10973.77
 344  10518.25
 345  10603.95
 346  10863.81
 347  10904.68
 348  10989.9
 349  10916.97
 350  10742.26
 351  10829.49
 352  10648.24
 353  10578.6
 354  10560.63
 355  10858.01
 356  10450.38
 357  10552.2
 358  10676.56
 359  10590.62
 360  10716.59
 361  10734.58
 362  10835.89
 363  10495.06
 364  10493.52
 365  10739.99
 366  10822.58
 367  10740.23
 368  10515.85
 369  10818.33
 370  11420.63
 371  11457.44
 372  10861.3
 373  10218.18
 374  10744.43
 375  10895.04
 376  10666.33
 377  10760.73
 378  10857.5
 379  11000.69
 380  10974.55
 381  10754.32
 382  11183.93
 383  10797.52
 384  10769.16
 385  10999.24
 386  11268.72
 387  10790.11
 388  11234.1
 389  11295.08
 390  11282.73
 391  11365.77
 392  11429.4
 393  11785.85
 394  11966.21
 395  12010.95
 396  11619.76
 397  11528.71
 398  11631.44
 399  11774.74
 400  12041.72
 401  12140.4
 402  12489.39
 403  12410.58
 404  12132.3
 405  12140.73
 406  11864.01
 407  11986.84
 408  12194.52
 409  11993.41
 410  11983.31
 411  11751.26
 412  11237.23
 413  11303.92
 414  11715.44
 415  11912.05
 416  11294.95
 417  11290.56
 418  11429.23
 419  11042.83
 420  11486.5
 421  11357.01
 422  11239.06
 423  11291.28
 424  11316.68
 425  11146.51
 426  10724.82
 427  10919.22
 428  10951.49
 429  11512.63
 430  11638.48
 431  11329.5
 432  11175.99
 433  10884.56
 434  11142.19
 435  11620.32
 436  11196.11
 437  10858.26
 438  11040.3
 439  11538.37
 440  11860.67
 441  11783.03
 442  12105.8
 443  12214.02
 444  12296.48
 445  12123.96
 446  12047.15
 447  12233.42
 448  12794.54
 449  12121.93
 450  12156.93
 451  11983.6
 452  12362.79
 453  12574.63
 454  12373.33
 455  12148.1
 456  11961.76
 457  11990.14
 458  11915.01
 459  11777.88
 460  12182.22
 461  11965.79
 462  11716.51
 463  11242.15
 464  11512.66
 465  11977.65
 466  12194.08
 467  12213.24
 468  12397.31
 469  11829.42
 470  11802.83
 471  11947.45
 472  12202.09
 473  12079.13
 474  12098.43
 475  12598.59
 476  12797.76
 477  12669.03
 478  12784.22
 479  12329.99
 480  12060.29
 481  12798.64
 482  12825.34
 483  12849.35
 484  13203.35
 485  13381.72
 486  12752.57
 487  12632.04
 488  12596.8
 489  12557.76
 490  12671.11
 491  12712.55
 492  12633.09
 493  12906.37
 494  12943.28
 495  12153
 496  12023.04
 497  12264.95
 498  12530.54
 499  12470.62
 500  12427.57
 501  12644.68
 502  12336.03
 503  12037.55
 504  12075.83
 505  12045.69
 506  12053.87
 507  11983.02
 508  11833.55
 509  11683.36
 510  11839.81
 511  11611.72
