# Input file       =  1205080843.115398_cleaned.dat
# Candidate        =  PSR_0332+5434
# Telescope        =  AR
# Epoch_topo       =  58191.695163372664
# Epoch_bary       =  N/A
# T_sample         =  0.002
# Data Folded      =  7340032
# Data Avg         =  0.193731883123941
# Data StdDev      =  4.68917289449514 
# Profile Bins     =  256
# Profile Avg      =  5554.69456212808 
# Profile StdDev   =  794.008661338819 
# Reduced chi-sqr  =  2.152
# Prob(Noise)      <  1.38e-23   (~9.9 sigma)
# P_topo (ms)      =  714.578032103569  +/- 0.000726
# P'_topo (s/s)    =  -0                +/- 3.83e-10
# P''_topo (s/s^2) =  0                 +/- 1.69e-13
# P_bary (ms)      =  N/A
# P'_bary (s/s)    =  N/A
# P''_bary (s/s^2) =  N/A
# P_orb (s)        =  N/A
# asin(i)/c (s)    =  N/A
# eccentricity     =  N/A
# w (rad)          =  N/A
# T_peri           =  N/A
######################################################
   0  5785.497
   1  6110.074
   2  5743.714
   3  5404.805
   4  5351.447
   5  4468.469
   6  5042.233
   7  4661.245
   8  4780.229
   9  4176.569
  10  4012.38
  11  4821.357
  12  4823.655
  13  4902.809
  14  5629.417
  15  5802.832
  16  5985.571
  17  5794.553
  18  5777.53
  19  5733.758
  20  5803.034
  21  5730.624
  22  4906.573
  23  5153.752
  24  5637.865
  25  5568.33
  26  6170.493
  27  6271.496
  28  5477.512
  29  5080.369
  30  4900.714
  31  4945.232
  32  4590.655
  33  4696.855
  34  5061.542
  35  4988.202
  36  4579.64
  37  4824.107
  38  5214.968
  39  5414.218
  40  5865.543
  41  5315.909
  42  4799.138
  43  4779.986
  44  4921.47
  45  4613.006
  46  4478.039
  47  4634.171
  48  4081.154
  49  3814.131
  50  3531.743
  51  4337.146
  52  4626.93
  53  3835.605
  54  3255.115
  55  4196.441
  56  4679.672
  57  4625.705
  58  4942.252
  59  4624.231
  60  5422.957
  61  5020.312
  62  4817.948
  63  4324.897
  64  5147.992
  65  4706.625
  66  4433.602
  67  5085.194
  68  5002.717
  69  5701.14
  70  5595.236
  71  5246.855
  72  5327.492
  73  5488.174
  74  5138.826
  75  4973.858
  76  5221.095
  77  4824.524
  78  5039.442
  79  5137.028
  80  5015.646
  81  5031.306
  82  5403.469
  83  3962.727
  84  5293.179
  85  4699.454
  86  4436.862
  87  4243.191
  88  5072.159
  89  5119.029
  90  4189.313
  91  4275.166
  92  4457.431
  93  4630.195
  94  4429.883
  95  4755.897
  96  4338.158
  97  4954.685
  98  4378.034
  99  4083.092
 100  4172.441
 101  3910.306
 102  4419.499
 103  3800.922
 104  3478.965
 105  4351.974
 106  4825.397
 107  4182.975
 108  4921.861
 109  4997.705
 110  4891.352
 111  5189.049
 112  5115.835
 113  4802.888
 114  5142.642
 115  4432.252
 116  4825.633
 117  5416.606
 118  5159.78
 119  4682.349
 120  4753.622
 121  6361.793
 122  6417.731
 123  5861.359
 124  6189.203
 125  6104.725
 126  6697.058
 127  6490.343
 128  6162.821
 129  6797.269
 130  6406.164
 131  6661.678
 132  6321.207
 133  6967.657
 134  7162.853
 135  6808.812
 136  6140.474
 137  6232.591
 138  6702.513
 139  6303.3
 140  6352.113
 141  6495.235
 142  6045.3
 143  6163.575
 144  5642.286
 145  5937.459
 146  5476.693
 147  6193.814
 148  7686.268
 149  8158.582
 150  8856.033
 151  10585.22
 152  11016.45
 153  8907.382
 154  7099.952
 155  5937.667
 156  6205.004
 157  7422.662
 158  7438.178
 159  6842.637
 160  6156.117
 161  5390.004
 162  6063.841
 163  6129.875
 164  6475.383
 165  6140.108
 166  5539.075
 167  5459.382
 168  5818.543
 169  6195.07
 170  5238.706
 171  5105.283
 172  6010.324
 173  6336.287
 174  5713.542
 175  5893.134
 176  6187.141
 177  5705.335
 178  6441.375
 179  6487.633
 180  6470.847
 181  6128.774
 182  6303.603
 183  6759.722
 184  6650.867
 185  6528.427
 186  7341.262
 187  6668.983
 188  6458.389
 189  6626.776
 190  6944.314
 191  6335.688
 192  5905.419
 193  6803.098
 194  6433.337
 195  6696.732
 196  6033.048
 197  5910.754
 198  6174.036
 199  5903.19
 200  6138.635
 201  5836.112
 202  5457.576
 203  5901.367
 204  5723
 205  5870.432
 206  5321.837
 207  5345.125
 208  5728.946
 209  5385.064
 210  5176.308
 211  5240.269
 212  6029.903
 213  5488.201
 214  6097.537
 215  6095.622
 216  5694.763
 217  5158.554
 218  5411.262
 219  5534.374
 220  4625.379
 221  4074.076
 222  4055.983
 223  4941.607
 224  6008.024
 225  5289.783
 226  4998.663
 227  5336.48
 228  5179.318
 229  5874.899
 230  5545.298
 231  5260.578
 232  6408.395
 233  5966.252
 234  5737.735
 235  5816.954
 236  6312.286
 237  6799.221
 238  6712.386
 239  7134.704
 240  6377.294
 241  5407.334
 242  5904.978
 243  5817.615
 244  4979.445
 245  4308.986
 246  5395.166
 247  5342.312
 248  5135.902
 249  6202.229
 250  5748.565
 251  6224.675
 252  5945.8
 253  5829.028
 254  6120.371
 255  6053.157
