# Input file       =  1205396186.107609_cleaned.dat
# Candidate        =  PSR_0332+5434
# Telescope        =  AR
# Epoch_topo       =  58195.344966523255
# Epoch_bary       =  N/A
# T_sample         =  0.002
# Data Folded      =  7405568
# Data Avg         =  0.0263714259554643
# Data StdDev      =  1.00004976690968 
# Profile Bins     =  512
# Profile Avg      =  381.38246351461  
# Profile StdDev   =  120.272356312608 
# Reduced chi-sqr  =  1.839
# Prob(Noise)      <  9.36e-28   (~10.9 sigma)
# P_topo (ms)      =  714.576383867481  +/- 8.68e-05
# P'_topo (s/s)    =  -0                +/- 4.54e-11
# P''_topo (s/s^2) =  0                 +/- 1.99e-14
# P_bary (ms)      =  N/A
# P'_bary (s/s)    =  N/A
# P''_bary (s/s^2) =  N/A
# P_orb (s)        =  N/A
# asin(i)/c (s)    =  N/A
# eccentricity     =  N/A
# w (rad)          =  N/A
# T_peri           =  N/A
######################################################
   0  310.4352
   1  423.9104
   2  513.0297
   3  349.9498
   4  348.9204
   5  406.1035
   6  526.6624
   7  492.6726
   8  448.8374
   9  332.9229
  10  337.5408
  11  325.6043
  12  351.5513
  13  310.2785
  14  290.0201
  15  357.6031
  16  384.8601
  17  465.5969
  18  375.1747
  19  239.2946
  20  312.5099
  21  445.0556
  22  345.3236
  23  363.5523
  24  405.1957
  25  480.0106
  26  342.7955
  27  249.8327
  28  333.6236
  29  279.5442
  30  284.8174
  31  342.4796
  32  288.7951
  33  234.3669
  34  346.6058
  35  210.3068
  36  57.46087
  37  258.3601
  38  263.0129
  39  301.7518
  40  377.2265
  41  390.1637
  42  471.3304
  43  503.9238
  44  533.7749
  45  370.3217
  46  295.6843
  47  355.0271
  48  455.1407
  49  264.813
  50  314.9059
  51  243.4505
  52  242.8453
  53  425.5633
  54  521.8318
  55  414.666
  56  254.5216
  57  168.4103
  58  395.5943
  59  400.4462
  60  404.9358
  61  389.3261
  62  341.329
  63  302.3497
  64  379.1306
  65  377.3891
  66  372.691
  67  431.7986
  68  490.2337
  69  379.1944
  70  317.7434
  71  382.5553
  72  281.0628
  73  305.7022
  74  468.4922
  75  533.077
  76  457.7634
  77  367.2024
  78  320.8793
  79  285.4579
  80  348.1142
  81  495.3541
  82  516.0061
  83  473.9562
  84  570.607
  85  490.9586
  86  477.0268
  87  437.3848
  88  318.0744
  89  386.7125
  90  530.8817
  91  635.6957
  92  501.0007
  93  349.4296
  94  405.8934
  95  487.149
  96  621.6855
  97  694.8853
  98  710.3273
  99  918.4088
 100  1133.204
 101  1168.136
 102  1131.594
 103  989.3933
 104  716.8414
 105  575.3194
 106  516.9145
 107  498.5347
 108  519.4627
 109  592.6727
 110  451.9076
 111  512.1909
 112  561.462
 113  435.0437
 114  372.7288
 115  522.7072
 116  535.5599
 117  482.6926
 118  466.0981
 119  378.0927
 120  405.6188
 121  542.5449
 122  472.1771
 123  365.7469
 124  406.9348
 125  552.2424
 126  532.6847
 127  360.188
 128  328.3854
 129  206.8935
 130  182.1366
 131  252.2553
 132  288.8799
 133  318.3043
 134  382.2479
 135  332.7409
 136  322.5542
 137  417.799
 138  373.2013
 139  342.333
 140  360.3318
 141  372.7989
 142  369.0575
 143  322.8749
 144  349.2266
 145  293.9415
 146  211.8491
 147  331.615
 148  309.5794
 149  300.112
 150  296.3175
 151  245.5319
 152  186.2078
 153  341.0978
 154  372.0569
 155  427.4861
 156  456.6555
 157  548.792
 158  473.8596
 159  391.4288
 160  306.4837
 161  304.0084
 162  363.343
 163  258.8698
 164  287.0281
 165  275.761
 166  334.5439
 167  366.8816
 168  316.9703
 169  314.5146
 170  213.5139
 171  235.8056
 172  316.2446
 173  356.0907
 174  321.2598
 175  321.1125
 176  300.7963
 177  313.5956
 178  219.3775
 179  225.4176
 180  342.5523
 181  340.688
 182  164.1741
 183  362.4521
 184  340.3093
 185  267.972
 186  277.5888
 187  236.4212
 188  277.4228
 189  421.2957
 190  456.9584
 191  458.2521
 192  328.9737
 193  304.4983
 194  382.7731
 195  366.525
 196  349.9957
 197  300.2048
 198  377.7579
 199  501.122
 200  464.1667
 201  376.5207
 202  280.0431
 203  335.7296
 204  415.1137
 205  442.9209
 206  505.0549
 207  527.1174
 208  448.8324
 209  271.9545
 210  233.9935
 211  213.8332
 212  250.6348
 213  376.8139
 214  332.0215
 215  275.3467
 216  324.8238
 217  317.54
 218  191.0897
 219  245.6761
 220  403.1364
 221  309.3776
 222  271.4359
 223  393.061
 224  557.7296
 225  457.8065
 226  281.8213
 227  263.7016
 228  359.1194
 229  547.8419
 230  492.0619
 231  348.0781
 232  388.5691
 233  406.5384
 234  374.7542
 235  363.2019
 236  285.628
 237  382.8788
 238  502.9381
 239  492.3004
 240  510.5445
 241  466.0016
 242  442.9084
 243  415.3635
 244  392.025
 245  437.2036
 246  407.1413
 247  493.7368
 248  454.2257
 249  317.5187
 250  256.9389
 251  239.1578
 252  358.0748
 253  368.6066
 254  319.9282
 255  409.4224
 256  441.0303
 257  482.3992
 258  301.5167
 259  291.9891
 260  311.4901
 261  311.5602
 262  334.5052
 263  308.5901
 264  411.28
 265  592.6974
 266  453.0124
 267  387.6821
 268  247.9572
 269  256.3026
 270  366.8638
 271  460.2123
 272  457.7275
 273  484.263
 274  460.841
 275  373.4583
 276  465.3341
 277  450.6762
 278  402.9828
 279  371.1437
 280  110.7424
 281  267.7129
 282  389.1013
 283  303.7731
 284  274.0874
 285  337.8283
 286  385.724
 287  397.6924
 288  356.616
 289  441.1281
 290  386.3996
 291  294.8181
 292  187.9243
 293  206.6599
 294  247.6426
 295  314.7916
 296  272.73
 297  251.626
 298  449.1039
 299  335.5013
 300  283.3012
 301  354.3908
 302  332.7311
 303  320.6823
 304  333.1894
 305  371.6791
 306  442.0193
 307  621.5569
 308  420.731
 309  239.5489
 310  337.7908
 311  338.8146
 312  255.086
 313  275.3062
 314  307.0477
 315  293.4328
 316  237.4087
 317  300.4326
 318  360.2183
 319  408.1496
 320  458.623
 321  450.5536
 322  509.4477
 323  582.4459
 324  374.0494
 325  240.5164
 326  176.0989
 327  277.6488
 328  388.1525
 329  447.1543
 330  360.173
 331  498.6794
 332  406.5847
 333  380.9167
 334  255.3136
 335  302.3372
 336  202.287
 337  201.0019
 338  317.1354
 339  420.8824
 340  405.3245
 341  410.0409
 342  297.8656
 343  201.5972
 344  267.1775
 345  363.7751
 346  388.5975
 347  300.3777
 348  359.139
 349  310.1172
 350  276.0662
 351  270.3776
 352  273.2421
 353  508.0908
 354  586.184
 355  370.0514
 356  364.1298
 357  448.8074
 358  423.8702
 359  321.8637
 360  447.2722
 361  416.8605
 362  407.212
 363  421.3256
 364  572.1732
 365  548.6767
 366  422.2122
 367  349.2336
 368  378.602
 369  445.2909
 370  478.0005
 371  636.6994
 372  565.953
 373  307.1398
 374  368.0633
 375  442.827
 376  365.6486
 377  381.0414
 378  447.6476
 379  412.2581
 380  459.5189
 381  418.9865
 382  340.3215
 383  336.0817
 384  382.9757
 385  401.7578
 386  439.19
 387  487.5662
 388  484.2446
 389  525.0305
 390  488.8033
 391  424.0529
 392  468.6245
 393  431.1655
 394  382.1986
 395  317.1648
 396  390.77
 397  496.8721
 398  504.5267
 399  423.8098
 400  435.4127
 401  331.3434
 402  505.2664
 403  603.558
 404  498.9873
 405  526.6984
 406  516.2861
 407  463.1651
 408  320.4704
 409  295.7557
 410  295.0625
 411  284.2588
 412  299.2917
 413  355.3651
 414  414.0456
 415  390.9367
 416  282.3291
 417  228.1534
 418  228.231
 419  324.3418
 420  330.0389
 421  351.804
 422  338.8363
 423  339.5202
 424  320.9119
 425  352.8416
 426  303.5998
 427  240.378
 428  247.4402
 429  308.7574
 430  383.1355
 431  351.7432
 432  346.3799
 433  340.8369
 434  348.7177
 435  310.9457
 436  367.4934
 437  420.2597
 438  437.8732
 439  383.2863
 440  273.7027
 441  284.7243
 442  310.8374
 443  346.0381
 444  275.7519
 445  303.2428
 446  382.7027
 447  281.3959
 448  275.363
 449  272.0565
 450  302.5049
 451  255.9951
 452  269.843
 453  386.2943
 454  357.0948
 455  439.4275
 456  454.1253
 457  422.0027
 458  229.1988
 459  206.7166
 460  211.5355
 461  292.8643
 462  237.2441
 463  292.338
 464  393.8607
 465  402.0035
 466  389.387
 467  452.6495
 468  396.4403
 469  353.5486
 470  487.1284
 471  497.933
 472  416.4651
 473  407.2476
 474  341.5059
 475  410.3627
 476  403.7041
 477  365.1696
 478  267.4261
 479  270.2823
 480  397.3258
 481  457.8465
 482  296.076
 483  334.0973
 484  402.5064
 485  363.296
 486  378.2861
 487  425.032
 488  474.4947
 489  342.6939
 490  314.4587
 491  325.9452
 492  398.7544
 493  509.1474
 494  374.1589
 495  426.8049
 496  553.0732
 497  562.156
 498  339.1547
 499  346.584
 500  406.1428
 501  419.4868
 502  464.2742
 503  487.1813
 504  437.1743
 505  306.7481
 506  316.9401
 507  405.5677
 508  428.1892
 509  515.1371
 510  472.4178
 511  448.9813
