# Input file       =  1205396186.107609_cleaned.dat
# Candidate        =  PSR_0332+5434
# Telescope        =  AR
# Epoch_topo       =  58195.344966523255
# Epoch_bary       =  N/A
# T_sample         =  0.002
# Data Folded      =  7405568
# Data Avg         =  0.0263714259554643
# Data StdDev      =  1.00004976690968 
# Profile Bins     =  512
# Profile Avg      =  381.382467414666 
# Profile StdDev   =  120.272356312608 
# Reduced chi-sqr  =  1.846
# Prob(Noise)      <  4.25e-28   (~10.9 sigma)
# P_topo (ms)      =  714.576383024196  +/- 8.68e-05
# P'_topo (s/s)    =  -0                +/- 4.54e-11
# P''_topo (s/s^2) =  0                 +/- 1.99e-14
# P_bary (ms)      =  N/A
# P'_bary (s/s)    =  N/A
# P''_bary (s/s^2) =  N/A
# P_orb (s)        =  N/A
# asin(i)/c (s)    =  N/A
# eccentricity     =  N/A
# w (rad)          =  N/A
# T_peri           =  N/A
######################################################
   0  1142.094
   1  1064.391
   2  809.5281
   3  593.8637
   4  534.793
   5  499.5137
   6  499.5355
   7  589.6799
   8  504.8526
   9  469.3964
  10  571.6328
  11  474.8272
  12  377.8872
  13  457.1303
  14  558.2576
  15  488.2528
  16  486.9885
  17  411.9301
  18  353.34
  19  516.0546
  20  496.4188
  21  417.7756
  22  364.6976
  23  520.0681
  24  560.9026
  25  413.3376
  26  325.5893
  27  267.6551
  28  165.6116
  29  221.3747
  30  277.799
  31  315.7324
  32  350.9073
  33  371.9033
  34  285.3997
  35  422.69
  36  385.4301
  37  352.8285
  38  344.5881
  39  367.7283
  40  387.2459
  41  316.8375
  42  355.8462
  43  314.4977
  44  230.8418
  45  281.4661
  46  340.9133
  47  287.775
  48  296.7177
  49  266.1736
  50  188.1527
  51  294.2835
  52  369.0506
  53  399.4802
  54  446.5045
  55  522.8974
  56  529.2376
  57  412.8664
  58  337.3307
  59  279.0301
  60  357.9774
  61  286.6997
  62  284.5699
  63  274.1305
  64  300.1887
  65  363.9906
  66  324.9826
  67  336.7909
  68  251.4425
  69  211.773
  70  277.8844
  71  358.546
  72  330.7969
  73  321.9467
  74  310.2191
  75  311.5356
  76  264.6973
  77  186.1473
  78  309.5488
  79  371.2172
  80  201.3574
  81  278.3011
  82  391.4692
  83  256.5905
  84  281.6334
  85  263.2379
  86  240.5772
  87  388.6471
  88  439.4654
  89  474.4797
  90  366.7021
  91  297.6398
  92  369.7013
  93  382.4272
  94  359.153
  95  309.783
  96  325.9758
  97  480.042
  98  480.9978
  99  414.3509
 100  307.3189
 101  288.5561
 102  412.4633
 103  401.9303
 104  512.4568
 105  508.6311
 106  513.119
 107  311.0302
 108  239.2848
 109  220.271
 110  216.6924
 111  352.9132
 112  360.1805
 113  284.9995
 114  301.0701
 115  345.2341
 116  222.7241
 117  202.7477
 118  363.0949
 119  354.3002
 120  276.2825
 121  320.4317
 122  531.7603
 123  509.8687
 124  335.389
 125  248.3446
 126  311.7556
 127  491.7378
 128  533.3926
 129  392.0474
 130  358.3179
 131  426.2524
 132  364.3882
 133  387.6487
 134  304.8245
 135  331.3782
 136  480.2611
 137  490.0843
 138  518.2951
 139  465.5396
 140  449.8226
 141  425.3562
 142  403.0092
 143  426.8122
 144  403.9799
 145  457.9052
 146  501.7969
 147  341.893
 148  278.3014
 149  238.6154
 150  314.6295
 151  397.2068
 152  314.6427
 153  380.3705
 154  422.7201
 155  484.1815
 156  381.9776
 157  252.4065
 158  336.9461
 159  280.035
 160  346.9368
 161  303.5561
 162  357.5293
 163  564.3375
 164  520.0098
 165  403.0575
 166  295.6547
 167  219.347
 168  325.3562
 169  452.4644
 170  457.5677
 171  484.2995
 172  463.2238
 173  405.5399
 174  403.2298
 175  503.5486
 176  383.4606
 177  434.3376
 178  155.2916
 179  192.9572
 180  377.8111
 181  340.6638
 182  262.7719
 183  324.6841
 184  356.3785
 185  420.0578
 186  339.9493
 187  438.4451
 188  408.13
 189  335.1405
 190  207.1432
 191  187.9681
 192  241.5676
 193  270.2168
 194  334.8907
 195  204.0417
 196  428.3745
 197  367.0438
 198  285.4724
 199  329.8464
 200  362.2561
 201  306.436
 202  326.7589
 203  357.9664
 204  416.5907
 205  567.6041
 206  535.7599
 207  245.8157
 208  295.8556
 209  365.6412
 210  257.2366
 211  284.1387
 212  293.2205
 213  308.1605
 214  246.9742
 215  262.2093
 216  362.684
 217  375.6485
 218  459.4062
 219  444.8347
 220  481.4818
 221  581.5271
 222  453.3526
 223  277.6556
 224  167.4879
 225  250.0069
 226  338.1974
 227  464.285
 228  361.0794
 229  464.0981
 230  443.1503
 231  391.127
 232  294.1636
 233  276.9569
 234  245.6869
 235  186.2851
 236  275.6469
 237  400.0735
 238  407.2914
 239  414.6362
 240  342.8931
 241  224.9695
 242  224.5126
 243  336.9743
 244  398.7668
 245  325.8941
 246  336.4264
 247  346.1401
 248  268.1594
 249  291.1592
 250  238.2634
 251  440.5715
 252  579.5769
 253  454.3452
 254  331.019
 255  439.8642
 256  445.3135
 257  343.6147
 258  388.6916
 259  440.2309
 260  402.0845
 261  410.253
 262  517.3181
 263  592.4064
 264  440.5248
 265  382.3422
 266  331.5149
 267  459.0953
 268  444.9417
 269  586.9868
 270  634.8472
 271  369.4623
 272  316.7585
 273  445.1438
 274  389.2737
 275  357.5558
 276  461.2085
 277  395.0789
 278  444.7572
 279  439.2699
 280  367.7741
 281  335.7938
 282  356.1494
 283  410.9753
 284  416.9399
 285  475.4508
 286  489.1079
 287  506.5878
 288  524.8698
 289  426.7053
 290  449.3595
 291  464.9925
 292  385.0147
 293  345.062
 294  340.3997
 295  471.5309
 296  524.9499
 297  430.4966
 298  458.2675
 299  343.3639
 300  440.4143
 301  590.2516
 302  535.8589
 303  483.2996
 304  538.7147
 305  480.4013
 306  381.6916
 307  287.7893
 308  290.7472
 309  295.1092
 310  272.983
 311  364.2398
 312  380.4446
 313  426.6162
 314  305.8277
 315  241.8839
 316  221.4073
 317  285.5282
 318  341.4475
 319  336.6951
 320  347.3909
 321  339.307
 322  318.9751
 323  351.8643
 324  330.0058
 325  258.5125
 326  229.6714
 327  279.3844
 328  363.5264
 329  370.8668
 330  358.4381
 331  331.1653
 332  348.0592
 333  322.451
 334  331.5637
 335  421.5266
 336  426.0828
 337  437.7321
 338  286.8081
 339  282.4341
 340  288.5034
 341  348.3939
 342  296.5108
 343  271.8472
 344  381.3532
 345  322.2308
 346  256.3933
 347  278.8869
 348  277.1163
 349  286.7883
 350  254.4594
 351  337.1637
 352  384.0851
 353  401.0178
 354  460.2577
 355  456.9254
 356  285.6094
 357  199.387
 358  198.4204
 359  280.1867
 360  262.6269
 361  255.1818
 362  361.9217
 363  420.8578
 364  369.9932
 365  456.8487
 366  414.0053
 367  353.4263
 368  422.7304
 369  525.3535
 370  439.7319
 371  394.169
 372  379.6957
 373  355.6661
 374  441.155
 375  373.9681
 376  299.8592
 377  260.917
 378  343.1128
 379  458.506
 380  353.4883
 381  275.9955
 382  420.6082
 383  366.7851
 384  374.4032
 385  398.6295
 386  475.2904
 387  397.8471
 388  306.3383
 389  315.5642
 390  369.5063
 391  490.6236
 392  434.3588
 393  378.4586
 394  511.929
 395  598.7746
 396  386.2688
 397  342.4422
 398  382.1864
 399  423.7145
 400  443.2527
 401  473.8018
 402  473.7328
 403  332.9591
 404  302.2336
 405  382.8205
 406  425.0227
 407  494.4766
 408  491.1892
 409  460.1415
 410  347.2509
 411  349.1179
 412  542.9437
 413  390.7114
 414  348.0751
 415  358.4501
 416  510.6825
 417  495.4958
 418  479.6637
 419  366.7798
 420  336.2693
 421  330.9616
 422  330.8683
 423  342.8407
 424  272.7957
 425  349.7111
 426  354.2238
 427  457.0197
 428  423.5219
 429  275.3504
 430  256.3371
 431  415.4587
 432  387.7931
 433  334.47
 434  397.5036
 435  463.0591
 436  412.6992
 437  263.0056
 438  296.7132
 439  320.8243
 440  264.1888
 441  321.2515
 442  328.4152
 443  211.3918
 444  333.3794
 445  289.2313
 446  59.62008
 447  188.8259
 448  283.1836
 449  278.044
 450  353.257
 451  381.2396
 452  447.9177
 453  485.5606
 454  559.45
 455  413.116
 456  322.8208
 457  304.0979
 458  458.7651
 459  329.1933
 460  267.7828
 461  292.7275
 462  208.7856
 463  364.1248
 464  509.2744
 465  459.2108
 466  321.9255
 467  153.5922
 468  319.0818
 469  414.9695
 470  399.6548
 471  408.3524
 472  356.2629
 473  306.0895
 474  355.6015
 475  392.1248
 476  357.9522
 477  404.9074
 478  479.1853
 479  429.9484
 480  316.1447
 481  374.7599
 482  328.0353
 483  277.5466
 484  400.549
 485  536.175
 486  485.4915
 487  404.4869
 488  330.1926
 489  301.4359
 490  301.4662
 491  448.1823
 492  522.4833
 493  487.6478
 494  531.2727
 495  535.5599
 496  460.0297
 497  476.7828
 498  346.4134
 499  347.0986
 500  486.4282
 501  609.4415
 502  580.4013
 503  365.0731
 504  370.704
 505  469.8203
 506  560.8736
 507  693.8029
 508  674.1754
 509  850.362
 510  1069.638
 511  1184.555
