# Input file       =  1205223715.118029_cleaned.dat
# Candidate        =  PSR_0332+5434
# Telescope        =  AR
# Epoch_topo       =  58193.348774514227
# Epoch_bary       =  N/A
# T_sample         =  0.002
# Data Folded      =  7471104
# Data Avg         =  0.022352773089408
# Data StdDev      =  1.00006705490377 
# Profile Bins     =  512
# Profile Avg      =  326.198471691703 
# Profile StdDev   =  120.805451019077 
# Reduced chi-sqr  =  1.918
# Prob(Noise)      <  6.64e-32   (~11.7 sigma)
# P_topo (ms)      =  714.577125823476  +/- 4.05e-05
# P'_topo (s/s)    =  -0                +/- 2.1e-11
# P''_topo (s/s^2) =  0                 +/- 9.11e-15
# P_bary (ms)      =  N/A
# P'_bary (s/s)    =  N/A
# P''_bary (s/s^2) =  N/A
# P_orb (s)        =  N/A
# asin(i)/c (s)    =  N/A
# eccentricity     =  N/A
# w (rad)          =  N/A
# T_peri           =  N/A
######################################################
   0  322.414
   1  218.3014
   2  124.9673
   3  89.53185
   4  107.6328
   5  214.5403
   6  307.809
   7  302.5753
   8  402.195
   9  434.8753
  10  409.648
  11  327.4586
  12  399.948
  13  320.1317
  14  439.1108
  15  437.7247
  16  433.7385
  17  416.1446
  18  279.5339
  19  231.1085
  20  384.7541
  21  444.1466
  22  564.2504
  23  474.4148
  24  367.5856
  25  205.9156
  26  146.6768
  27  228.0832
  28  139.7285
  29  320.372
  30  472.5073
  31  519.5265
  32  366.7621
  33  364.5279
  34  164.1228
  35  244.5379
  36  307.6682
  37  377.9812
  38  523.5363
  39  451.4258
  40  287.6251
  41  264.0839
  42  320.3239
  43  380.7823
  44  365.364
  45  279.499
  46  403.3512
  47  431.1239
  48  434.2795
  49  417.2845
  50  324.6654
  51  279.6128
  52  366.0454
  53  409.9797
  54  487.7602
  55  495.9361
  56  364.1436
  57  306.2691
  58  374.8339
  59  472.9008
  60  403.2679
  61  497.1169
  62  564.4483
  63  707.6702
  64  775.1369
  65  960.8793
  66  1139.798
  67  1077.386
  68  928.8933
  69  707.3912
  70  613.4399
  71  367.4675
  72  218.1826
  73  283.4514
  74  490.5251
  75  365.7893
  76  228.9767
  77  325.5071
  78  314.2559
  79  309.3095
  80  438.8554
  81  434.5426
  82  378.544
  83  150.6368
  84  198.4237
  85  331.0392
  86  394.6334
  87  365.9117
  88  373.9955
  89  337.0949
  90  315.2008
  91  318.0007
  92  204.3481
  93  298.1211
  94  395.4421
  95  392.2643
  96  467.1139
  97  382.7516
  98  209.7144
  99  192.0005
 100  165.0076
 101  225.0384
 102  296.8164
 103  504.3791
 104  502.86
 105  442.5894
 106  432.1579
 107  282.4331
 108  150.1531
 109  199.8278
 110  188.4503
 111  300.3471
 112  307.7012
 113  296.6815
 114  304.1767
 115  248.7923
 116  214.3008
 117  122.0345
 118  256.7765
 119  266.2133
 120  322.8376
 121  404.705
 122  320.2235
 123  261.6504
 124  223.2784
 125  159.6021
 126  375.8342
 127  361.05
 128  246.6464
 129  249.5493
 130  279.1396
 131  310.9488
 132  291.545
 133  319.8542
 134  413.2092
 135  314.4531
 136  189.3232
 137  300.6447
 138  477.5534
 139  428.0216
 140  209.8462
 141  245.9482
 142  213.2923
 143  266.6033
 144  230.5971
 145  323.3141
 146  310.7463
 147  240.4404
 148  220.6351
 149  237.2866
 150  176.8245
 151  130.4359
 152  315.145
 153  486.6874
 154  406.9253
 155  358.7539
 156  432.9012
 157  409.7272
 158  263.7708
 159  217.7505
 160  326.2413
 161  660.2538
 162  388.1122
 163  161.4868
 164  183.0019
 165  209.4753
 166  186.0875
 167  142.9013
 168  94.38692
 169  208.6134
 170  335.7312
 171  464.693
 172  444.452
 173  438.2139
 174  424.268
 175  250.2685
 176  344.0588
 177  409.7494
 178  277.5642
 179  311.8866
 180  418.1113
 181  409.8891
 182  255.9025
 183  130.0654
 184  170.3089
 185  363.1409
 186  434.2111
 187  365.0404
 188  398.5135
 189  266.3063
 190  185.7791
 191  101.9023
 192  347.9781
 193  497.2401
 194  444.9213
 195  405.6441
 196  225.9787
 197  181.321
 198  216.4219
 199  195.3498
 200  173.3333
 201  331.0389
 202  431.4361
 203  447.9073
 204  376.9523
 205  266.3658
 206  224.641
 207  274.5813
 208  224.8347
 209  211.5105
 210  232.7707
 211  209.5499
 212  382.943
 213  394.6938
 214  293.5334
 215  179.0007
 216  21.82209
 217  145.4574
 218  242.9955
 219  340.8597
 220  495.0893
 221  359.8416
 222  382.6898
 223  543.2875
 224  440.5196
 225  367.8333
 226  328.5356
 227  266.5508
 228  308.4486
 229  449.0043
 230  548.5557
 231  371.2209
 232  232.8011
 233  251.9959
 234  282.5934
 235  347.42
 236  355.2736
 237  400.5149
 238  448.2555
 239  292.2377
 240  325.1292
 241  258.8694
 242  311.1358
 243  275.2223
 244  350.5053
 245  372.5821
 246  293.1939
 247  336.2891
 248  349.4744
 249  148.1744
 250  180.8947
 251  312.6002
 252  428.1579
 253  481.938
 254  440.7429
 255  434.0889
 256  361.0883
 257  284.2371
 258  273.3815
 259  334.3877
 260  398.5961
 261  450.6068
 262  417.9405
 263  306.6067
 264  264.5007
 265  186.7301
 266  200.9887
 267  186.7541
 268  238.7426
 269  324.7507
 270  321.2958
 271  273.3439
 272  257.7444
 273  162.1975
 274  144.0793
 275  222.9263
 276  261.1288
 277  204.9624
 278  169.7026
 279  284.1998
 280  275.6798
 281  212.5402
 282  188.0486
 283  232.5814
 284  321.05
 285  440.1656
 286  440.9591
 287  407.3557
 288  261.0593
 289  233.6389
 290  174.6622
 291  253.4104
 292  298.6811
 293  309.2388
 294  287.0527
 295  196.6909
 296  204.8343
 297  207.4875
 298  282.1631
 299  278.219
 300  213.9541
 301  172.3247
 302  288.9858
 303  298.3031
 304  279.7296
 305  214.4949
 306  355.3167
 307  454.9366
 308  391.7108
 309  282.3914
 310  381.5936
 311  452.8442
 312  306.4294
 313  219.172
 314  219.9883
 315  264.0534
 316  211.1095
 317  311.5993
 318  333.0526
 319  366.1711
 320  444.3665
 321  324.0928
 322  280.4509
 323  346.5279
 324  410.8467
 325  333.2061
 326  401.4183
 327  437.2994
 328  382.1545
 329  445.7551
 330  444.0937
 331  384.1257
 332  247.4926
 333  259.6666
 334  306.1989
 335  208.5121
 336  449.917
 337  361.8966
 338  188.7754
 339  194.4716
 340  152.5521
 341  273.5403
 342  430.0987
 343  366.2184
 344  353.3661
 345  324.0114
 346  266.3171
 347  315.7417
 348  265.2518
 349  236.9919
 350  286.9358
 351  194.1727
 352  339.8893
 353  514.1623
 354  472.9913
 355  245.0783
 356  88.48784
 357  155.7048
 358  320.8385
 359  399.3861
 360  412.8068
 361  426.2458
 362  286.3546
 363  335.3752
 364  403.4466
 365  300.7198
 366  283.9085
 367  271.1996
 368  266.0728
 369  295.4899
 370  259.5108
 371  254.8521
 372  236.8741
 373  221.4614
 374  176.5445
 375  269.12
 376  263.5939
 377  448.6483
 378  265.1387
 379  285.2593
 380  429.3045
 381  349.0766
 382  292.2741
 383  230.7316
 384  274.7845
 385  392.654
 386  388.3441
 387  322.9117
 388  244.5432
 389  282.7776
 390  408.6294
 391  329.1533
 392  246.9859
 393  409.6707
 394  282.2415
 395  281.9042
 396  339.7933
 397  273.9464
 398  255.0076
 399  259.8644
 400  341.9322
 401  397.8949
 402  396.7462
 403  376.1215
 404  341.0622
 405  267.0549
 406  359.4356
 407  361.5696
 408  271.9817
 409  417.2549
 410  361.7705
 411  293.0718
 412  270.3555
 413  288.3105
 414  255.4243
 415  192.0718
 416  278.9467
 417  204.5464
 418  392.6418
 419  434.2915
 420  415.6729
 421  238.4226
 422  79.00155
 423  241.1244
 424  311.2756
 425  348.4211
 426  310.7505
 427  350.4734
 428  368.7274
 429  341.471
 430  238.3766
 431  133.0551
 432  251.0894
 433  327.8488
 434  507.3852
 435  515.7525
 436  430.9615
 437  284.4213
 438  247.5505
 439  237.146
 440  194.635
 441  264.0262
 442  335.7027
 443  295.5335
 444  356.8617
 445  395.9832
 446  176.9713
 447  131.1704
 448  326.9695
 449  402.5353
 450  324.2001
 451  362.0185
 452  343.4315
 453  349.6199
 454  243.0787
 455  222.2104
 456  274.8664
 457  233.1219
 458  248.4584
 459  475.4362
 460  556.5393
 461  432.0568
 462  185.2662
 463  242.4463
 464  249.934
 465  274.2852
 466  448.2596
 467  549.6752
 468  554.5769
 469  431.3215
 470  349.8616
 471  219.6363
 472  139.7
 473  228.675
 474  381.7549
 475  460.7112
 476  360.9715
 477  309.8708
 478  394.5569
 479  343.4889
 480  261.106
 481  255.3159
 482  337.1355
 483  330.7225
 484  449.713
 485  430.0989
 486  396.6556
 487  413.6361
 488  325.1581
 489  313.4266
 490  300.0255
 491  426.9336
 492  451.4059
 493  430.9113
 494  444.786
 495  427.7892
 496  255.7096
 497  253.5251
 498  201.2382
 499  368.1062
 500  360.3426
 501  384.4299
 502  468.8133
 503  347.849
 504  205.0575
 505  285.1291
 506  279.0746
 507  281.1874
 508  440.251
 509  440.9673
 510  430.2791
 511  381.0981
