# Input file       =  1205080843.115398_cleaned.dat
# Candidate        =  PSR_0332+5434
# Telescope        =  AR
# Epoch_topo       =  58191.695163372664
# Epoch_bary       =  N/A
# T_sample         =  0.002
# Data Folded      =  7340032
# Data Avg         =  0.193731883123941
# Data StdDev      =  4.68917289449514 
# Profile Bins     =  512
# Profile Avg      =  2777.34728085224 
# Profile StdDev   =  561.448908753532 
# Reduced chi-sqr  =  1.604
# Prob(Noise)      <  1.01e-16   (~8.2 sigma)
# P_topo (ms)      =  714.578032086114  +/- 0.000726
# P'_topo (s/s)    =  -0                +/- 3.83e-10
# P''_topo (s/s^2) =  0                 +/- 1.69e-13
# P_bary (ms)      =  N/A
# P'_bary (s/s)    =  N/A
# P''_bary (s/s^2) =  N/A
# P_orb (s)        =  N/A
# asin(i)/c (s)    =  N/A
# eccentricity     =  N/A
# w (rad)          =  N/A
# T_peri           =  N/A
######################################################
   0  2454.879
   1  2514.246
   2  2223.758
   3  1974.453
   4  2257.912
   5  2415.612
   6  2535.884
   7  2387.494
   8  2634.747
   9  2530.229
  10  2324.245
  11  2637.812
  12  2556.602
  13  2568.356
  14  2551.673
  15  2446.108
  16  2387.603
  17  2758.963
  18  2312.018
  19  2174.533
  20  2280.931
  21  2522.967
  22  2323.17
  23  2852.374
  24  2580.492
  25  2639.467
  26  2485.816
  27  2376.742
  28  2300.7
  29  2157.603
  30  2694.831
  31  2978.594
  32  3458.854
  33  3215.24
  34  3097.899
  35  2932.274
  36  2948.234
  37  3171.636
  38  2985.955
  39  3066.14
  40  3077.254
  41  3246.404
  42  3474.072
  43  3214.714
  44  3242.723
  45  3009.921
  46  3189.232
  47  3298.506
  48  3531.665
  49  3199.244
  50  3143.875
  51  3326.606
  52  3366.554
  53  3147.884
  54  3143.034
  55  3414.929
  56  3600.484
  57  3572.591
  58  3615.383
  59  3503.742
  60  3235
  61  2904.574
  62  3287.176
  63  3240.084
  64  2931.232
  65  3255.73
  66  3501.411
  67  3170.427
  68  3089.718
  69  3167.321
  70  3207.983
  71  3321.604
  72  3131.986
  73  2989.513
  74  3090.172
  75  3142.667
  76  2993.66
  77  2812.837
  78  2815.318
  79  2926.669
  80  3022.107
  81  2710.26
  82  2744.413
  83  2878.516
  84  3433.148
  85  3897.728
  86  3794.671
  87  3842.48
  88  4397.799
  89  4207.122
  90  4755.877
  91  5390.656
  92  5206.498
  93  5696.586
  94  5301.562
  95  4681.247
  96  4047.71
  97  3614.305
  98  3427.26
  99  3055.044
 100  2843.1
 101  3022.56
 102  3258.211
 103  3882.327
 104  3545.331
 105  3739.384
 106  3689.129
 107  3501.536
 108  3303.947
 109  3171.703
 110  2904.566
 111  2730.538
 112  2615.68
 113  2765.853
 114  3442.337
 115  3097.595
 116  2997.226
 117  3333.924
 118  3119.935
 119  3084.509
 120  3049.463
 121  2864.495
 122  2629.691
 123  2647.339
 124  2846.414
 125  2797.129
 126  3039.266
 127  2967.579
 128  3241.992
 129  2712.247
 130  2427.194
 131  2550.189
 132  2598.303
 133  2967.552
 134  3121.002
 135  3242.508
 136  3060.966
 137  2842.168
 138  2838.483
 139  2930.389
 140  3009.149
 141  3124.952
 142  3063.69
 143  2852.586
 144  2817.857
 145  3174.897
 146  3301.285
 147  3148.151
 148  3388.549
 149  3323.181
 150  3095.554
 151  3229.268
 152  2855.62
 153  3152.61
 154  3193.489
 155  3228.284
 156  3561.861
 157  3307.182
 158  3307.264
 159  3239.33
 160  3318.9
 161  3623.017
 162  3747.091
 163  3394.12
 164  3279.389
 165  3249.618
 166  3153.994
 167  3222.983
 168  3424.394
 169  3551.803
 170  3394.556
 171  3249.185
 172  3039.828
 173  2973.632
 174  2966.777
 175  3390.946
 176  3433.346
 177  3320.811
 178  3084.747
 179  3429.244
 180  3256.436
 181  3016.1
 182  2999.585
 183  2880.33
 184  3038.979
 185  3076.509
 186  3099.266
 187  2899.558
 188  2995.137
 189  2986.7
 190  3154.84
 191  2979.791
 192  2813.811
 193  2709.323
 194  2787.898
 195  2996.419
 196  2876.788
 197  2801.717
 198  2940.199
 199  3032.543
 200  2780.065
 201  2605.684
 202  2734.302
 203  2598.462
 204  2790.05
 205  3059.448
 206  2641.466
 207  2775.323
 208  2580.546
 209  2499.855
 210  2695.927
 211  2612.107
 212  2639.945
 213  3076.127
 214  2964.626
 215  2789.27
 216  2681.62
 217  3030.199
 218  3120.054
 219  3054.472
 220  3027.242
 221  3010.629
 222  2594.026
 223  2545.456
 224  2637.213
 225  2657.53
 226  2785.659
 227  2791.776
 228  2714.396
 229  2371.96
 230  2183.057
 231  2037.366
 232  1992.376
 233  1952.836
 234  2153.897
 235  2292.067
 236  2732.198
 237  3021.633
 238  2965.415
 239  2796.251
 240  2474.043
 241  2468.199
 242  2540.719
 243  2585.255
 244  2783.508
 245  2577.277
 246  2624.675
 247  2937.551
 248  2973.444
 249  2892.543
 250  2583.475
 251  2582.77
 252  2728.695
 253  3223.389
 254  3189.497
 255  2919.293
 256  3065.078
 257  2968.319
 258  2724.298
 259  2972.656
 260  2853.411
 261  3184.181
 262  3184.59
 263  3409.436
 264  3362.104
 265  3096.961
 266  3697.425
 267  3648.106
 268  3436.443
 269  3155.163
 270  3194.245
 271  2690.395
 272  2640.75
 273  2885.807
 274  3077.708
 275  3065.826
 276  2650.461
 277  2584.964
 278  2376.189
 279  2145.054
 280  2176.423
 281  2740.702
 282  2713.932
 283  2687.035
 284  2643.721
 285  2513.249
 286  2657.172
 287  3246.957
 288  2941.932
 289  2891.967
 290  2892.189
 291  3103.334
 292  3141.004
 293  3092.687
 294  2801.026
 295  2949.147
 296  2896.544
 297  3111.911
 298  3042.305
 299  3078.464
 300  2956.59
 301  2992.972
 302  2754.829
 303  3093.474
 304  3067.059
 305  2973.165
 306  2716.187
 307  2721.272
 308  2679.815
 309  2728.789
 310  2568.504
 311  2054.102
 312  2468.355
 313  2625.128
 314  2369.567
 315  2460.995
 316  2154.625
 317  2312.722
 318  2524.75
 319  2214.646
 320  1922.366
 321  2031.255
 322  2007.499
 323  2523.554
 324  2303.955
 325  2443.755
 326  2385.515
 327  2401.701
 328  2542.416
 329  2614.959
 330  3049.205
 331  2950.705
 332  2861.47
 333  2932.933
 334  3090.683
 335  2971.195
 336  2741.229
 337  2737.193
 338  3086.96
 339  2809.913
 340  2926.945
 341  2881.837
 342  2896.456
 343  2938.191
 344  2762.99
 345  2512.105
 346  2360.125
 347  2489.152
 348  2681.586
 349  2660.622
 350  3057.004
 351  2856.295
 352  2703.173
 353  3242.284
 354  2930.923
 355  3137.139
 356  3117.333
 357  2832.658
 358  2564.655
 359  2429.185
 360  2677.194
 361  2405.492
 362  2470.602
 363  2642.88
 364  2233.375
 365  2199.575
 366  2442.317
 367  2260.065
 368  2485.365
 369  2579.911
 370  2451.553
 371  2542.786
 372  2447.583
 373  2416.466
 374  2135.027
 375  2363.941
 376  2517.6
 377  2693.286
 378  2509.04
 379  2643.226
 380  2800.664
 381  2882.02
 382  3013.381
 383  2759.02
 384  2487.067
 385  2469.03
 386  2312.296
 387  2358.782
 388  2475.353
 389  2580.381
 390  2270.915
 391  2218.859
 392  2407.854
 393  2297.292
 394  2203.941
 395  2426.328
 396  2167.521
 397  2071.461
 398  1994.26
 399  1901.963
 400  1880.163
 401  1776.228
 402  1745.641
 403  2000.458
 404  2445.897
 405  2495.923
 406  2031.166
 407  1909.825
 408  1928.476
 409  1625.591
 410  1642.406
 411  2189.502
 412  2051.215
 413  2401.211
 414  2271.202
 415  2199.203
 416  2471.52
 417  2536.987
 418  2390.554
 419  2212.572
 420  2434.964
 421  2837.131
 422  2549.702
 423  2392.125
 424  2663.02
 425  2338.739
 426  2452.979
 427  2108.739
 428  2235.885
 429  2767.911
 430  2332.363
 431  2152.165
 432  2590.091
 433  2152.504
 434  2290.217
 435  2544.344
 436  2543.669
 437  2596.736
 438  2388.48
 439  2752.311
 440  3023.594
 441  2783.189
 442  2764.108
 443  2557.047
 444  2711.869
 445  2726.036
 446  2546.433
 447  2517.098
 448  3045.339
 449  2587.238
 450  2534.253
 451  2536.795
 452  2383.73
 453  2586.91
 454  2630.845
 455  2320.605
 456  2507.657
 457  2586.087
 458  2488.348
 459  2666.628
 460  2439.177
 461  2456.95
 462  2558.19
 463  2439.779
 464  2660.935
 465  2934.34
 466  2345.703
 467  1922.859
 468  2044.259
 469  2492.194
 470  2896.386
 471  2568.8
 472  1997.708
 473  2050.849
 474  2449.282
 475  1944.451
 476  2319.339
 477  2409.658
 478  2708.202
 479  2564.987
 480  2519.575
 481  2046.472
 482  2112.369
 483  2074.481
 484  2217.653
 485  2207.417
 486  2234.527
 487  2274.926
 488  2375.476
 489  2225.015
 490  2169.503
 491  2227.066
 492  2574.677
 493  2193.003
 494  2118.172
 495  2431.037
 496  2550.47
 497  2323.268
 498  1990.854
 499  2097.398
 500  1961.793
 501  2127.366
 502  2061.96
 503  2011.129
 504  1891.877
 505  2090.395
 506  2377.894
 507  1948.961
 508  1775.507
 509  1685.288
 510  1813.501
 511  1999.866
