# Input file       =  1205740786.108979_cleaned.dat
# Candidate        =  PSR_0332+5434
# Telescope        =  AR
# Epoch_topo       =  58199.333392465036
# Epoch_bary       =  N/A
# T_sample         =  0.002
# Data Folded      =  7143424
# Data Avg         =  0.0160635826392576
# Data StdDev      =  1.00002373209845 
# Profile Bins     =  512
# Profile Avg      =  224.036810724972 
# Profile StdDev   =  118.121387683743 
# Reduced chi-sqr  =  2.589
# Prob(Noise)      <  2.61e-73   (~18.1 sigma)
# P_topo (ms)      =  714.574702321041  +/- 2.46e-05
# P'_topo (s/s)    =  -0                +/- 1.33e-11
# P''_topo (s/s^2) =  0                 +/- 6.04e-15
# P_bary (ms)      =  N/A
# P'_bary (s/s)    =  N/A
# P''_bary (s/s^2) =  N/A
# P_orb (s)        =  N/A
# asin(i)/c (s)    =  N/A
# eccentricity     =  N/A
# w (rad)          =  N/A
# T_peri           =  N/A
######################################################
   0  -104.5394
   1  32.30216
   2  142.385
   3  185.4307
   4  265.6852
   5  129.6955
   6  48.54011
   7  -61.70572
   8  30.12474
   9  56.15315
  10  266.3231
  11  377.4416
  12  327.4548
  13  249.3649
  14  187.7715
  15  51.26387
  16  -96.94722
  17  -84.18728
  18  153.4513
  19  182.2674
  20  99.78619
  21  117.6292
  22  94.43807
  23  -109.965
  24  -3.555788
  25  32.17986
  26  158.7196
  27  412.2694
  28  371.2362
  29  260.6465
  30  169.9098
  31  187.3265
  32  219.4953
  33  233.5199
  34  41.20126
  35  -28.28391
  36  136.4473
  37  187.3363
  38  227.1123
  39  26.25599
  40  96.90858
  41  144.2027
  42  5.082463
  43  175.6908
  44  264.4771
  45  412.9468
  46  532.2869
  47  521.5193
  48  443.2442
  49  441.8329
  50  631.8699
  51  797.1254
  52  791.443
  53  827.9468
  54  639.7994
  55  289.1383
  56  186.9742
  57  234.5363
  58  98.90836
  59  107.3751
  60  159.2641
  61  236.8709
  62  301.5564
  63  419.9836
  64  300.1118
  65  199.1378
  66  175.6848
  67  216.206
  68  187.7434
  69  253.7897
  70  305.4191
  71  255.5926
  72  131.6261
  73  70.20038
  74  161.2529
  75  138.1319
  76  124.8054
  77  221.273
  78  270.6436
  79  290.0075
  80  226.3976
  81  319.9679
  82  199.8575
  83  103.884
  84  184.4175
  85  354.0786
  86  390.6756
  87  360.562
  88  344.4604
  89  117.5832
  90  113.2164
  91  192.5882
  92  286.4814
  93  369.9274
  94  401.5016
  95  287.2216
  96  181.382
  97  76.45573
  98  174.0555
  99  188.2417
 100  172.4078
 101  170.7773
 102  130.212
 103  186.0285
 104  228.4062
 105  96.07612
 106  -13.49091
 107  -15.0113
 108  278.6603
 109  273.2979
 110  395.9721
 111  475.665
 112  306.7329
 113  203.953
 114  156.6227
 115  185.7875
 116  70.66467
 117  115.4888
 118  64.82269
 119  133.3314
 120  163.3168
 121  156.0193
 122  20.09561
 123  -21.88523
 124  96.99886
 125  258.3799
 126  337.9049
 127  312.9448
 128  350.2356
 129  310.0722
 130  279.3722
 131  219.0334
 132  119.2284
 133  159.9185
 134  186.1438
 135  190.5292
 136  315.2226
 137  406.8557
 138  193.0779
 139  261.9048
 140  177.7759
 141  113.9355
 142  234.5875
 143  402.6655
 144  495.5964
 145  360.8772
 146  308.0639
 147  322.3559
 148  173.3914
 149  128.9475
 150  181.3558
 151  223.7823
 152  353.3902
 153  387.1532
 154  312.8469
 155  149.7771
 156  158.2526
 157  245.2329
 158  298.2915
 159  310.8476
 160  393.9066
 161  586.0384
 162  480.6762
 163  347.118
 164  230.9278
 165  195.2597
 166  116.0118
 167  192.7982
 168  340.4841
 169  275.1278
 170  294.415
 171  327.2456
 172  336.458
 173  275.5738
 174  215.3097
 175  221.9198
 176  347.1041
 177  377.3977
 178  419.5548
 179  342.2621
 180  225.525
 181  178.033
 182  95.87952
 183  89.632
 184  238.4044
 185  249.8448
 186  289.9775
 187  219.972
 188  117.2732
 189  196.3281
 190  89.61391
 191  129.897
 192  316.3027
 193  355.8706
 194  389.7224
 195  330.4547
 196  129.2641
 197  182.5274
 198  149.915
 199  101.7135
 200  161.3193
 201  302.646
 202  386.9345
 203  267.7352
 204  191.9917
 205  170.5978
 206  191.3301
 207  192.1349
 208  286.1578
 209  372.0273
 210  454.5719
 211  481.2765
 212  371.3405
 213  226.0187
 214  96.11423
 215  28.73389
 216  196.0292
 217  331.2538
 218  380.751
 219  424.4011
 220  172.0132
 221  84.06937
 222  135.8015
 223  102.5735
 224  173.9891
 225  404.9654
 226  426.2798
 227  452.8361
 228  435.0689
 229  350.5198
 230  149.2205
 231  172.0161
 232  124.7469
 233  228.4358
 234  258.4364
 235  307.6125
 236  411.0382
 237  214.8458
 238  79.82567
 239  84.55482
 240  253.5754
 241  280.9433
 242  309.2362
 243  495.1066
 244  480.7946
 245  186.7811
 246  270.4993
 247  179.4731
 248  62.94035
 249  29.76531
 250  218.4898
 251  274.2511
 252  322.9772
 253  247.2735
 254  138.6799
 255  111.4027
 256  171.7932
 257  177.5144
 258  207.9796
 259  329.9454
 260  433.9572
 261  453.6489
 262  396.1601
 263  350.7335
 264  292.0419
 265  248.2034
 266  431.7719
 267  371.0958
 268  361.407
 269  300.0168
 270  199.6512
 271  103.8492
 272  151.7406
 273  215.7865
 274  351.9438
 275  442.9006
 276  585.6575
 277  561.4867
 278  438.6228
 279  340.0049
 280  491.1808
 281  395.5013
 282  205.8408
 283  198.1858
 284  251.3805
 285  314.7163
 286  289.0053
 287  236.506
 288  228.1013
 289  248.6582
 290  250.8638
 291  279.3167
 292  335.3083
 293  455.4597
 294  426.0692
 295  314.6506
 296  179.5972
 297  93.88445
 298  181.323
 299  269.1634
 300  330.7061
 301  413.8757
 302  337.9277
 303  296.7204
 304  187.5912
 305  52.20796
 306  102.0954
 307  168.425
 308  386.8955
 309  610.5823
 310  491.732
 311  303.8883
 312  197.9873
 313  103.4088
 314  129.9842
 315  176.6138
 316  163.7917
 317  88.75166
 318  230.8212
 319  198.6405
 320  259.7774
 321  255.7056
 322  238.1465
 323  135.4337
 324  174.1842
 325  394.582
 326  342.7943
 327  339.5291
 328  311.4072
 329  203.9889
 330  178.3448
 331  50.82153
 332  113.1803
 333  196.2665
 334  317.2306
 335  93.27684
 336  194.0633
 337  231.0398
 338  214.4142
 339  198.3414
 340  111.7604
 341  265.396
 342  279.6799
 343  365.9494
 344  401.6266
 345  321.2823
 346  199.7571
 347  79.49738
 348  133.3183
 349  32.57608
 350  247.754
 351  391.6823
 352  281.7384
 353  223.6331
 354  157.657
 355  189.2369
 356  187.2384
 357  262.1472
 358  431.9937
 359  437.1554
 360  379.2895
 361  391.1833
 362  289.0812
 363  175.2685
 364  168.094
 365  229.2137
 366  354.1006
 367  308.6064
 368  221.0146
 369  216.5729
 370  128.8859
 371  171.8089
 372  138.1144
 373  156.1706
 374  328.9458
 375  611.1191
 376  610.9509
 377  218.019
 378  152.7053
 379  237.8598
 380  220.6391
 381  89.9268
 382  63.5996
 383  189.9237
 384  327.6227
 385  247.863
 386  182.3008
 387  131.4207
 388  154.7941
 389  183.7919
 390  223.437
 391  412.481
 392  405.9153
 393  278.4492
 394  203.239
 395  171.7062
 396  163.0183
 397  122.0409
 398  110.3863
 399  164.7602
 400  263.8182
 401  355.0114
 402  284.673
 403  236.93
 404  160.0685
 405  191.3162
 406  244.1461
 407  261.1326
 408  350.9213
 409  408.1013
 410  332.0802
 411  270.3955
 412  224.7396
 413  183.221
 414  107.3709
 415  165.7973
 416  243.4351
 417  177.8822
 418  183.7564
 419  112.1009
 420  135.6948
 421  147.5852
 422  198.9723
 423  210.6346
 424  224.6885
 425  314.4268
 426  364.7097
 427  280.3115
 428  141.3523
 429  154.3318
 430  91.97752
 431  65.81769
 432  285.7286
 433  261.3959
 434  249.0242
 435  89.67322
 436  175.509
 437  136.1479
 438  13.18857
 439  28.96493
 440  138.7438
 441  354.1227
 442  399.4352
 443  246.2103
 444  72.02177
 445  -49.9161
 446  -35.85448
 447  133.0501
 448  190.9009
 449  199.6031
 450  185.7359
 451  158.8106
 452  111.1739
 453  157.2374
 454  14.95476
 455  104.1927
 456  189.2702
 457  142.733
 458  289.1969
 459  319.4844
 460  222.9319
 461  158.1324
 462  37.81704
 463  -20.71445
 464  -35.75551
 465  129.9934
 466  102.4681
 467  155.767
 468  127.8473
 469  -14.08112
 470  95.52583
 471  133.7391
 472  -34.7843
 473  70.78311
 474  266.7167
 475  365.3725
 476  282.3777
 477  159.1991
 478  167.0906
 479  80.93271
 480  -9.9243
 481  141.9234
 482  178.9384
 483  82.90574
 484  36.201
 485  -86.76855
 486  15.97645
 487  15.24789
 488  60.6011
 489  93.64009
 490  212.9432
 491  286.8582
 492  237.7567
 493  21.93234
 494  -56.73907
 495  16.83894
 496  92.96992
 497  134.5754
 498  143.299
 499  118.8395
 500  138.3893
 501  270.3119
 502  170.7475
 503  42.27856
 504  -33.4823
 505  47.07482
 506  182.1376
 507  266.1444
 508  251.3791
 509  194.9685
 510  -14.95844
 511  -73.44946
