# Input file       =  1205425822.113558_cleaned.dat
# Candidate        =  PSR_0332+5434
# Telescope        =  AR
# Epoch_topo       =  58195.687975851368
# Epoch_bary       =  N/A
# T_sample         =  0.002
# Data Folded      =  7340032
# Data Avg         =  0.233885349378397
# Data StdDev      =  5.72649098591074 
# Profile Bins     =  512
# Profile Avg      =  3352.88497858198 
# Profile StdDev   =  685.650153527274 
# Reduced chi-sqr  =  0.979
# Prob(Noise)      <  0.621   (~0.0 sigma)
# P_topo (ms)      =  714.576605791818  +/- 0.000823
# P'_topo (s/s)    =  -0                +/- 4.34e-10
# P''_topo (s/s^2) =  0                 +/- 1.92e-13
# P_bary (ms)      =  N/A
# P'_bary (s/s)    =  N/A
# P''_bary (s/s^2) =  N/A
# P_orb (s)        =  N/A
# asin(i)/c (s)    =  N/A
# eccentricity     =  N/A
# w (rad)          =  N/A
# T_peri           =  N/A
######################################################
   0  3940.47
   1  3960.539
   2  3896.006
   3  4173.954
   4  3982.474
   5  4260.724
   6  3954.712
   7  3991.839
   8  3859.398
   9  3704.525
  10  4017.596
  11  4041.331
  12  4135.139
  13  4167.565
  14  3950.189
  15  3625.721
  16  3549.373
  17  3594.906
  18  3737.607
  19  3973.161
  20  4102.384
  21  3980.449
  22  4191.434
  23  3770.095
  24  3609.091
  25  3443.455
  26  3536.511
  27  3591.217
  28  3384.282
  29  3286.111
  30  3348.69
  31  3518.474
  32  3359.076
  33  3539.099
  34  3323.459
  35  3767.838
  36  3922.205
  37  3822.517
  38  3797.68
  39  3906.637
  40  3895.043
  41  4010.141
  42  3476.42
  43  3517.866
  44  3304.95
  45  3101.446
  46  3460.834
  47  3354.071
  48  3329.3
  49  3489.78
  50  3298.501
  51  3497.851
  52  3608.822
  53  3512.965
  54  3554.267
  55  3325.622
  56  3579.822
  57  3845.559
  58  3971.772
  59  3768.986
  60  3807.198
  61  3669.601
  62  3728.74
  63  3731.29
  64  3595.146
  65  3356
  66  3303.267
  67  3464.491
  68  3531.51
  69  3397.98
  70  3282.992
  71  3381.289
  72  3428.912
  73  3360.769
  74  3473.577
  75  3603.29
  76  3734.533
  77  3796.281
  78  3639.855
  79  3920.948
  80  3784.149
  81  3705.967
  82  3850.618
  83  3920.823
  84  3706.938
  85  3659.366
  86  3568.66
  87  3377.585
  88  3705.832
  89  4002.741
  90  3901.228
  91  3647.16
  92  3711.951
  93  4008.989
  94  3839.23
  95  3883.708
  96  4500.494
  97  4207.653
  98  4164.653
  99  3799.976
 100  4483.077
 101  4170.963
 102  4021.53
 103  4011.68
 104  4360.175
 105  4580.189
 106  4494.019
 107  4264.889
 108  4563.331
 109  4297.128
 110  3794.623
 111  3985.245
 112  4065.453
 113  4082.573
 114  4000.376
 115  3625.327
 116  3444.856
 117  3997.468
 118  3727.808
 119  4252.449
 120  3496.467
 121  3056.638
 122  2770.558
 123  2756.59
 124  3122.439
 125  3161.394
 126  3003.197
 127  3094.283
 128  3237.309
 129  3175.684
 130  2871.475
 131  3202.914
 132  3440.437
 133  3625.948
 134  3560.949
 135  3520.324
 136  3280.975
 137  3326.545
 138  3225.303
 139  3146.781
 140  3114.634
 141  3179.935
 142  3225.392
 143  3220.609
 144  3206.347
 145  3217.5
 146  3030.294
 147  3067.886
 148  2732.205
 149  2651.609
 150  2962.318
 151  3250.536
 152  3099.808
 153  3255.937
 154  2452.476
 155  3029.467
 156  2999.405
 157  3137.756
 158  3223.938
 159  3322.219
 160  3581.851
 161  3768.175
 162  3648.873
 163  3644.592
 164  3238.538
 165  3422.686
 166  3688.051
 167  3320.623
 168  3084.987
 169  2811.573
 170  2917.838
 171  3170.95
 172  3282.321
 173  3426.802
 174  3663.356
 175  3542.453
 176  3394.655
 177  3321.234
 178  2974.707
 179  2958.712
 180  3023.27
 181  3608.572
 182  3534.622
 183  3283.827
 184  2915.406
 185  2775.446
 186  2925.282
 187  3076.512
 188  3259.37
 189  3418.062
 190  3377.783
 191  3486.456
 192  3253.46
 193  2953.361
 194  2833.444
 195  2749.062
 196  3262.445
 197  3460.562
 198  3306.924
 199  3251.336
 200  2704.347
 201  2703.242
 202  2839.717
 203  3006.604
 204  3049.077
 205  2799.919
 206  2581.437
 207  2580.354
 208  2948.131
 209  2822.366
 210  2329.445
 211  2539.048
 212  2908.8
 213  2701.504
 214  2670.92
 215  2891.492
 216  3064.772
 217  3232.047
 218  3283.687
 219  3443.042
 220  3285.302
 221  3135.316
 222  2956.042
 223  2988.281
 224  2483.11
 225  2623.514
 226  2703.79
 227  2253.672
 228  2555.576
 229  2638.691
 230  2467.233
 231  2296.927
 232  2561.376
 233  2757.66
 234  2319.133
 235  2166.176
 236  2665.622
 237  2392.38
 238  2622.864
 239  2955.465
 240  2990.288
 241  3247.726
 242  3081.698
 243  2787.56
 244  2522.028
 245  2457.906
 246  2664.87
 247  3004.932
 248  3142.521
 249  2709.916
 250  2900.804
 251  3102.906
 252  2996.657
 253  3226.691
 254  3205.605
 255  2935.091
 256  3054.828
 257  3031.772
 258  3332.807
 259  3219.677
 260  2950.501
 261  3211.387
 262  3146.508
 263  3060.053
 264  3117.363
 265  3642.026
 266  3637.229
 267  3309.184
 268  3411.14
 269  3638.095
 270  3615.291
 271  3605.13
 272  3690.85
 273  3410.937
 274  3032.604
 275  2607.672
 276  2680.804
 277  3018.017
 278  3155.906
 279  3337.275
 280  3644.857
 281  3344.256
 282  3077.7
 283  3038.911
 284  3072.381
 285  2827.25
 286  2671.636
 287  2718.265
 288  3008.259
 289  3175.052
 290  3141.701
 291  2989.456
 292  2856.32
 293  2298.532
 294  2170.568
 295  3049.851
 296  2971.866
 297  2642.377
 298  2478.84
 299  2843.036
 300  3258.018
 301  2711.228
 302  2379.248
 303  2923.203
 304  2781.999
 305  2778.958
 306  2748.165
 307  2923.367
 308  2779.911
 309  2691.819
 310  2770.698
 311  3103.405
 312  3012.914
 313  2853.106
 314  2825.644
 315  2853.207
 316  2804.267
 317  2858.408
 318  2646.886
 319  2917.213
 320  3222.025
 321  2740.592
 322  2714.454
 323  2585.563
 324  2900.642
 325  3093.364
 326  3242.51
 327  2984.816
 328  3002.611
 329  2896.372
 330  2384.198
 331  2490.7
 332  3181.944
 333  3207.471
 334  2874.801
 335  2965.499
 336  3169.431
 337  3245.124
 338  3593.213
 339  4377.299
 340  4773.041
 341  5134.399
 342  5052.192
 343  4627.866
 344  4307.225
 345  3562.085
 346  2860.369
 347  2837.274
 348  2743.921
 349  2924.266
 350  2952.97
 351  2396.201
 352  2576.892
 353  2946.594
 354  3031.079
 355  3588.767
 356  3867.141
 357  3689.192
 358  3566.977
 359  2723.249
 360  2800.285
 361  3203.917
 362  2988.977
 363  3533.176
 364  3492.808
 365  3154.213
 366  3355.996
 367  3509.097
 368  3509.237
 369  3218.298
 370  3065.982
 371  3119.013
 372  3550.68
 373  3771.486
 374  3673.889
 375  3399.745
 376  3688.573
 377  4000.202
 378  4033.5
 379  3539.756
 380  3539.794
 381  3828.398
 382  3685.165
 383  3778.857
 384  3689.783
 385  4179.007
 386  3946.829
 387  3144.975
 388  2938.777
 389  3035.45
 390  3506.01
 391  3257.43
 392  3425.525
 393  3537.47
 394  3709.791
 395  3650.612
 396  3875.86
 397  3856.931
 398  3856.844
 399  4169.643
 400  4080.151
 401  4506.088
 402  4641.242
 403  4453.435
 404  3907.637
 405  3717.544
 406  3700.758
 407  3526.583
 408  3759.666
 409  3928.199
 410  3897.846
 411  3939.068
 412  3278.819
 413  3670.403
 414  3943.534
 415  3725.781
 416  3802.715
 417  3345.688
 418  3399.534
 419  3358.08
 420  3204.47
 421  2831.228
 422  2767.481
 423  2888.143
 424  2280.876
 425  2338.952
 426  2545.469
 427  2820.833
 428  2855.129
 429  2638.048
 430  2684.907
 431  2706.756
 432  3323.75
 433  3419.245
 434  3603.207
 435  3431.958
 436  2836.601
 437  2719.903
 438  2898.299
 439  3102.033
 440  2465.505
 441  2633.295
 442  2754.889
 443  3393.715
 444  3657.658
 445  3595.506
 446  3319.271
 447  3079.437
 448  3225.546
 449  3239.972
 450  3431.277
 451  3647.261
 452  3781.983
 453  3377.837
 454  3479.877
 455  3289.54
 456  3661.943
 457  3558.116
 458  3278.876
 459  3439.573
 460  3550.051
 461  3208.117
 462  3103.541
 463  3112.641
 464  3092.875
 465  3479.122
 466  3349.092
 467  3514.099
 468  3467.405
 469  3001.17
 470  3197.359
 471  3275.927
 472  3544.516
 473  3972.865
 474  3559.96
 475  3661.71
 476  3893.979
 477  3712.716
 478  3496.072
 479  3285.785
 480  3200.428
 481  3474.991
 482  3839.654
 483  3625.996
 484  3671.3
 485  3597.594
 486  3594.847
 487  3702.06
 488  3489.682
 489  3884.848
 490  3766.456
 491  3719.361
 492  3582.355
 493  3536.427
 494  3808.553
 495  3793.459
 496  3821.375
 497  3823.375
 498  3818.44
 499  3757.693
 500  3821.901
 501  3828.101
 502  3568.691
 503  3315.293
 504  3440.143
 505  3366.822
 506  3628.835
 507  3801.669
 508  3227.733
 509  3681.952
 510  3823.601
 511  3596.752
