# Input file       =  1205841527.112188-PSRB0329-2ms-sampling-dd.dat
# Candidate        =  PSR_0332+5434
# Telescope        =  AR
# Epoch_topo       =  58200.499376298474
# Epoch_bary       =  N/A
# T_sample         =  0.002
# Data Folded      =  7340032
# Data Avg         =  -3.14457797769202e-10
# Data StdDev      =  6.40182655744398 
# Profile Bins     =  512
# Profile Avg      =  -0.220306153225466
# Profile StdDev   =  766.510132080188 
# Reduced chi-sqr  =  0.743
# Prob(Noise)      <  1   (~0.0 sigma)
# P_topo (ms)      =  714.574176897533  +/- 0.000715
# P'_topo (s/s)    =  -0                +/- 3.77e-10
# P''_topo (s/s^2) =  0                 +/- 1.67e-13
# P_bary (ms)      =  N/A
# P'_bary (s/s)    =  N/A
# P''_bary (s/s^2) =  N/A
# P_orb (s)        =  N/A
# asin(i)/c (s)    =  N/A
# eccentricity     =  N/A
# w (rad)          =  N/A
# T_peri           =  N/A
######################################################
   0  160.6663
   1  -120.4899
   2  -134.5358
   3  416.8868
   4  804.1956
   5  336.9232
   6  508.615
   7  310.6107
   8  -480.2534
   9  -180.4876
  10  148.9164
  11  138.7334
  12  -171.3057
  13  -153.7025
  14  188.879
  15  -113.0461
  16  -224.9857
  17  -268.6189
  18  -173.3433
  19  -316.9048
  20  -556.2144
  21  -477.338
  22  -565.3644
  23  -314.0484
  24  -634.0658
  25  -470.2226
  26  -373.4886
  27  -435.8363
  28  -574.3165
  29  -809.5792
  30  -722.4718
  31  -582.3084
  32  -513.468
  33  -460.8712
  34  -708.2993
  35  -713.4792
  36  -445.2499
  37  -358.5236
  38  -205.7646
  39  -104.3102
  40  -594.3766
  41  -570.568
  42  -683.2279
  43  -380.5411
  44  -71.04956
  45  -120.4559
  46  -113.8268
  47  33.29882
  48  1.62744
  49  171.1854
  50  113.1505
  51  332.3802
  52  273.7701
  53  492.2216
  54  274.6838
  55  48.95592
  56  40.16146
  57  -260.2249
  58  -251.1391
  59  -162.7987
  60  -49.95977
  61  -125.4341
  62  -205.658
  63  -72.21931
  64  204.7941
  65  379.1729
  66  -61.54128
  67  -270.7964
  68  -505.9875
  69  -456.9669
  70  -213.5924
  71  185.2406
  72  494.3427
  73  268.5278
  74  293.7626
  75  42.57511
  76  2.153687
  77  292.9339
  78  97.9632
  79  168.5346
  80  -253.2063
  81  -84.05552
  82  22.31758
  83  188.6143
  84  203.6994
  85  80.99866
  86  57.06042
  87  29.91036
  88  -103.7871
  89  -193.0781
  90  106.6476
  91  -262.3009
  92  -251.9656
  93  -117.6912
  94  -297.2445
  95  -424.2218
  96  -381.0968
  97  -260.0723
  98  -551.3782
  99  -687.5457
 100  -539.4737
 101  4.876135
 102  241.7959
 103  197.7024
 104  1.205068
 105  -183.2775
 106  82.10116
 107  -28.99887
 108  -188.6435
 109  -365.2645
 110  -230.3556
 111  -77.09489
 112  352.859
 113  35.52916
 114  86.56566
 115  85.72359
 116  123.8672
 117  26.23436
 118  105.8632
 119  -243.86
 120  -255.9885
 121  -274.2931
 122  -519.3076
 123  -300.9344
 124  -178.0011
 125  115.6185
 126  -34.48906
 127  -306.4781
 128  -314.8397
 129  -257.2825
 130  -40.47877
 131  -301.6631
 132  -403.1583
 133  -489.7088
 134  -488.217
 135  -477.693
 136  -418.7604
 137  -487.1095
 138  -168.4077
 139  -140.5302
 140  -211.5502
 141  -66.05559
 142  -99.08495
 143  -112.5632
 144  -40.67395
 145  -396.3085
 146  -170.9536
 147  -23.70609
 148  498.3135
 149  225.9057
 150  -101.5033
 151  84.32627
 152  355.0471
 153  18.32101
 154  187.2414
 155  82.16165
 156  -22.43277
 157  -150.1201
 158  -340.5461
 159  31.6112
 160  -188.2197
 161  -508.3347
 162  -359.4991
 163  -322.4593
 164  -522.8054
 165  -437.8877
 166  -272.6292
 167  -213.4923
 168  -67.02527
 169  -59.24335
 170  -157.9841
 171  5.581749
 172  -31.22467
 173  -188.1576
 174  -185.1978
 175  181.7347
 176  482.8265
 177  -200.6373
 178  -406.4698
 179  -347.4611
 180  -36.15599
 181  -28.95366
 182  107.2799
 183  112.458
 184  -67.49654
 185  -314.4001
 186  -176.1709
 187  -299.8011
 188  -389.2556
 189  21.49605
 190  47.52289
 191  -190.0076
 192  -216.9267
 193  -110.3109
 194  -202.2983
 195  104.3688
 196  332.7222
 197  327.1803
 198  503.2407
 199  434.2747
 200  364.6996
 201  19.95854
 202  -66.58012
 203  -438.8485
 204  155.0947
 205  185.4048
 206  204.9073
 207  -137.7093
 208  -135.9525
 209  -44.45281
 210  -194.8542
 211  363.5986
 212  228.4863
 213  303.3952
 214  435.0569
 215  394.216
 216  128.1151
 217  453.7227
 218  806.5729
 219  509.6911
 220  541.8156
 221  376.3023
 222  278.6809
 223  173.1852
 224  232.225
 225  594.3591
 226  800.9036
 227  260.1506
 228  581.3416
 229  618.0638
 230  654.6187
 231  435.1859
 232  549.5328
 233  431.8116
 234  534.5621
 235  584.5887
 236  517.2297
 237  149.4266
 238  261.7781
 239  490.1563
 240  215.5891
 241  460.0669
 242  272.7948
 243  435.4118
 244  438.0731
 245  641.7927
 246  616.6927
 247  482.0094
 248  516.1738
 249  -27.81314
 250  398.6162
 251  227.3145
 252  420.1187
 253  836.1425
 254  474.4837
 255  277.5418
 256  240.3107
 257  551.8709
 258  638.7623
 259  780.2274
 260  792.3214
 261  650.9736
 262  688.4005
 263  881.278
 264  520.2913
 265  91.64724
 266  274.6094
 267  663.9526
 268  767.9476
 269  473.7832
 270  324.228
 271  428.5718
 272  243.084
 273  44.50378
 274  43.65954
 275  91.28352
 276  73.02927
 277  99.36295
 278  34.05797
 279  173.3566
 280  124.6754
 281  -263.8937
 282  -617.908
 283  -206.7993
 284  -94.11963
 285  -10.21547
 286  -204.7571
 287  -4.759029
 288  -73.17793
 289  -87.63242
 290  -293.2286
 291  -349.7868
 292  23.0214
 293  -245.1126
 294  -244.4545
 295  -30.1493
 296  -110.4729
 297  17.75601
 298  -25.61791
 299  -75.94534
 300  -279.4598
 301  -167.693
 302  -318.0955
 303  -498.5193
 304  -56.69124
 305  -193.4266
 306  42.61171
 307  89.3791
 308  146.4709
 309  -63.15724
 310  152.6611
 311  24.05323
 312  -112.5731
 313  -553.4497
 314  -689.8115
 315  -365.4243
 316  -320.8253
 317  -492.2589
 318  -608.7307
 319  -533.282
 320  -708.2767
 321  -698.1361
 322  -944.1329
 323  -1184.89
 324  -827.8245
 325  -682.337
 326  -987.8701
 327  -634.4583
 328  -579.8906
 329  -692.723
 330  -931.1132
 331  -1028.338
 332  -619.363
 333  -778.7118
 334  -859.902
 335  -1047.871
 336  -822.9428
 337  -582.7042
 338  -725.3749
 339  -509.1772
 340  -614.0737
 341  -766.7981
 342  -746.1398
 343  -449.4845
 344  -628.5511
 345  -441.5495
 346  -660.0681
 347  -648.1534
 348  -864.3896
 349  -1097.679
 350  -1192.164
 351  -805.5392
 352  -435.2562
 353  -516.6275
 354  -881.5771
 355  -514.9584
 356  -511.752
 357  -670.6481
 358  -657.7501
 359  -498.6129
 360  -482.8109
 361  -365.7333
 362  -527.5264
 363  -408.1472
 364  -406.9567
 365  -468.997
 366  -319.5038
 367  -155.2307
 368  289.0576
 369  357.23
 370  565.6623
 371  684.0328
 372  712.054
 373  1089.246
 374  1755.489
 375  2294.315
 376  2402.223
 377  2210.283
 378  1649.107
 379  907.372
 380  328.5379
 381  -69.22225
 382  -27.46257
 383  115.0344
 384  0.6292759
 385  130.2864
 386  426.9641
 387  366.5515
 388  359.6532
 389  724.0642
 390  673.5554
 391  629.6461
 392  914.4687
 393  731.0954
 394  800.0897
 395  528.2222
 396  397.5144
 397  89.58826
 398  -52.80456
 399  -23.03405
 400  59.81939
 401  -104.733
 402  -229.532
 403  -108.9856
 404  -274.4755
 405  -519.3797
 406  -343.0268
 407  -352.4362
 408  -217.3562
 409  12.63224
 410  85.24094
 411  -58.85157
 412  -261.8694
 413  -7.074968
 414  -149.3507
 415  -385.4992
 416  -157.2283
 417  -346.5089
 418  -199.8939
 419  -103.1486
 420  177.5032
 421  7.353996
 422  -389.8375
 423  -219.5183
 424  -24.112
 425  -111.9676
 426  -618.3201
 427  -604.9047
 428  -518.3286
 429  -393.8729
 430  -452.5002
 431  -445.2876
 432  -588.1982
 433  -532.746
 434  -803.3328
 435  -900.8831
 436  -700.7462
 437  -435.3466
 438  -230.0559
 439  -220.1987
 440  45.44931
 441  67.94727
 442  -193.9301
 443  75.66933
 444  -31.28527
 445  59.02167
 446  45.52239
 447  53.85203
 448  -48.14866
 449  -20.47205
 450  116.6924
 451  123.9573
 452  254.0297
 453  486.6794
 454  167.5558
 455  110.2056
 456  119.9737
 457  76.46025
 458  183.6117
 459  147.3323
 460  194.335
 461  400.5002
 462  626.8138
 463  677.4479
 464  530.581
 465  338.5863
 466  47.39152
 467  -57.73117
 468  351.7906
 469  385.9949
 470  219.754
 471  136.2809
 472  285.7208
 473  553.3248
 474  507.2829
 475  74.56086
 476  295.7155
 477  349.274
 478  176.424
 479  460.069
 480  593.7086
 481  379.9313
 482  840.0035
 483  892.745
 484  629.9568
 485  663.1006
 486  1309.832
 487  657.2272
 488  1247.275
 489  1722.647
 490  1146.116
 491  1048.702
 492  1232.25
 493  798.6729
 494  738.3646
 495  122.0918
 496  160.2887
 497  244.6115
 498  201.2242
 499  114.3288
 500  -119.2633
 501  419.3073
 502  290.6675
 503  204.9591
 504  426.7228
 505  404.9649
 506  -131.0279
 507  -133.1148
 508  12.41257
 509  51.26889
 510  -245.4697
 511  405.067
