# Input file       =  1205137482.115043-PSRB0329-2ms-sampling-dd.dat
# Candidate        =  PSR_0332+5434
# Telescope        =  AR
# Epoch_topo       =  58192.350707350037
# Epoch_bary       =  N/A
# T_sample         =  0.002
# Data Folded      =  7208960
# Data Avg         =  5.45238008485835e-10
# Data StdDev      =  8.52377873051612 
# Profile Bins     =  512
# Profile Avg      =  0.0264673638492119
# Profile StdDev   =  1011.42455880947 
# Reduced chi-sqr  =  1.998
# Prob(Noise)      <  2.86e-36   (~12.5 sigma)
# P_topo (ms)      =  714.577470476232  +/- 2.24e-05
# P'_topo (s/s)    =  -0                +/- 1.2e-11
# P''_topo (s/s^2) =  0                 +/- 5.4e-15
# P_bary (ms)      =  N/A
# P'_bary (s/s)    =  N/A
# P''_bary (s/s^2) =  N/A
# P_orb (s)        =  N/A
# asin(i)/c (s)    =  N/A
# eccentricity     =  N/A
# w (rad)          =  N/A
# T_peri           =  N/A
######################################################
   0  -1430.332
   1  -1872.298
   2  -917.9464
   3  189.2145
   4  1117.681
   5  1052.694
   6  -82.10732
   7  -440.0019
   8  -265.9884
   9  489.4184
  10  683.7044
  11  1208.568
  12  2119.249
  13  1624.133
  14  689.6545
  15  -118.2419
  16  -691.238
  17  -664.6629
  18  -1170.589
  19  -840.1028
  20  -119.3608
  21  461.0271
  22  -423.0391
  23  -993.0947
  24  -1279.979
  25  -981.6934
  26  -1184.632
  27  -433.8309
  28  869.7691
  29  1149.701
  30  1418.608
  31  638.153
  32  -123.6236
  33  -326.7074
  34  -422.9109
  35  -737.4648
  36  78.95287
  37  914.7183
  38  223.6671
  39  -341.911
  40  -1336.238
  41  -1232.343
  42  -783.4172
  43  -423.4861
  44  890.7874
  45  1594.78
  46  2144.658
  47  841.7142
  48  98.69814
  49  -24.28224
  50  -320.8691
  51  -84.33736
  52  -34.41681
  53  807.1526
  54  652.6663
  55  -281.2217
  56  -1057.682
  57  -1037.885
  58  -687.9872
  59  -993.8894
  60  -0.793416
  61  1543.726
  62  2329.814
  63  1704.207
  64  1025.406
  65  -3.111667
  66  -655.5859
  67  -795.3381
  68  -678.9865
  69  -74.40078
  70  808.182
  71  748.4461
  72  45.01948
  73  -756.7405
  74  -986.6854
  75  -868.8023
  76  -164.0718
  77  1014.367
  78  2159.474
  79  2815.244
  80  1814.786
  81  648.4249
  82  60.16537
  83  -518.8968
  84  -77.52277
  85  71.6555
  86  812.462
  87  981.8608
  88  -45.14186
  89  -943.0782
  90  -1097.3
  91  -855.1486
  92  -539.0486
  93  771.6367
  94  1618.872
  95  2280.995
  96  1770.004
  97  910.204
  98  52.84555
  99  -343.1259
 100  -357.9503
 101  -608.0013
 102  -480.6777
 103  274.9545
 104  407.0291
 105  -553.4843
 106  -1501.255
 107  -1151.042
 108  -667.262
 109  -586.7996
 110  742.8671
 111  1999.762
 112  1955.887
 113  1407.505
 114  555.2813
 115  -229.5535
 116  -333.285
 117  -495.2718
 118  -370.1382
 119  -1.143472
 120  363.6594
 121  -218.3835
 122  -670.4275
 123  -983.3368
 124  -970.998
 125  -696.8067
 126  14.51953
 127  1135.447
 128  1837.325
 129  1372.126
 130  421.6747
 131  -651.8138
 132  -1082.677
 133  -1581.783
 134  -1530.422
 135  -504.6356
 136  144.6322
 137  85.16238
 138  -747.8613
 139  -1392.429
 140  -1353.72
 141  -1129.089
 142  -440.457
 143  324.1638
 144  1260.177
 145  1689.058
 146  1222.227
 147  654.0832
 148  -206.4363
 149  -219.5155
 150  -177.2393
 151  -533.655
 152  414.5803
 153  628.8478
 154  108.1541
 155  -724.174
 156  -1571.458
 157  -1553.807
 158  -929.1338
 159  15.12761
 160  1512.406
 161  1819.501
 162  1333.364
 163  124.9563
 164  -1006.258
 165  -1151.467
 166  -882.4708
 167  -640.1802
 168  -655.3611
 169  29.46914
 170  -62.34486
 171  -889.0833
 172  -2002.57
 173  -2134.963
 174  -1465.122
 175  -823.4578
 176  -76.70789
 177  1079.454
 178  1249.971
 179  716.8404
 180  -237.9682
 181  -444.0977
 182  -371.0558
 183  -750.9246
 184  -901.2242
 185  -398.6288
 186  -289.4773
 187  -659.5896
 188  -1471.112
 189  -1563.971
 190  -1019.766
 191  -764.5658
 192  -440.7897
 193  962.8228
 194  1686.881
 195  1109.065
 196  -59.38673
 197  -282.6272
 198  -811.1288
 199  -908.3414
 200  -923.6596
 201  -873.6562
 202  -81.2579
 203  223.2496
 204  -560.6076
 205  -1363.057
 206  -1331.142
 207  -1014.919
 208  -1293.813
 209  218.827
 210  1142.959
 211  1824.802
 212  2109.895
 213  1268.186
 214  527.6803
 215  -175.4983
 216  -653.0732
 217  -1219.954
 218  -217.8973
 219  648.3082
 220  231.3849
 221  -575.4586
 222  -1435.944
 223  -1277.602
 224  -858.7269
 225  222.708
 226  1829.742
 227  2358.611
 228  1830
 229  776.577
 230  -456.9088
 231  -803.0005
 232  -965.6796
 233  -809.3222
 234  -410.2327
 235  121.6435
 236  10.45501
 237  -537.8239
 238  -1264.076
 239  -1367.601
 240  -745.741
 241  -186.5914
 242  532.563
 243  1551.589
 244  2063.11
 245  1492.763
 246  651.6254
 247  209.5148
 248  -285.5502
 249  -519.452
 250  -807.3308
 251  318.7136
 252  451.0207
 253  151.0428
 254  -915.5211
 255  -1402.791
 256  -784.7363
 257  -418.7069
 258  326.992
 259  934.4467
 260  1615.762
 261  1533.091
 262  711.5369
 263  59.05396
 264  -550.2188
 265  -487.5468
 266  -884.8795
 267  -884.1315
 268  -154.6293
 269  -18.47982
 270  -1041.619
 271  -1444.32
 272  -1570.608
 273  -1483.047
 274  -968.8807
 275  157.0112
 276  859.2294
 277  1255.497
 278  801.0031
 279  -245.6297
 280  -579.5025
 281  -746.5739
 282  -917.4705
 283  -1053.859
 284  -682.5239
 285  26.8884
 286  -733.0565
 287  -1589.616
 288  -1785.533
 289  -1878.178
 290  -1871.678
 291  -1065.154
 292  525.9479
 293  1614.172
 294  1509.762
 295  777.5541
 296  -462.293
 297  -965.1422
 298  -1088.783
 299  -1442.291
 300  -738.5025
 301  50.74066
 302  30.38815
 303  -956.3525
 304  -1565.834
 305  -2111.808
 306  -2219.773
 307  -1438.973
 308  -249.414
 309  1113.33
 310  1799.254
 311  1347.204
 312  263.1894
 313  -750.9281
 314  -836.3685
 315  -886.6522
 316  -824.8704
 317  -27.56995
 318  301.4506
 319  -480.1917
 320  -1449.403
 321  -2053.972
 322  -1606.959
 323  -1203.952
 324  -730.0907
 325  365.3763
 326  1331.68
 327  1565.738
 328  739.412
 329  -386.6976
 330  -251.9687
 331  -621.1793
 332  -1083.03
 333  -1164.675
 334  -240.5925
 335  74.98502
 336  -174.3845
 337  -731.0385
 338  -814.5443
 339  -1141.896
 340  -746.6735
 341  74.53201
 342  1493.864
 343  1821.483
 344  1496.149
 345  34.31645
 346  -791.1196
 347  -497.5053
 348  -761.8655
 349  -601.7892
 350  364.8643
 351  644.2899
 352  167.0936
 353  -894.1979
 354  -1534.714
 355  -1440.769
 356  -947.1795
 357  -351.505
 358  1034.452
 359  2358.58
 360  2179.178
 361  1188.976
 362  582.3046
 363  -115.8722
 364  -242.5442
 365  -564.1049
 366  -360.3918
 367  -62.15195
 368  487.8003
 369  -75.8681
 370  -1163.896
 371  -1122.099
 372  -1076.761
 373  -1383.32
 374  -105.0552
 375  1163.888
 376  2250.259
 377  1792.772
 378  444.608
 379  73.71902
 380  -325.577
 381  -299.2225
 382  -376.3264
 383  127.5754
 384  791.9016
 385  270.6468
 386  -689.2034
 387  -1178.672
 388  -959.5272
 389  -788.0349
 390  -157.6074
 391  1145.938
 392  1735.007
 393  1497.215
 394  938.0121
 395  231.6937
 396  50.64636
 397  -321.4869
 398  -668.0198
 399  -1063.871
 400  -77.22948
 401  147.8432
 402  -875.2218
 403  -1319.764
 404  -1111.694
 405  -1008.27
 406  -387.9032
 407  217.7439
 408  1108.242
 409  1695.9
 410  1128.319
 411  164.7968
 412  -468.8245
 413  -594.2833
 414  -717.7065
 415  -816.3627
 416  -416.4697
 417  376.3983
 418  -49.00557
 419  -1180.691
 420  -1586.071
 421  -1697.546
 422  -962.5295
 423  -507.48
 424  1087.65
 425  2136.302
 426  2347.943
 427  1460.276
 428  65.66634
 429  -238.2144
 430  -680.5319
 431  -759.4988
 432  -331.905
 433  588.8856
 434  842.0529
 435  439.9652
 436  -582.3057
 437  -1650.671
 438  -1339.995
 439  -999.7786
 440  -320.5789
 441  1259.287
 442  2060.898
 443  2102.817
 444  1037.497
 445  418.8838
 446  517.1086
 447  330.3789
 448  -147.6156
 449  86.48515
 450  690.6177
 451  964.6695
 452  93.60065
 453  -147.5332
 454  -349.5845
 455  -558.8997
 456  -326.2761
 457  1049.863
 458  2151.125
 459  2665.737
 460  1764.477
 461  982.8755
 462  405.39
 463  349.0917
 464  169.9359
 465  1097.417
 466  2061.817
 467  2099.935
 468  948.7314
 469  -56.57323
 470  -54.03417
 471  637.5559
 472  899.522
 473  2284.692
 474  2158.176
 475  2153.736
 476  1614.198
 477  1057.002
 478  194.3626
 479  417.121
 480  666.8975
 481  -64.15635
 482  127.1529
 483  829.1639
 484  969.1196
 485  90.25628
 486  -1069.946
 487  -799.4354
 488  -653.6316
 489  250.7868
 490  813.4597
 491  2130.142
 492  1982.725
 493  1214.65
 494  305.9287
 495  -162.3005
 496  -410.1842
 497  -378.1063
 498  -66.74513
 499  529.9222
 500  783.5093
 501  -100.3825
 502  -1224.362
 503  -1481.633
 504  -1839.657
 505  -973.1364
 506  137.151
 507  1454.616
 508  2141.358
 509  2172.411
 510  813.2358
 511  -416.8972
