# Input file       =  1205253810.115375_cleaned.dat
# Candidate        =  PSR_0332+5434
# Telescope        =  AR
# Epoch_topo       =  58193.697096242766
# Epoch_bary       =  N/A
# T_sample         =  0.002
# Data Folded      =  7340032
# Data Avg         =  0.0313314512344992
# Data StdDev      =  2.75555069676922 
# Profile Bins     =  512
# Profile Avg      =  449.117968439615 
# Profile StdDev   =  329.930451814292 
# Reduced chi-sqr  =  1.185
# Prob(Noise)      <  0.00249   (~2.8 sigma)
# P_topo (ms)      =  714.577364406974  +/- 0.00026
# P'_topo (s/s)    =  -0                +/- 1.37e-10
# P''_topo (s/s^2) =  0                 +/- 6.05e-14
# P_bary (ms)      =  N/A
# P'_bary (s/s)    =  N/A
# P''_bary (s/s^2) =  N/A
# P_orb (s)        =  N/A
# asin(i)/c (s)    =  N/A
# eccentricity     =  N/A
# w (rad)          =  N/A
# T_peri           =  N/A
######################################################
   0  811.3784
   1  573.6635
   2  262.8989
   3  323.4609
   4  334.0207
   5  582.1739
   6  458.0881
   7  456.2246
   8  613.5314
   9  535.1552
  10  509.6187
  11  544.825
  12  492.188
  13  87.09829
  14  -24.10043
  15  292.762
  16  1163.023
  17  1095.049
  18  629.0532
  19  486.7928
  20  295.3919
  21  255.3785
  22  805.327
  23  716.1949
  24  496.4181
  25  614.673
  26  691.7338
  27  814.7335
  28  485.2716
  29  494.3545
  30  726.9902
  31  497.028
  32  527.4736
  33  500.9712
  34  337.8971
  35  636.2827
  36  1043.557
  37  787.7165
  38  776.022
  39  467.5429
  40  183.0134
  41  149.11
  42  51.98984
  43  315.8984
  44  24.35129
  45  404.6202
  46  407.9164
  47  270.0327
  48  422.964
  49  653.24
  50  294.8336
  51  258.0776
  52  447.6808
  53  304.2282
  54  309.4428
  55  185.0741
  56  290.3759
  57  561.1074
  58  574.1171
  59  446.2703
  60  587.9854
  61  473.2843
  62  19.20309
  63  197.3241
  64  590.4886
  65  773.8102
  66  598.3353
  67  296.4772
  68  432.837
  69  629.1904
  70  737.4666
  71  581.6373
  72  580.6418
  73  515.8224
  74  525.3944
  75  516.6432
  76  140.5985
  77  289.659
  78  371.7926
  79  518.3027
  80  112.9836
  81  -50.57287
  82  189.4048
  83  280.9952
  84  407.4581
  85  458.3247
  86  223.5557
  87  219.5035
  88  739.1926
  89  611.652
  90  477.755
  91  448.7779
  92  313.3582
  93  44.10368
  94  336.1563
  95  433.8256
  96  688.9896
  97  671.4818
  98  478.938
  99  399.6052
 100  392.0056
 101  735.4374
 102  750.8374
 103  798.554
 104  559.8355
 105  313.5853
 106  134.0101
 107  -127.4442
 108  254.6409
 109  619.5304
 110  704.6533
 111  291.4514
 112  105.5839
 113  392.0805
 114  421.9504
 115  414.7521
 116  -50.13531
 117  101.1383
 118  186.3582
 119  562.2284
 120  693.6824
 121  396.002
 122  302.699
 123  532.5945
 124  527.4481
 125  234.1202
 126  90.30181
 127  363.4481
 128  207.6729
 129  -96.17036
 130  162.2315
 131  714.2474
 132  483.4537
 133  336.9042
 134  347.8248
 135  526.4769
 136  483.1595
 137  463.285
 138  478.6885
 139  469.9656
 140  183.3705
 141  74.15739
 142  -137.905
 143  191.6619
 144  514.9198
 145  856.1228
 146  267.9563
 147  667.2394
 148  622.45
 149  239.7867
 150  157.5383
 151  540.783
 152  520.5524
 153  485.9843
 154  564.6894
 155  312.4558
 156  314.1324
 157  353.1089
 158  230.1803
 159  672.0855
 160  565.881
 161  116.6459
 162  113.4032
 163  486.1184
 164  378.4028
 165  747.5829
 166  671.9113
 167  441.814
 168  66.34348
 169  234.8594
 170  649.1277
 171  867.818
 172  313.6835
 173  501.6255
 174  713.503
 175  810.5546
 176  569.5737
 177  539.1052
 178  481.8722
 179  423.6975
 180  273.4905
 181  477.7083
 182  392.6808
 183  134.2767
 184  118.3067
 185  202.608
 186  528.7483
 187  603.6885
 188  732.6885
 189  640.6928
 190  570.1857
 191  533.6783
 192  605.1749
 193  532.8788
 194  197.2254
 195  614.6859
 196  464.0801
 197  294.8254
 198  681.7523
 199  424.167
 200  260.3342
 201  211.4933
 202  314.2294
 203  466.6305
 204  612.0475
 205  320.2218
 206  376.7667
 207  301.5123
 208  404.815
 209  560.5925
 210  228.7666
 211  516.857
 212  342.2806
 213  421.4371
 214  326.8604
 215  398.5452
 216  532.8004
 217  340.4095
 218  261.0862
 219  282.0623
 220  542.2618
 221  305.0609
 222  324.9552
 223  469.4047
 224  398.0374
 225  208.5539
 226  211.1395
 227  -191.0254
 228  145.64
 229  195.913
 230  172.3578
 231  249.5115
 232  244.1622
 233  381.9069
 234  439.3964
 235  444.4747
 236  390.4795
 237  556.3938
 238  398.6845
 239  508.3036
 240  552.5659
 241  601.4177
 242  460.0429
 243  600.6259
 244  490.0962
 245  269.4299
 246  412.0773
 247  325.8816
 248  136.193
 249  707.4693
 250  741.1556
 251  328.1189
 252  349.3926
 253  361.5339
 254  635.4036
 255  309.8264
 256  426.1873
 257  328.3222
 258  193.132
 259  39.52316
 260  375.1127
 261  379.5792
 262  734.8899
 263  835.1394
 264  248.4765
 265  405.9877
 266  441.1125
 267  569.0397
 268  492.4591
 269  466.2968
 270  585.6106
 271  518.1733
 272  508.6832
 273  581.9197
 274  728.6853
 275  668.4626
 276  608.8839
 277  441.0082
 278  584.3762
 279  409.3641
 280  462.441
 281  424.2338
 282  606.0297
 283  872.6849
 284  740.7466
 285  672.1929
 286  551.9803
 287  204.3392
 288  246.5595
 289  408.9301
 290  629.3661
 291  618.0997
 292  421.864
 293  241.8175
 294  389.4377
 295  452.5634
 296  619.3883
 297  515.9114
 298  473.3256
 299  534.5243
 300  994.6846
 301  1668.732
 302  1954.906
 303  2053.492
 304  2333.74
 305  1862.253
 306  1059.123
 307  978.3655
 308  741.4905
 309  613.2646
 310  602.1797
 311  389.352
 312  390.8808
 313  575.6266
 314  657.593
 315  443.296
 316  483.0216
 317  606.2721
 318  312.167
 319  337.394
 320  413.0738
 321  269.6678
 322  167.202
 323  199.3876
 324  96.59818
 325  330.9873
 326  461.3925
 327  388.5827
 328  593.6689
 329  273.0018
 330  301.7755
 331  496.0686
 332  242.7151
 333  477.8037
 334  500.3843
 335  281.4187
 336  180.9953
 337  318.8112
 338  419.4381
 339  519.2333
 340  552.789
 341  593.0207
 342  525.5242
 343  572.2834
 344  372.998
 345  562.0131
 346  591.5764
 347  567.4419
 348  640.7769
 349  572.697
 350  751.9993
 351  751.2815
 352  799.7736
 353  728.2964
 354  610.3898
 355  581.5063
 356  957.1209
 357  706.8547
 358  447.7971
 359  608.4855
 360  383.6047
 361  303.6003
 362  89.27162
 363  382.7136
 364  712.2075
 365  587.6326
 366  309.4421
 367  609.8811
 368  452.926
 369  348.845
 370  162.6447
 371  563.3232
 372  313.4477
 373  299.6502
 374  532.6562
 375  418.7846
 376  567.9339
 377  599.5446
 378  764.6308
 379  745.3577
 380  560.1635
 381  640.4279
 382  678.7299
 383  570.1306
 384  116.5364
 385  302.2168
 386  411.0703
 387  614.3787
 388  95.10278
 389  166.4176
 390  341.8228
 391  737.8525
 392  738.4904
 393  153.8504
 394  421.0146
 395  443.9753
 396  347.0543
 397  547.2584
 398  441.21
 399  34.59122
 400  93.86169
 401  470.0736
 402  167.407
 403  254.0869
 404  13.30932
 405  281.0338
 406  516.9223
 407  474.7824
 408  484.5996
 409  530.2791
 410  322.3169
 411  236.0251
 412  311.4434
 413  516.6869
 414  336.6146
 415  180.6214
 416  33.3949
 417  274.8079
 418  403.9448
 419  521.9547
 420  31.60104
 421  110.6956
 422  355.6162
 423  534.334
 424  662.482
 425  262.4042
 426  518.6415
 427  451.4489
 428  324.6325
 429  688.6192
 430  499.9101
 431  289.581
 432  349.7959
 433  1141.849
 434  759.5126
 435  360.9261
 436  316.8159
 437  342.3904
 438  496.3797
 439  795.6377
 440  666.6871
 441  515.1346
 442  480.7969
 443  536.1111
 444  350.4917
 445  -112.8796
 446  172.6637
 447  727.512
 448  747.0453
 449  429.6565
 450  425.2412
 451  395.1143
 452  312.4106
 453  518.6799
 454  641.6954
 455  601.7175
 456  342.1956
 457  334.3589
 458  147.3826
 459  635.0524
 460  551.0687
 461  630.8881
 462  535.6902
 463  341.1649
 464  347.6817
 465  443.1821
 466  505.6075
 467  467.3932
 468  306.8806
 469  124.7456
 470  297.5758
 471  310.9382
 472  619.6765
 473  367.1261
 474  328.2314
 475  -2.69816
 476  441.6331
 477  527.0411
 478  225.1092
 479  380.0529
 480  620.8337
 481  627.7108
 482  326.2189
 483  339.306
 484  521.4966
 485  353.5262
 486  146.1761
 487  -110.7454
 488  6.565724
 489  201.4074
 490  373.3655
 491  579.2218
 492  353.0884
 493  463.4233
 494  255.9805
 495  414.4046
 496  102.0161
 497  162.7058
 498  211.1104
 499  144.8724
 500  626.9562
 501  622.7698
 502  449.7527
 503  308.5827
 504  750.6941
 505  248.9509
 506  53.47875
 507  567.8661
 508  534.6136
 509  430.2451
 510  563.6855
 511  314.0977
