# Input file       =  1205598593.103592_cleaned.dat
# Candidate        =  PSR_0332+5434
# Telescope        =  AR
# Epoch_topo       =  58197.687640087868
# Epoch_bary       =  N/A
# T_sample         =  0.002
# Data Folded      =  7340032
# Data Avg         =  0.0315738313771276
# Data StdDev      =  1.00008881790958 
# Profile Bins     =  512
# Profile Avg      =  452.641307355746 
# Profile StdDev   =  119.743670814765 
# Reduced chi-sqr  =  1.111
# Prob(Noise)      <  0.0416   (~1.7 sigma)
# P_topo (ms)      =  714.575794475945  +/- 0.000252
# P'_topo (s/s)    =  -0                +/- 1.33e-10
# P''_topo (s/s^2) =  0                 +/- 5.87e-14
# P_bary (ms)      =  N/A
# P'_bary (s/s)    =  N/A
# P''_bary (s/s^2) =  N/A
# P_orb (s)        =  N/A
# asin(i)/c (s)    =  N/A
# eccentricity     =  N/A
# w (rad)          =  N/A
# T_peri           =  N/A
######################################################
   0  841.0134
   1  884.6815
   2  719.5132
   3  575.0229
   4  437.2375
   5  457.1611
   6  497.5339
   7  450.0865
   8  436.3056
   9  460.9465
  10  535.8587
  11  551.353
  12  463.798
  13  442.7178
  14  480.0062
  15  391.9332
  16  356.6947
  17  331.4771
  18  273.9517
  19  379.7192
  20  424.8407
  21  460.4673
  22  390.6236
  23  270.5985
  24  261.4549
  25  361.9773
  26  270.1473
  27  364.4932
  28  449.6679
  29  438.8053
  30  383.7857
  31  349.7135
  32  474.6607
  33  385.19
  34  409.9584
  35  441.8674
  36  435.0755
  37  468.016
  38  474.0778
  39  443.8862
  40  445.6328
  41  441.5025
  42  578.7433
  43  518.28
  44  452.1106
  45  526.6653
  46  518.5531
  47  460.9902
  48  397.3975
  49  448.3573
  50  547.4935
  51  420.999
  52  338.4547
  53  394.3361
  54  404.5331
  55  450.725
  56  413.02
  57  366.6583
  58  327.9487
  59  374.7217
  60  396.2338
  61  505.9332
  62  514.5555
  63  401.4298
  64  488.1801
  65  421.1245
  66  410.0689
  67  425.5109
  68  476.859
  69  578.4879
  70  406.6295
  71  500.3103
  72  601.9557
  73  444.7746
  74  408.8161
  75  455.0602
  76  378.8016
  77  490.7009
  78  327.0183
  79  316.471
  80  403.6854
  81  480.1029
  82  531.1724
  83  405.3538
  84  457.3901
  85  463.381
  86  316.5032
  87  452.303
  88  357.0572
  89  400.5963
  90  469.8484
  91  460.1299
  92  433.6065
  93  417.3581
  94  368.2751
  95  389.89
  96  465.1863
  97  501.6631
  98  374.9314
  99  576.6266
 100  472.1279
 101  261.9537
 102  332.8062
 103  492.4734
 104  392.1123
 105  437.6807
 106  437.5682
 107  487.5948
 108  374.87
 109  275.7201
 110  379.8726
 111  419.9251
 112  450.3256
 113  456.5473
 114  388.8345
 115  382.4901
 116  366.0198
 117  227.9796
 118  347.1849
 119  493.3134
 120  590.2977
 121  438.9616
 122  388.8905
 123  364.5236
 124  414.3812
 125  462.7814
 126  444.7909
 127  346.9807
 128  332.3321
 129  352.8087
 130  327.8787
 131  422.1452
 132  490.864
 133  440.6013
 134  471.15
 135  438.5478
 136  415.8181
 137  324.4754
 138  461.3992
 139  546.9446
 140  550.5873
 141  534.5402
 142  487.0792
 143  458.5561
 144  418.0039
 145  344.6914
 146  300.2212
 147  333.2611
 148  356.0936
 149  357.8505
 150  296.4069
 151  263.4139
 152  467.5893
 153  431.2513
 154  410.7609
 155  466.8969
 156  325.3786
 157  367.2726
 158  363.6334
 159  430.4152
 160  519.2023
 161  522.5009
 162  555.7932
 163  496.3869
 164  537.8399
 165  580.7971
 166  507.3655
 167  489.5631
 168  505.3434
 169  610.0486
 170  535.0666
 171  520.7199
 172  585.5581
 173  666.7021
 174  530.8047
 175  520.5527
 176  474.3459
 177  354.2427
 178  380.515
 179  459.0702
 180  388.5556
 181  452.3269
 182  481.6876
 183  472.9978
 184  447.1822
 185  553.702
 186  413.9574
 187  471.0925
 188  495.6843
 189  362.0765
 190  450.3926
 191  585.5654
 192  566.0555
 193  464.3634
 194  418.8508
 195  478.765
 196  484.0269
 197  422.8262
 198  462.5901
 199  505.2166
 200  596.6459
 201  485.5101
 202  533.3698
 203  493.7199
 204  400.2774
 205  456.4087
 206  449.3645
 207  477.3127
 208  524.6463
 209  397.3263
 210  392.0911
 211  546.1584
 212  456.1716
 213  348.716
 214  440.3477
 215  496.0776
 216  443.2711
 217  426.7925
 218  427.6419
 219  415.1281
 220  558.8427
 221  517.2601
 222  478.15
 223  541.1479
 224  432.9312
 225  445.8483
 226  515.3548
 227  471.6849
 228  384.2555
 229  443.4362
 230  437.8269
 231  405.5762
 232  395.2739
 233  460.2731
 234  476.1078
 235  428.0424
 236  372.8008
 237  432.844
 238  369.3632
 239  406.7242
 240  512.8681
 241  488.7952
 242  366.4592
 243  427.8614
 244  387.9836
 245  372.5447
 246  385.8884
 247  419.1086
 248  404.7455
 249  349.5705
 250  412.177
 251  494.2535
 252  407.4356
 253  394.5988
 254  378.8923
 255  446.4544
 256  460.0648
 257  457.769
 258  423.1468
 259  533.438
 260  511.5904
 261  429.6563
 262  377.1064
 263  431.3549
 264  590.5036
 265  502.9042
 266  334.8508
 267  289.6907
 268  406.0356
 269  463.2144
 270  319.125
 271  391.878
 272  502.6984
 273  521.097
 274  501.155
 275  527.7859
 276  449.9845
 277  478.586
 278  534.7266
 279  549.5142
 280  662.0365
 281  696.4967
 282  587.0255
 283  456.4159
 284  596.3712
 285  490.8354
 286  461.4697
 287  578.3021
 288  596.9985
 289  534.05
 290  460.2259
 291  507.0812
 292  477.4238
 293  484.9744
 294  608.598
 295  540.0687
 296  511.3347
 297  503.5127
 298  533.934
 299  447.9868
 300  489.4585
 301  519.4125
 302  513.3581
 303  547.4355
 304  553.1874
 305  480.9018
 306  478.3477
 307  460.231
 308  430.2933
 309  499.1018
 310  460.2239
 311  424.553
 312  388.0399
 313  273.5275
 314  255.0695
 315  248.5413
 316  425.0516
 317  417.647
 318  440.413
 319  414.5166
 320  397.2303
 321  468.9753
 322  402.0361
 323  352.4902
 324  426.6804
 325  424.198
 326  389.9927
 327  293.2051
 328  241.5976
 329  371.251
 330  462.4856
 331  490.5417
 332  379.8029
 333  270.1896
 334  425.5407
 335  354.0038
 336  259.4367
 337  417.1453
 338  527.1138
 339  591.2467
 340  538.7973
 341  562.0309
 342  582.3634
 343  481.4538
 344  414.4573
 345  385.1076
 346  453.7275
 347  355.1023
 348  418.1385
 349  441.2858
 350  457.3984
 351  468.4326
 352  432.3684
 353  372.7049
 354  407.1418
 355  363.0134
 356  387.2787
 357  416.1609
 358  425.8308
 359  309.5313
 360  375.3488
 361  403.8163
 362  280.2852
 363  213.515
 364  252.0211
 365  359.6349
 366  472.4645
 367  472.3305
 368  406.4704
 369  407.7893
 370  573.1225
 371  619.9816
 372  567.8837
 373  478.312
 374  444.6064
 375  430.912
 376  513.3362
 377  551.6209
 378  585.3993
 379  643.3972
 380  647.3894
 381  513.8786
 382  460.5176
 383  620.189
 384  504.6818
 385  411.7462
 386  432.7752
 387  512.1298
 388  534.1581
 389  394.9141
 390  361.4331
 391  415.6612
 392  519.3351
 393  545.8611
 394  568.798
 395  482.516
 396  442.9543
 397  428.1967
 398  402.0013
 399  459.9029
 400  478.4815
 401  482.2432
 402  380.3633
 403  372.9551
 404  445.8379
 405  427.5116
 406  423.7474
 407  546.8178
 408  496.789
 409  368.3107
 410  395.3057
 411  449.7394
 412  451.1658
 413  499.4105
 414  416.5757
 415  479.6541
 416  553.1155
 417  559.2145
 418  425.1205
 419  331.8528
 420  460.3195
 421  569.8954
 422  458.0054
 423  477.4396
 424  388.9017
 425  530.7962
 426  488.0679
 427  487.9475
 428  484.9263
 429  437.8204
 430  492.745
 431  538.4073
 432  556.2354
 433  434.2599
 434  369.8562
 435  351.6234
 436  527.6806
 437  444.6729
 438  407.1734
 439  521.6444
 440  567.5192
 441  405.983
 442  451.4724
 443  558.8859
 444  495.5567
 445  317.7131
 446  313.1509
 447  265.6578
 448  351.5211
 449  339.8114
 450  335.4164
 451  294.3835
 452  276.7118
 453  353.5762
 454  420.9578
 455  401.2793
 456  476.752
 457  401.9643
 458  371.7602
 459  427.2594
 460  407.483
 461  473.9532
 462  597.0879
 463  457.6359
 464  323.8213
 465  441.8813
 466  506.7994
 467  418.8702
 468  564.4576
 469  570.1756
 470  557.2574
 471  540.9741
 472  349.5042
 473  353.51
 474  448.5073
 475  388.6002
 476  363.2134
 477  479.3391
 478  490.2374
 479  465.9144
 480  414.7017
 481  397.1286
 482  313.754
 483  378.8208
 484  421.3258
 485  515.8099
 486  514.6006
 487  542.4073
 488  453.9917
 489  402.1879
 490  358.52
 491  433.3134
 492  551.4
 493  552.5959
 494  598.2648
 495  543.633
 496  619.3002
 497  584.7794
 498  599.697
 499  534.3923
 500  497.4571
 501  418.7336
 502  511.6303
 503  618.9785
 504  636.4778
 505  580.4613
 506  545.1545
 507  582.9253
 508  634.967
 509  737.9512
 510  870.2326
 511  870.4724
