# Input file       =  1205167077.107159_cleaned.dat
# Candidate        =  PSR_0332+5434
# Telescope        =  AR
# Epoch_topo       =  58192.693241981004
# Epoch_bary       =  N/A
# T_sample         =  0.002
# Data Folded      =  7340032
# Data Avg         =  0.0101858316653304
# Data StdDev      =  1.00003992992974 
# Profile Bins     =  512
# Profile Avg      =  145.997105103388 
# Profile StdDev   =  119.737817308496 
# Reduced chi-sqr  =  1.418
# Prob(Noise)      <  1.32e-09   (~6.0 sigma)
# P_topo (ms)      =  714.577701455384  +/- 0.000287
# P'_topo (s/s)    =  -0                +/- 1.52e-10
# P''_topo (s/s^2) =  0                 +/- 6.7e-14
# P_bary (ms)      =  N/A
# P'_bary (s/s)    =  N/A
# P''_bary (s/s^2) =  N/A
# P_orb (s)        =  N/A
# asin(i)/c (s)    =  N/A
# eccentricity     =  N/A
# w (rad)          =  N/A
# T_peri           =  N/A
######################################################
   0  23.71097
   1  68.43929
   2  35.29072
   3  148.1712
   4  95.19304
   5  193.51
   6  175.7839
   7  209.2109
   8  186.1448
   9  261.008
  10  253.2964
  11  -9.290374
  12  37.60579
  13  174.1152
  14  195.4478
  15  112.7491
  16  73.47325
  17  109.2174
  18  151.4354
  19  44.07457
  20  133.4014
  21  166.1724
  22  143.1182
  23  21.55451
  24  112.9607
  25  124.2651
  26  172.5203
  27  75.99643
  28  66.96957
  29  230.3273
  30  322.666
  31  240.9761
  32  154.7569
  33  212.0519
  34  210.5505
  35  217.2335
  36  288.2444
  37  187.3405
  38  109.3686
  39  174.5533
  40  80.32008
  41  -31.8895
  42  -13.40713
  43  -63.92534
  44  83.51204
  45  194.0134
  46  138.8903
  47  -36.63058
  48  22.70842
  49  77.43775
  50  90.45965
  51  173.1428
  52  132.028
  53  123.3447
  54  75.09261
  55  110.7137
  56  68.76238
  57  187.5656
  58  14.76296
  59  -29.04836
  60  2.81945
  61  97.79292
  62  52.03919
  63  68.8195
  64  165.3434
  65  83.69421
  66  -0.9720766
  67  -23.44508
  68  25.93973
  69  58.82742
  70  182.8344
  71  87.91795
  72  29.4754
  73  13.45706
  74  100.5802
  75  248.0582
  76  83.10502
  77  176.4566
  78  111.9349
  79  173.7442
  80  180.8881
  81  181.7859
  82  223.5019
  83  -2.812429
  84  150.52
  85  184.5743
  86  114.0401
  87  116.572
  88  118.3527
  89  101.6019
  90  23.04389
  91  72.15948
  92  229.2451
  93  213.9314
  94  42.62265
  95  162.9696
  96  176.4953
  97  228.148
  98  171.371
  99  -20.17364
 100  56.24763
 101  247.3269
 102  230.8136
 103  230.9863
 104  105.9602
 105  152.3628
 106  170.8303
 107  66.34808
 108  77.4536
 109  95.11749
 110  137.9605
 111  176.2352
 112  128.1193
 113  71.68086
 114  140.1092
 115  147.8133
 116  160.6143
 117  111.5587
 118  125.5368
 119  118.0165
 120  146.9838
 121  66.0187
 122  34.06337
 123  133.1874
 124  75.20689
 125  80.18208
 126  165.5641
 127  176.9623
 128  302.789
 129  193.1429
 130  171.2361
 131  85.65495
 132  143.8497
 133  103.3093
 134  200.8912
 135  235.4528
 136  154.7513
 137  186.6798
 138  180.929
 139  61.30015
 140  -14.99828
 141  72.34541
 142  187.9476
 143  126.8761
 144  57.92208
 145  163.1624
 146  241.439
 147  205.9266
 148  140.8704
 149  156.9916
 150  141.555
 151  137.1186
 152  61.19809
 153  137.8472
 154  148.3366
 155  175.2702
 156  115.7695
 157  117.544
 158  254.9047
 159  139.6603
 160  100.2469
 161  51.14376
 162  85.68894
 163  250.4869
 164  244.1724
 165  134.7943
 166  100.361
 167  13.4868
 168  128.6738
 169  9.943515
 170  163.0587
 171  108.5817
 172  30.16427
 173  138.5347
 174  114.5231
 175  187.1774
 176  168.8013
 177  58.45353
 178  34.19636
 179  229.3812
 180  361.8134
 181  210.6651
 182  100.9245
 183  123.2363
 184  103.0573
 185  28.12299
 186  40.12436
 187  137.0518
 188  115.994
 189  -2.19496
 190  22.89153
 191  94.94244
 192  168.777
 193  149.7389
 194  178.9535
 195  214.1266
 196  238.4167
 197  209.1653
 198  118.8726
 199  -20.96973
 200  58.23804
 201  147.246
 202  191.2394
 203  160.7322
 204  243.5909
 205  289.8224
 206  205.0565
 207  119.0333
 208  69.32579
 209  192.3102
 210  81.80019
 211  -46.26801
 212  -19.56108
 213  -42.10062
 214  47.86135
 215  157.9533
 216  72.7626
 217  157.6317
 218  229.1119
 219  163.0969
 220  14.79946
 221  121.214
 222  141.16
 223  145.4935
 224  64.41595
 225  0.5549427
 226  128.4334
 227  136.7276
 228  238.973
 229  158.2225
 230  165.1782
 231  252.2331
 232  204.1898
 233  -14.86272
 234  -36.87601
 235  198.8443
 236  302.4256
 237  130.3329
 238  110.5474
 239  142.8734
 240  224.5104
 241  318.8257
 242  328.4518
 243  155.3377
 244  143.1456
 245  103.0582
 246  270.9203
 247  258.961
 248  224.6581
 249  210.3013
 250  93.32948
 251  124.0943
 252  252.7842
 253  229.3683
 254  277.652
 255  195.8171
 256  73.4494
 257  -8.251443
 258  -97.62659
 259  28.74043
 260  97.02831
 261  187.7093
 262  165.9611
 263  92.71178
 264  150.6418
 265  223.1967
 266  188.0774
 267  102.3122
 268  123.9405
 269  220.3137
 270  282.5244
 271  199.376
 272  160.4673
 273  150.5476
 274  133.8376
 275  10.97822
 276  48.00389
 277  138.0464
 278  128.1919
 279  249.3315
 280  225.4157
 281  197.9151
 282  131.2588
 283  135.1429
 284  228.1532
 285  164.8522
 286  22.26746
 287  124.143
 288  149.4066
 289  169.0675
 290  53.2271
 291  71.66785
 292  54.0556
 293  136.2871
 294  161.017
 295  182.528
 296  106.1806
 297  218.0994
 298  150.4317
 299  167.3155
 300  83.71944
 301  58.63676
 302  218.3298
 303  157.7961
 304  206.2265
 305  364.9001
 306  276.471
 307  73.01447
 308  40.84528
 309  132.6923
 310  224.1059
 311  260.7042
 312  219.0193
 313  228.7059
 314  147.8407
 315  52.63264
 316  105.8476
 317  125.7574
 318  25.35707
 319  128.6042
 320  216.9317
 321  243.4313
 322  195.561
 323  250.6641
 324  259.4487
 325  244.165
 326  164.1043
 327  213.2167
 328  158.8566
 329  126.7569
 330  131.4288
 331  136.5113
 332  245.0551
 333  203.7147
 334  133.1022
 335  178.9448
 336  224.7766
 337  186.9536
 338  111.4639
 339  53.00911
 340  -26.35829
 341  56.84365
 342  109.4087
 343  -10.61545
 344  52.39537
 345  -6.016135
 346  -7.472533
 347  78.39257
 348  87.47791
 349  23.92562
 350  -1.239847
 351  10.48943
 352  126.0156
 353  100.6048
 354  104.8639
 355  210.3211
 356  189.163
 357  220.8629
 358  242.8284
 359  205.7661
 360  238.3605
 361  263.4614
 362  236.1019
 363  179.5536
 364  147.0349
 365  128.658
 366  43.78266
 367  165.0496
 368  165.7804
 369  193.4383
 370  132.6367
 371  107.5149
 372  103.6834
 373  144.7278
 374  54.08459
 375  89.08817
 376  111.7467
 377  186.7501
 378  142.6769
 379  41.02719
 380  251.9803
 381  215.9431
 382  151.1258
 383  109.0134
 384  94.88399
 385  84.39591
 386  5.135064
 387  88.77885
 388  68.79601
 389  23.53411
 390  194.8863
 391  307.8601
 392  145.773
 393  125.5121
 394  173.5825
 395  184.197
 396  132.0735
 397  254.7094
 398  357.8813
 399  398.2114
 400  302.0874
 401  167.1149
 402  138.7038
 403  169.406
 404  162.9305
 405  225.7202
 406  225.0548
 407  267.4185
 408  75.50301
 409  99.64246
 410  129.4692
 411  143.6458
 412  166.1914
 413  168.0849
 414  204.9895
 415  160.0359
 416  237.2894
 417  182.2777
 418  141.3349
 419  368.7055
 420  281.4637
 421  80.97738
 422  170.7118
 423  281.6944
 424  212.6426
 425  240.7864
 426  239.6783
 427  126.4811
 428  176.6304
 429  239.2654
 430  215.8837
 431  121.204
 432  -8.746176
 433  86.90428
 434  195.6432
 435  228.2994
 436  24.92164
 437  10.32647
 438  39.61644
 439  -41.8871
 440  19.15652
 441  161.3082
 442  59.39311
 443  40.35344
 444  51.43083
 445  108.2547
 446  176.7161
 447  234.4231
 448  154.2644
 449  170.6502
 450  -4.391157
 451  37.51862
 452  133.7948
 453  178.6009
 454  256.3005
 455  223.308
 456  232.8416
 457  193.592
 458  214.9339
 459  325.598
 460  241.6492
 461  146.55
 462  143.3278
 463  168.3986
 464  223.6312
 465  104.2662
 466  149.7564
 467  230.9626
 468  238.7117
 469  189.8295
 470  -8.901394
 471  49.40005
 472  59.84227
 473  233.5593
 474  281.0831
 475  290.1107
 476  229.4384
 477  227.5127
 478  235.8215
 479  242.9179
 480  341.6696
 481  399.91
 482  550.8525
 483  727.9736
 484  794.5276
 485  805.0945
 486  740.2044
 487  467.8199
 488  350.5048
 489  177.3069
 490  156.923
 491  114.5859
 492  80.98654
 493  100.7958
 494  211.751
 495  150.2113
 496  89.66475
 497  114.4225
 498  168.9022
 499  121.4886
 500  4.638046
 501  44.65755
 502  71.66101
 503  38.24322
 504  33.03426
 505  -4.415506
 506  44.87961
 507  67.46565
 508  136.8492
 509  78.01965
 510  39.1174
 511  -57.79908
