# Input file       =  1205942611.123983_cleaned.dat
# Candidate        =  PSR_0332+5434
# Telescope        =  AR
# Epoch_topo       =  58201.669330138691
# Epoch_bary       =  N/A
# T_sample         =  0.002
# Data Folded      =  7340032
# Data Avg         =  0.0313065080543868
# Data StdDev      =  1.00006982809393 
# Profile Bins     =  512
# Profile Avg      =  448.847179302452 
# Profile StdDev   =  119.741397106476 
# Reduced chi-sqr  =  1.359
# Prob(Noise)      <  1.04e-07   (~5.2 sigma)
# P_topo (ms)      =  714.573949231766  +/- 0.000269
# P'_topo (s/s)    =  -0                +/- 1.42e-10
# P''_topo (s/s^2) =  0                 +/- 6.27e-14
# P_bary (ms)      =  N/A
# P'_bary (s/s)    =  N/A
# P''_bary (s/s^2) =  N/A
# P_orb (s)        =  N/A
# asin(i)/c (s)    =  N/A
# eccentricity     =  N/A
# w (rad)          =  N/A
# T_peri           =  N/A
######################################################
   0  381.9786
   1  409.1621
   2  381.5858
   3  351.0844
   4  307.9866
   5  357.2807
   6  429.7831
   7  446.75
   8  308.3165
   9  347.2712
  10  405.4016
  11  410.9549
  12  428.5105
  13  437.1461
  14  440.2
  15  396.2892
  16  428.0851
  17  400.0154
  18  345.292
  19  443.0844
  20  453.6617
  21  412.8371
  22  441.9607
  23  470.2994
  24  325.4984
  25  411.8889
  26  534.8567
  27  470.4009
  28  390.0763
  29  373.7138
  30  228.7361
  31  267.0656
  32  341.7207
  33  331.3159
  34  265.1588
  35  243.9554
  36  264.1956
  37  290.5575
  38  349.6383
  39  401.3013
  40  343.4048
  41  368.2123
  42  435.0111
  43  473.1624
  44  502.7651
  45  464.4689
  46  462.067
  47  457.2713
  48  366.8075
  49  367.9296
  50  373.6316
  51  357.3968
  52  410.1548
  53  401.266
  54  250.0104
  55  273.8407
  56  342.5047
  57  439.5783
  58  395.6826
  59  330.2205
  60  428.2357
  61  402.4106
  62  415.395
  63  441.2719
  64  422.3278
  65  294.0692
  66  290.7581
  67  387.9264
  68  451.9426
  69  369.4635
  70  321.0741
  71  445.1469
  72  470.6055
  73  405.488
  74  447.8342
  75  468.6359
  76  506.052
  77  405.0563
  78  346.1268
  79  390.6954
  80  516.2779
  81  411.3853
  82  431.4572
  83  401.7455
  84  488.6214
  85  474.7418
  86  420.0067
  87  384.1687
  88  463.1482
  89  454.6845
  90  530.2291
  91  526.431
  92  545.1694
  93  533.932
  94  406.3827
  95  483.4684
  96  493.5099
  97  576.5588
  98  372.3336
  99  416.8997
 100  569.6195
 101  424.7579
 102  524.901
 103  604.4355
 104  432.5669
 105  406.5403
 106  569.6669
 107  537.4468
 108  471.2192
 109  516.7131
 110  594.1014
 111  582.1855
 112  447.9869
 113  436.1189
 114  454.706
 115  404.2368
 116  394.4407
 117  442.0179
 118  447.813
 119  388.3911
 120  294.1022
 121  428.7345
 122  475.967
 123  629.7849
 124  897.2755
 125  1000.588
 126  1087.361
 127  1179.354
 128  1035.66
 129  718.9832
 130  509.0496
 131  531.0582
 132  508.365
 133  493.0063
 134  591.4169
 135  516.2615
 136  453.5539
 137  447.8694
 138  587.7215
 139  506.1538
 140  477.6243
 141  468.9669
 142  427.0013
 143  461.4719
 144  507.8208
 145  487.3365
 146  561.7404
 147  508.2718
 148  536.9753
 149  593.1612
 150  586.0893
 151  496.86
 152  585.4701
 153  586.5842
 154  651.576
 155  605.1397
 156  567.1578
 157  547.1666
 158  533.6296
 159  654.6714
 160  634.8674
 161  606.9857
 162  584.1094
 163  570.1689
 164  536.6883
 165  556.1752
 166  458.9679
 167  408.2375
 168  468.8852
 169  576.5172
 170  557.3551
 171  601.1062
 172  530.7421
 173  495.1356
 174  535.65
 175  432.7357
 176  466.7795
 177  382.1094
 178  468.0641
 179  446.6642
 180  632.0726
 181  539.5278
 182  479.8643
 183  574.4205
 184  669.2514
 185  557.4247
 186  504.9592
 187  331.0188
 188  348.8744
 189  496.551
 190  552.6893
 191  477.9208
 192  477.0213
 193  520.4145
 194  420.6424
 195  380.3576
 196  445.8257
 197  454.8336
 198  391.2003
 199  424.8214
 200  488.2508
 201  517.5542
 202  492.1899
 203  563.402
 204  513.1613
 205  434.5912
 206  346.3009
 207  336.5323
 208  365.8108
 209  471.6703
 210  501.3028
 211  480.6509
 212  534.7985
 213  497.11
 214  595.9807
 215  591.0604
 216  466.2145
 217  404.4716
 218  399.068
 219  365.688
 220  315.6209
 221  302.2517
 222  397.2204
 223  501.9413
 224  648.488
 225  484.1558
 226  468.3234
 227  506.8011
 228  391.3734
 229  411.2903
 230  511.7589
 231  504.2256
 232  364.2004
 233  365.8615
 234  372.2836
 235  297.1914
 236  377.8307
 237  527.6904
 238  572.3604
 239  390.5844
 240  480.6229
 241  513.9294
 242  474.0326
 243  562.022
 244  543.6014
 245  444.6373
 246  331.0864
 247  359.158
 248  432.8442
 249  493.8802
 250  431.5591
 251  445.4143
 252  382.7888
 253  338.5496
 254  470.0482
 255  417.1357
 256  460.456
 257  320.7242
 258  344.3854
 259  468.2752
 260  413.4772
 261  332.7795
 262  429.7384
 263  459.4493
 264  371.0118
 265  274.3222
 266  295.2313
 267  317.8355
 268  361.651
 269  389.1128
 270  408.2142
 271  369.2266
 272  474.1538
 273  504.5544
 274  438.7752
 275  420.5681
 276  378.3015
 277  382.7223
 278  351.7926
 279  251.6416
 280  362.3929
 281  347.2777
 282  394.4254
 283  431.1671
 284  315.9772
 285  229.5051
 286  306.0918
 287  401.6825
 288  388.4769
 289  406.364
 290  394.7879
 291  359.7237
 292  362.4895
 293  445.4287
 294  475.5825
 295  511.9141
 296  523.5435
 297  515.1644
 298  442.2932
 299  370.8814
 300  466.9969
 301  442.9236
 302  428.8652
 303  413.808
 304  479.371
 305  366.9585
 306  418.4684
 307  344.8351
 308  432.3646
 309  498.826
 310  517.0002
 311  557.5986
 312  457.4696
 313  345.2414
 314  391.6613
 315  467.7926
 316  519.3272
 317  520.7606
 318  448.0873
 319  505.0426
 320  543.0997
 321  523.1371
 322  587.5485
 323  514.1316
 324  463.1838
 325  379.0345
 326  410.0482
 327  544.2038
 328  513.688
 329  505.5478
 330  515.5645
 331  537.5025
 332  505.1203
 333  432.0318
 334  379.8819
 335  434.93
 336  426.6741
 337  415.1093
 338  330.1639
 339  431.0499
 340  501.2104
 341  423.0418
 342  487.4065
 343  455.2533
 344  367.5539
 345  380.9196
 346  428.9585
 347  393.779
 348  312.2259
 349  338.7703
 350  372.2831
 351  358.3354
 352  431.186
 353  530.8755
 354  461.4783
 355  308.3212
 356  359.4232
 357  375.1228
 358  404.6288
 359  519.9055
 360  549.4741
 361  525.6747
 362  556.1743
 363  394.1826
 364  276.6469
 365  262.5819
 366  379.0735
 367  381.5818
 368  434.12
 369  373.1824
 370  432.8982
 371  391.5079
 372  352.4402
 373  387.868
 374  266.7473
 375  412.5843
 376  370.6946
 377  351.7728
 378  420.4075
 379  442.8867
 380  477.5848
 381  356.1525
 382  519.8598
 383  589.5341
 384  522.5317
 385  429.5451
 386  422.9938
 387  510.5871
 388  466.9408
 389  514.6645
 390  476.7375
 391  309.1163
 392  337.5214
 393  375.3753
 394  357.9131
 395  418.0455
 396  408.5587
 397  398.8507
 398  399.7937
 399  427.8412
 400  488.5598
 401  417.2712
 402  343.8432
 403  301.7008
 404  292.8158
 405  525.4663
 406  555.5032
 407  422.2451
 408  427.0275
 409  519.0444
 410  451.0727
 411  436.27
 412  519.3048
 413  456.9069
 414  392.3467
 415  430.184
 416  474.2369
 417  423.7165
 418  471.2714
 419  548.2942
 420  438.9046
 421  384.2968
 422  411.1671
 423  400.6052
 424  413.1141
 425  419.9876
 426  450.1157
 427  492.7042
 428  364.9015
 429  297.194
 430  299.868
 431  305.4548
 432  396.0121
 433  397.538
 434  475.6389
 435  475.3144
 436  274.5179
 437  459.7245
 438  595.8163
 439  454.3304
 440  420.7885
 441  373.0901
 442  453.0546
 443  468.0444
 444  520.0873
 445  517.1041
 446  387.2552
 447  391.9554
 448  453.8167
 449  448.9297
 450  574.9185
 451  493.9173
 452  358.0397
 453  524.5694
 454  563.071
 455  536.2029
 456  503.183
 457  507.0868
 458  487.7081
 459  463.1772
 460  599.4951
 461  512.8052
 462  526.5541
 463  587.6736
 464  552.4159
 465  485.2609
 466  558.1254
 467  590.4961
 468  496.3627
 469  463.5413
 470  372.9641
 471  513.9067
 472  436.8686
 473  375.8876
 474  527.5076
 475  513.1849
 476  449.4449
 477  469.4242
 478  432.0788
 479  478.9536
 480  466.1215
 481  482.0186
 482  439.6601
 483  473.0039
 484  428.8102
 485  364.5417
 486  371.5191
 487  323.2288
 488  457.8984
 489  534.474
 490  451.5148
 491  429.353
 492  363.1701
 493  457.3822
 494  394.824
 495  494.9744
 496  439.3588
 497  407.6357
 498  446.407
 499  409.2537
 500  394.6018
 501  381.4618
 502  405.776
 503  465.3246
 504  519.1179
 505  408.3938
 506  340.9813
 507  576.496
 508  519.002
 509  391.166
 510  369.3971
 511  432.5756
