# Input file       =  1205942611.123983_cleaned.dat
# Candidate        =  PSR_0332+5434
# Telescope        =  AR
# Epoch_topo       =  58201.669330138691
# Epoch_bary       =  N/A
# T_sample         =  0.002
# Data Folded      =  7340032
# Data Avg         =  0.0313065080543868
# Data StdDev      =  1.00006982809393 
# Profile Bins     =  512
# Profile Avg      =  448.847181924649 
# Profile StdDev   =  119.741397106476 
# Reduced chi-sqr  =  1.361
# Prob(Noise)      <  9.46e-08   (~5.2 sigma)
# P_topo (ms)      =  714.573948447288  +/- 0.000272
# P'_topo (s/s)    =  -0                +/- 1.44e-10
# P''_topo (s/s^2) =  0                 +/- 6.35e-14
# P_bary (ms)      =  N/A
# P'_bary (s/s)    =  N/A
# P''_bary (s/s^2) =  N/A
# P_orb (s)        =  N/A
# asin(i)/c (s)    =  N/A
# eccentricity     =  N/A
# w (rad)          =  N/A
# T_peri           =  N/A
######################################################
   0  1140.867
   1  1140.746
   2  911.2294
   3  586.5699
   4  507.9782
   5  523.9192
   6  497.8781
   7  525.6865
   8  590.89
   9  473.6437
  10  438.4284
  11  514.8603
  12  580.8062
  13  471.2377
  14  483.8985
  15  438.3008
  16  436.8988
  17  494.1044
  18  488.1191
  19  527.3428
  20  544.8553
  21  503.7154
  22  568.8523
  23  604.7546
  24  536.634
  25  524.9655
  26  597.8105
  27  601.9011
  28  649.4987
  29  576.5692
  30  575.6131
  31  518.3248
  32  590.2579
  33  659.8353
  34  619.2487
  35  596.09
  36  582.0972
  37  551.2542
  38  537.8522
  39  533.6232
  40  412.2214
  41  428.1576
  42  538.6189
  43  557.6273
  44  576.8574
  45  587.4167
  46  496.4882
  47  529.6984
  48  493.0562
  49  438.8485
  50  438.0061
  51  395.0183
  52  456.9183
  53  513.2229
  54  634.7243
  55  492.4686
  56  501.6792
  57  656.0608
  58  618.416
  59  530.7378
  60  449.3441
  61  285.2843
  62  432.7067
  63  522.2625
  64  532.616
  65  460.024
  66  491.768
  67  503.0796
  68  362.0576
  69  434.721
  70  435.3735
  71  458.9615
  72  376.6912
  73  465.8875
  74  499.0486
  75  492.6266
  76  534.436
  77  558.3093
  78  476.416
  79  385.8341
  80  334.2708
  81  343.7775
  82  412.3761
  83  505.0618
  84  475.7832
  85  514.1335
  86  514.7277
  87  526.3201
  88  621.6542
  89  532.8597
  90  422.0782
  91  412.2122
  92  382.6165
  93  349.1274
  94  300.993
  95  335.9069
  96  438.6291
  97  575.6752
  98  615.6362
  99  430.0842
 100  524.2522
 101  440.8805
 102  364.5966
 103  468.2756
 104  510.7696
 105  482.2151
 106  313.3484
 107  417.9938
 108  311.5233
 109  328.7054
 110  429.4117
 111  592.8948
 112  477.3629
 113  400.5547
 114  508.2909
 115  500.2053
 116  503.3701
 117  583.1281
 118  497.1001
 119  390.8116
 120  323.6269
 121  401.8012
 122  450.5032
 123  484.9352
 124  414.2779
 125  458.4447
 126  322.8188
 127  414.5149
 128  436.5747
 129  451.8947
 130  395.0457
 131  313.5889
 132  392.7763
 133  483.3792
 134  344.4716
 135  366.9725
 136  458.4378
 137  441.5901
 138  309.7628
 139  279.2743
 140  306.521
 141  334.055
 142  379.2152
 143  408.9297
 144  375.568
 145  401.2164
 146  508.9224
 147  483.3495
 148  418.2442
 149  420.2331
 150  346.3658
 151  410.6277
 152  273.1982
 153  320.1077
 154  346.6906
 155  367.0178
 156  417.5638
 157  400.6067
 158  258.0083
 159  253.4272
 160  348.71
 161  407.4514
 162  383.3887
 163  409.3295
 164  383.0736
 165  347.6384
 166  396.2985
 167  469.051
 168  487.4495
 169  539.9277
 170  501.564
 171  508.828
 172  356.6274
 173  427.7811
 174  455.3076
 175  455.1229
 176  411.6588
 177  463.0222
 178  418.007
 179  384.9936
 180  392.6177
 181  347.7345
 182  489.8137
 183  493.9315
 184  553.5751
 185  518.9902
 186  408.2011
 187  336.5816
 188  446.9494
 189  490.4996
 190  527.0385
 191  488.8776
 192  455.4853
 193  539.3101
 194  524.3014
 195  554.7104
 196  564.5743
 197  490.9411
 198  424.1873
 199  373.3247
 200  473.4349
 201  558.6909
 202  483.291
 203  513.9785
 204  514.4743
 205  535.649
 206  469.1967
 207  401.7079
 208  407.9946
 209  433.2232
 210  430.7643
 211  373.0304
 212  350.9242
 213  493.8198
 214  467.7348
 215  428.4946
 216  489.2058
 217  412.8099
 218  360.8075
 219  414.4448
 220  434.9413
 221  338.7705
 222  319.047
 223  350.3871
 224  370.4184
 225  376.6172
 226  487.3571
 227  523.9301
 228  387.1483
 229  301.6069
 230  390.4492
 231  354.3051
 232  469.0392
 233  552.2614
 234  528.5858
 235  558.4323
 236  479.6103
 237  342.222
 238  250.7051
 239  312.8504
 240  396.6125
 241  393.321
 242  420.3147
 243  387.6538
 244  443.2892
 245  348.6103
 246  388.5804
 247  319.6582
 248  318.9048
 249  425.7853
 250  330.5913
 251  391.2809
 252  419.2161
 253  476.0945
 254  424.4827
 255  388.2624
 256  590.5372
 257  553.4976
 258  496.211
 259  387.9779
 260  485.9844
 261  485.4304
 262  476.4867
 263  531.0807
 264  404.7108
 265  276.9157
 266  389.648
 267  334.8186
 268  409.0008
 269  422.7808
 270  399.984
 271  398.1508
 272  394.1847
 273  469.7997
 274  470.9167
 275  378.7836
 276  322.7847
 277  266.4085
 278  394.2994
 279  570.91
 280  507.1232
 281  388.7354
 282  477.0583
 283  509.9529
 284  420.1496
 285  495.729
 286  492.6909
 287  432.2226
 288  381.3062
 289  474.3124
 290  439.3555
 291  428.5625
 292  509.2258
 293  531.8665
 294  394.3134
 295  402.2532
 296  401.4447
 297  408.5511
 298  408.9661
 299  429.7842
 300  478.1357
 301  454.0886
 302  320.6311
 303  311.2097
 304  281.9363
 305  341.0741
 306  416.7191
 307  405.8652
 308  520.7388
 309  363.5068
 310  311.022
 311  568.483
 312  536.864
 313  438.2142
 314  379.2379
 315  423.4787
 316  452.1034
 317  487.268
 318  535.3942
 319  461.6783
 320  359.4463
 321  432.3653
 322  441.6331
 323  504.6472
 324  575.9529
 325  405.2731
 326  416.2504
 327  564.353
 328  552.4085
 329  516.1935
 330  497.9878
 331  525.3229
 332  425.6584
 333  548.3372
 334  577.6218
 335  489.0234
 336  578.5615
 337  555.4555
 338  529.5209
 339  493.7403
 340  613.9377
 341  538.9417
 342  490.7572
 343  407.057
 344  419.1012
 345  537.9996
 346  344.6174
 347  464.1985
 348  535.3936
 349  476.108
 350  455.1623
 351  463.0502
 352  435.4433
 353  504.4508
 354  448.9299
 355  481.4477
 356  432.2406
 357  487.9002
 358  376.9523
 359  369.7448
 360  336.781
 361  364.4505
 362  532.6948
 363  493.0175
 364  435.6025
 365  404.8848
 366  385.1205
 367  447.5571
 368  412.9153
 369  505.3109
 370  409.1061
 371  433.4981
 372  425.1659
 373  409.821
 374  366.4902
 375  415.774
 376  406.701
 377  517.975
 378  481.162
 379  331.1545
 380  449.4816
 381  589.9348
 382  455.3403
 383  358.9465
 384  398.1141
 385  406.874
 386  392.1715
 387  407.3492
 388  378.7964
 389  319.8693
 390  326.7032
 391  384.8829
 392  458.5959
 393  388.8883
 394  296.8905
 395  389.2799
 396  409.1138
 397  421.1302
 398  432.5277
 399  441.9627
 400  402.6713
 401  411.0331
 402  432.8354
 403  364.3463
 404  386.8376
 405  462.8848
 406  440.5316
 407  401.7326
 408  482.1996
 409  405.3929
 410  320.6281
 411  482.2187
 412  531.3387
 413  409.2029
 414  428.2736
 415  286.2409
 416  245.6679
 417  285.4195
 418  351.5987
 419  292.3831
 420  247.6868
 421  251.4106
 422  282.7855
 423  303.9059
 424  394.7802
 425  364.1034
 426  349.1217
 427  396.4002
 428  453.356
 429  491.9921
 430  488.5984
 431  460.1452
 432  471.2938
 433  416.7076
 434  349.3799
 435  373.6537
 436  378.9976
 437  356.3186
 438  453.1211
 439  311.3137
 440  263.3122
 441  284.5931
 442  393.7789
 443  432.2675
 444  343.9944
 445  373.6326
 446  427.4722
 447  408.3501
 448  426.2331
 449  447.1019
 450  368.2033
 451  265.5063
 452  344.6913
 453  409.6436
 454  446.7295
 455  315.2604
 456  370.5762
 457  489.1926
 458  424.3198
 459  418.2944
 460  457.1713
 461  489.4016
 462  492.3132
 463  353.7126
 464  354.9235
 465  448.1262
 466  491.8687
 467  396.7333
 468  433.816
 469  427.4851
 470  502.2376
 471  444.9222
 472  396.7719
 473  410.8431
 474  455.9489
 475  483.8925
 476  545.2554
 477  519.0408
 478  562.8661
 479  465.8926
 480  434.5608
 481  491.6128
 482  541.7297
 483  506.0061
 484  328.5825
 485  517.9736
 486  517.4929
 487  435.3984
 488  597.7566
 489  546.1282
 490  367.0897
 491  495.3101
 492  582.5709
 493  483.9653
 494  490.2038
 495  528.723
 496  642.2807
 497  499.3532
 498  443.1312
 499  442.6969
 500  437.5024
 501  395.6646
 502  423.4436
 503  437.8086
 504  448.3437
 505  309.7201
 506  345.1068
 507  466.1377
 508  513.6417
 509  767.415
 510  958.7069
 511  1024.118
