# Input file       =  1205238896.100999-PSRB0329-2ms-sampling-dd.dat
# Candidate        =  PSR_0332+5434
# Telescope        =  AR
# Epoch_topo       =  58193.524480335640
# Epoch_bary       =  N/A
# T_sample         =  0.002
# Data Folded      =  7340032
# Data Avg         =  -2.34109626958065e-10
# Data StdDev      =  5.62432478315199 
# Profile Bins     =  512
# Profile Avg      =  -0.171223286438668
# Profile StdDev   =  673.417483855884 
# Reduced chi-sqr  =  0.926
# Prob(Noise)      <  0.884   (~0.0 sigma)
# P_topo (ms)      =  714.57708509732   +/- 0.000378
# P'_topo (s/s)    =  -0                +/- 1.99e-10
# P''_topo (s/s^2) =  0                 +/- 8.8e-14
# P_bary (ms)      =  N/A
# P'_bary (s/s)    =  N/A
# P''_bary (s/s^2) =  N/A
# P_orb (s)        =  N/A
# asin(i)/c (s)    =  N/A
# eccentricity     =  N/A
# w (rad)          =  N/A
# T_peri           =  N/A
######################################################
   0  -281.4431
   1  -138.2724
   2  -257.5577
   3  -378.9615
   4  -215.8751
   5  -542.1536
   6  -580.5085
   7  -682.4318
   8  -351.0891
   9  -130.4487
  10  -188.5627
  11  -522.2794
  12  -865.3175
  13  -844.2648
  14  -232.4706
  15  -135.7512
  16  -51.99547
  17  -117.1839
  18  -319.8753
  19  -346.6642
  20  -787.7719
  21  -440.7752
  22  -361.3612
  23  -348.9834
  24  -191.3059
  25  -173.4666
  26  -595.6831
  27  -790.5481
  28  -445.9651
  29  -65.14761
  30  -183.6082
  31  -148.7911
  32  289.3629
  33  229.5581
  34  320.0248
  35  258.5679
  36  -115.1341
  37  -27.24965
  38  386.2708
  39  340.2384
  40  330.5095
  41  132.318
  42  -90.67191
  43  34.73197
  44  125.6932
  45  -211.4381
  46  -478.9852
  47  -258.6717
  48  96.2793
  49  160.9633
  50  -11.52647
  51  -193.3397
  52  -224.1115
  53  -131.7048
  54  -8.642556
  55  -182.2662
  56  -465.8519
  57  -311.0117
  58  -110.5091
  59  51.44041
  60  234.2885
  61  -296.6851
  62  -696.0017
  63  -672.3386
  64  -451.0717
  65  -617.7109
  66  -254.5883
  67  60.74614
  68  327.8648
  69  455.8898
  70  295.2159
  71  612.2849
  72  500.8753
  73  319.4728
  74  55.90715
  75  490.8472
  76  1028.316
  77  553.2078
  78  424.684
  79  444.2408
  80  -7.869639
  81  -599.5229
  82  -676.3005
  83  -504.0739
  84  -206.8895
  85  217.0037
  86  484.1506
  87  663.429
  88  776.5002
  89  530.3596
  90  -288.9534
  91  297.8237
  92  439.2788
  93  919.6738
  94  1434.777
  95  1510.883
  96  1020.983
  97  107.1647
  98  105.0604
  99  417.6994
 100  199.956
 101  491.6855
 102  280.3
 103  179.3104
 104  237.5043
 105  72.68999
 106  134.9064
 107  146.3038
 108  -7.195287
 109  -89.59229
 110  224.5756
 111  146.6091
 112  -127.8795
 113  -281.9826
 114  -414.8867
 115  -586.8918
 116  -709.2474
 117  -1081.028
 118  -788.3604
 119  -646.1871
 120  -420.336
 121  -552.6059
 122  -691.2382
 123  -337.5871
 124  -143.863
 125  24.70573
 126  -13.59152
 127  -105.9746
 128  242.3082
 129  382.469
 130  0.5876925
 131  526.1592
 132  1099.045
 133  1555.175
 134  1298.366
 135  1011.717
 136  788.9592
 137  24.24068
 138  -36.53986
 139  544.2068
 140  671.7194
 141  493.4734
 142  487.1609
 143  544.117
 144  77.52718
 145  143.1461
 146  187.5724
 147  -1.201283
 148  -522.0535
 149  -420.3668
 150  -149.1307
 151  288.0773
 152  380.9821
 153  185.3508
 154  -70.82336
 155  -573.5117
 156  -585.168
 157  217.9109
 158  148.5671
 159  147.0633
 160  20.43512
 161  -544.9631
 162  -712.7961
 163  -238.2003
 164  -238.1785
 165  -106.5359
 166  -380.5182
 167  -427.3847
 168  -540.8754
 169  -629.153
 170  -861.074
 171  -550.7018
 172  -334.9146
 173  -228.1538
 174  -255.9388
 175  -245.4436
 176  -403.1877
 177  -317.0596
 178  -41.14728
 179  -108.8017
 180  -3.293844
 181  130.0696
 182  528.9445
 183  171.0145
 184  -48.94477
 185  -52.91534
 186  -31.69716
 187  -54.23623
 188  -155.8372
 189  -17.20523
 190  -60.35153
 191  -450.9619
 192  -357.7332
 193  -380.7289
 194  -462.2461
 195  -211.9516
 196  -388.3503
 197  -336.4184
 198  -359.7521
 199  -358.802
 200  -399.7938
 201  -81.60345
 202  91.60379
 203  259.3781
 204  372.5242
 205  379.224
 206  114.5304
 207  -244.4385
 208  106.3037
 209  142.8449
 210  379.2891
 211  760.7508
 212  606.4786
 213  986.433
 214  1150.661
 215  1311.464
 216  1118.793
 217  902.4438
 218  184.8078
 219  -269.9172
 220  -58.02297
 221  93.39398
 222  34.95387
 223  22.30262
 224  144.436
 225  159.5408
 226  119.0647
 227  -136.0537
 228  -242.8998
 229  -190.1189
 230  85.79825
 231  207.281
 232  -69.88294
 233  -293.1833
 234  -40.49083
 235  -276.8521
 236  -417.4757
 237  -157.3303
 238  283.2324
 239  -1.804522
 240  71.44357
 241  -63.23656
 242  -24.51886
 243  26.18132
 244  -140.7929
 245  108.034
 246  404.299
 247  596.7104
 248  399.4248
 249  391.9035
 250  344.2061
 251  119.6785
 252  22.11647
 253  291.0829
 254  272.2708
 255  35.82771
 256  412.3895
 257  417.3711
 258  278.89
 259  218.6792
 260  509.0837
 261  106.2497
 262  120.3326
 263  260.6027
 264  597.5204
 265  392.6757
 266  -30.60997
 267  -106.5783
 268  159.5589
 269  372.6595
 270  -157.3778
 271  161.0012
 272  110.7611
 273  422.8811
 274  342.3998
 275  185.4406
 276  225.8686
 277  160.443
 278  93.3949
 279  -3.704373
 280  383.0905
 281  213.9733
 282  238.5995
 283  168.9023
 284  -108.5464
 285  -187.4901
 286  322.9296
 287  136.2604
 288  -139.2222
 289  -186.8652
 290  140.9759
 291  165.7059
 292  -114.4486
 293  -103.3657
 294  -310.6316
 295  -84.14977
 296  -178.1461
 297  -531.7158
 298  -599.8362
 299  -616.2484
 300  -279.1791
 301  124.0699
 302  -200.718
 303  -386.5133
 304  -324.3092
 305  -466.4959
 306  -281.6234
 307  -269.5488
 308  -417.3706
 309  -388.3519
 310  -42.79458
 311  -252.4681
 312  -178.0428
 313  -6.980289
 314  54.28969
 315  -109.7575
 316  -47.17173
 317  -46.58846
 318  379.6736
 319  319.723
 320  -147.2141
 321  -267.0717
 322  -296.1375
 323  -558.6607
 324  171.7076
 325  301.6667
 326  94.79956
 327  -194.2253
 328  -71.83959
 329  66.27499
 330  -52.6885
 331  389.2576
 332  -16.14161
 333  -205.015
 334  -44.33583
 335  -129.8337
 336  -234.0121
 337  -405.7786
 338  -404.1637
 339  -600.9606
 340  -797.1544
 341  -636.1187
 342  -660.6042
 343  -512.1249
 344  -648.4604
 345  -487.0247
 346  -478.9762
 347  -675.3417
 348  -675.2793
 349  -32.63451
 350  38.17344
 351  140.388
 352  -125.1171
 353  318.5232
 354  617.2625
 355  332.0947
 356  80.23849
 357  73.44246
 358  20.98032
 359  181.6413
 360  875.9543
 361  780.1545
 362  510.8025
 363  140.2813
 364  26.92583
 365  -51.05822
 366  -524.4615
 367  -762.7409
 368  -96.09029
 369  69.16814
 370  -523.9745
 371  -563.2541
 372  -413.1588
 373  -332.7122
 374  -207.9531
 375  -19.8581
 376  -364.8109
 377  -376.142
 378  -137.8542
 379  -342.6466
 380  -404.1497
 381  -113.7812
 382  -373.956
 383  -504.7512
 384  -463.1919
 385  -259.7011
 386  -401.0456
 387  88.34714
 388  195.6044
 389  -213.7281
 390  -551.5175
 391  -354.746
 392  -24.33288
 393  -28.05617
 394  -240.1178
 395  -338.3757
 396  -417.7836
 397  -507.4695
 398  -539.6273
 399  -709.9066
 400  -786.2084
 401  -876.6428
 402  -725.2556
 403  -898.7662
 404  -866.1542
 405  -979.3036
 406  -682.4018
 407  -643.1421
 408  -756.8253
 409  -661.2986
 410  -491.9473
 411  -346.7899
 412  -44.04606
 413  -193.4205
 414  -456.8808
 415  -469.0431
 416  -265.2487
 417  -162.5096
 418  94.34151
 419  442.7267
 420  243.8703
 421  409.6643
 422  -30.46029
 423  -146.3687
 424  -208.1136
 425  -601.107
 426  -711.782
 427  -55.24512
 428  41.62267
 429  372.5596
 430  742.3205
 431  986.1865
 432  708.2689
 433  311.0909
 434  -66.28013
 435  361.5197
 436  947.5057
 437  1599.371
 438  1258.072
 439  1291.707
 440  740.4109
 441  78.80479
 442  19.76265
 443  306.815
 444  85.98405
 445  98.26196
 446  -205.8313
 447  -278.6918
 448  -336.9284
 449  -155.2939
 450  66.58778
 451  -4.093872
 452  137.973
 453  187.3996
 454  60.41354
 455  335.1853
 456  454.7532
 457  582.0531
 458  960.2985
 459  1114.234
 460  1589.382
 461  1465.827
 462  1153.478
 463  902.145
 464  564.4485
 465  1040.264
 466  1398.939
 467  1357.258
 468  1943.395
 469  1490.895
 470  732.1643
 471  495.329
 472  -17.59213
 473  263.0686
 474  -83.61926
 475  -202.7662
 476  94.51348
 477  102.5903
 478  242.8262
 479  151.7362
 480  -245.8054
 481  -205.262
 482  131.2492
 483  59.6503
 484  -7.699561
 485  40.80328
 486  19.15727
 487  215.3372
 488  -1.823116
 489  -55.70064
 490  -327.2365
 491  -488.9394
 492  -172.4669
 493  89.32839
 494  -193.3471
 495  -524.5035
 496  -288.635
 497  -358.3097
 498  -650.6569
 499  -637.2875
 500  -310.3774
 501  -98.19508
 502  -353.1085
 503  -317.5727
 504  -218.0433
 505  -346.5901
 506  146.2303
 507  535.3561
 508  401.16
 509  92.54971
 510  -95.11021
 511  -421.6151
