# Input file       =  1205513153.125172_cleaned.dat
# Candidate        =  PSR_0332+5434
# Telescope        =  AR
# Epoch_topo       =  58196.698751448748
# Epoch_bary       =  N/A
# T_sample         =  0.002
# Data Folded      =  7340032
# Data Avg         =  0.221930004663591
# Data StdDev      =  5.88656827139994 
# Profile Bins     =  256
# Profile Avg      =  6363.1371674104  
# Profile StdDev   =  996.761326190567 
# Reduced chi-sqr  =  2.507
# Prob(Noise)      <  6.49e-35   (~12.3 sigma)
# P_topo (ms)      =  714.576229000498  +/- 0.000189
# P'_topo (s/s)    =  -0                +/- 9.96e-11
# P''_topo (s/s^2) =  0                 +/- 4.4e-14
# P_bary (ms)      =  N/A
# P'_bary (s/s)    =  N/A
# P''_bary (s/s^2) =  N/A
# P_orb (s)        =  N/A
# asin(i)/c (s)    =  N/A
# eccentricity     =  N/A
# w (rad)          =  N/A
# T_peri           =  N/A
######################################################
   0  6137.965
   1  6034.946
   2  6761.425
   3  7822.361
   4  7717.813
   5  7436.884
   6  8289.697
   7  9005.497
   8  8909.816
   9  8855.418
  10  8621.263
  11  8749.979
  12  8185.117
  13  7598.887
  14  7112.63
  15  7363.554
  16  7954.65
  17  7373.763
  18  8116.677
  19  7593.401
  20  7494.53
  21  6438.854
  22  6858.814
  23  6622.413
  24  6434.229
  25  7147.867
  26  6277.688
  27  6074.046
  28  6160.467
  29  5323.975
  30  4774.253
  31  4934.986
  32  5466.323
  33  5555.107
  34  5105.691
  35  5415.406
  36  5313.504
  37  5446.313
  38  6814.376
  39  6839.085
  40  6827.737
  41  7456.752
  42  6775.211
  43  7944.791
  44  8882.167
  45  8794.951
  46  9271.575
  47  8911.825
  48  8654.711
  49  8541.605
  50  9214.145
  51  7685.437
  52  7263.382
  53  6969.021
  54  6637.201
  55  6148.365
  56  5875.094
  57  5259.032
  58  5308.476
  59  5830.908
  60  6134.26
  61  5862.266
  62  5595.803
  63  5639.462
  64  6342.643
  65  6469.305
  66  5840.178
  67  6103.027
  68  6343.97
  69  6349.755
  70  6368.929
  71  6228.354
  72  7530.48
  73  7304.03
  74  7045.437
  75  7623.891
  76  8117.884
  77  8629.45
  78  8724.089
  79  8100.217
  80  8599.437
  81  8457.46
  82  8702.793
  83  8294.923
  84  8106.123
  85  7913.831
  86  8551.566
  87  7592.138
  88  7735.967
  89  6845.04
  90  6865.833
  91  7478.457
  92  6667.107
  93  6884.479
  94  6704.558
  95  6523.862
  96  5904.975
  97  6527.515
  98  6300.025
  99  6036.576
 100  6098.85
 101  5674.533
 102  5232.991
 103  5456.59
 104  6522.367
 105  6078.654
 106  5987.311
 107  6724.801
 108  7421.336
 109  7465.446
 110  7423.937
 111  6493.778
 112  6206.041
 113  6674.781
 114  6535.249
 115  7485.547
 116  7636.6
 117  8098.746
 118  7279.88
 119  7230.566
 120  7256.13
 121  6844.153
 122  6868.644
 123  6539.24
 124  6686.927
 125  7084.772
 126  7396.465
 127  7076.406
 128  6019.172
 129  5860.772
 130  5025.7
 131  5147.343
 132  4897.823
 133  6031.516
 134  5111.771
 135  5148.37
 136  4597.793
 137  4663.931
 138  4667.458
 139  5147.703
 140  5581.84
 141  5872.435
 142  6808.863
 143  6620.435
 144  7020.354
 145  6375.744
 146  5780.576
 147  6457.79
 148  6375.319
 149  7323.808
 150  8336.347
 151  10078.02
 152  10087.24
 153  8785.009
 154  8129.659
 155  8205.75
 156  8018.689
 157  7301.278
 158  7410.192
 159  6755.464
 160  5888.141
 161  4645.123
 162  4390.218
 163  4375.076
 164  3678.775
 165  4345.126
 166  5364.459
 167  4417.471
 168  4288.57
 169  4242.915
 170  4029.844
 171  3228.36
 172  4393.395
 173  4405.906
 174  4814.372
 175  4771.925
 176  5133.17
 177  4900.583
 178  5001.576
 179  5461.846
 180  6000.022
 181  5880.797
 182  5759.397
 183  5582.637
 184  5907.158
 185  6221.596
 186  6147.66
 187  5485.665
 188  6632.771
 189  6587.95
 190  6449.58
 191  6858.692
 192  6997.972
 193  6571.024
 194  6955.8
 195  7297.693
 196  7527.334
 197  6950.923
 198  6128.348
 199  5274.584
 200  5025.12
 201  5053.173
 202  3151.681
 203  2981.24
 204  3964.307
 205  3875.052
 206  3944.288
 207  4260.279
 208  4432.12
 209  4160.296
 210  4706.775
 211  4958.861
 212  4097.259
 213  4623.626
 214  3669.407
 215  4984.07
 216  5119.386
 217  5067.436
 218  4936.939
 219  4868.891
 220  4542.008
 221  6269.733
 222  5591.789
 223  5909.027
 224  7442.628
 225  7557.509
 226  7546.146
 227  6656.186
 228  7563.13
 229  6680.433
 230  8099.297
 231  8250.598
 232  7405.628
 233  6742.58
 234  7230.29
 235  6487.809
 236  5668.324
 237  5587.057
 238  5911.937
 239  5358.151
 240  5329.47
 241  4587.12
 242  5085.628
 243  4369.917
 244  5741.96
 245  4643.007
 246  5729.712
 247  5008.413
 248  5344.543
 249  5090.776
 250  5029.03
 251  5616.166
 252  5042.42
 253  4973.779
 254  5519.246
 255  5913.947
