# Input file       =  1205841527.112188_cleaned.dat
# Candidate        =  PSR_0332+5434
# Telescope        =  AR
# Epoch_topo       =  58200.499376298474
# Epoch_bary       =  N/A
# T_sample         =  0.002
# Data Folded      =  7340032
# Data Avg         =  0.0383634627380948
# Data StdDev      =  5.24138209365084 
# Profile Bins     =  256
# Profile Avg      =  1100.30485218409 
# Profile StdDev   =  887.513186948299 
# Reduced chi-sqr  =  1.598
# Prob(Noise)      <  4.01e-09   (~5.8 sigma)
# P_topo (ms)      =  714.57417690561   +/- 0.00054
# P'_topo (s/s)    =  -0                +/- 2.85e-10
# P''_topo (s/s^2) =  0                 +/- 1.26e-13
# P_bary (ms)      =  N/A
# P'_bary (s/s)    =  N/A
# P''_bary (s/s^2) =  N/A
# P_orb (s)        =  N/A
# asin(i)/c (s)    =  N/A
# eccentricity     =  N/A
# w (rad)          =  N/A
# T_peri           =  N/A
######################################################
   0  1273.962
   1  818.7783
   2  1200.329
   3  833.752
   4  572.2736
   5  957.5014
   6  860.0297
   7  820.1014
   8  831.2923
   9  357.8718
  10  499.8098
  11  216.5724
  12  122.2802
  13  -327.6449
  14  1251.697
  15  1209.213
  16  598.0688
  17  694.6464
  18  30.43555
  19  754.1779
  20  852.8316
  21  909.9731
  22  964.0142
  23  389.6009
  24  392.1915
  25  388.8038
  26  958.9785
  27  -475.687
  28  -57.42569
  29  153.3036
  30  -213.0998
  31  2.164185
  32  393.4157
  33  1151.904
  34  1130.064
  35  1255.578
  36  796.296
  37  1478.392
  38  1777.176
  39  1886.633
  40  1962.118
  41  1813.062
  42  1106.617
  43  1527.519
  44  749.2933
  45  568.1954
  46  552.1874
  47  1170.661
  48  981.6194
  49  992.376
  50  878.6628
  51  1788.873
  52  846.0643
  53  784.1812
  54  1349.873
  55  1563.81
  56  1257.421
  57  1055.832
  58  1400.876
  59  1127.55
  60  1274.41
  61  1816.341
  62  2134.242
  63  2372.557
  64  1436.459
  65  829.1795
  66  1385.095
  67  840.6608
  68  923.6496
  69  1711.888
  70  1922.017
  71  2029.473
  72  2782.702
  73  2981.821
  74  2715.696
  75  2465.077
  76  3346.736
  77  2531.046
  78  3161.816
  79  2943.7
  80  2757.677
  81  2592.801
  82  1970.637
  83  1575.35
  84  1545.292
  85  1475.408
  86  1860.89
  87  1980.173
  88  1850.75
  89  1653.706
  90  2429.538
  91  2069.998
  92  2628.614
  93  3065.064
  94  2870.51
  95  2725.593
  96  1435.13
  97  2455.946
  98  2018.076
  99  1602.324
 100  730.4731
 101  753.3707
 102  921.7192
 103  1029.711
 104  72.04282
 105  552.1655
 106  1007.207
 107  973.573
 108  859.627
 109  876.1038
 110  882.9807
 111  1293.076
 112  1317.358
 113  1269.648
 114  1210.15
 115  793.4585
 116  1007.71
 117  1440.034
 118  983.1224
 119  941.2386
 120  -26.38389
 121  326.3913
 122  1.394916
 123  -181.1876
 124  -441.5456
 125  -1215.135
 126  -326.6763
 127  67.90044
 128  -64.659
 129  -174.2393
 130  -175.3628
 131  -756.3671
 132  -271.6787
 133  -170.5757
 134  -870.588
 135  -430.2944
 136  -208.1914
 137  -883.3198
 138  -1659.83
 139  -874.1274
 140  -697.2864
 141  -488.6366
 142  -783.011
 143  -266.6055
 144  209.7194
 145  462.6936
 146  583.6995
 147  1453.728
 148  1746.441
 149  2141.516
 150  3687.543
 151  5624.399
 152  5187.334
 153  2769.837
 154  1567.564
 155  1548.871
 156  2003.673
 157  2109.086
 158  2909.522
 159  2948.726
 160  2767.087
 161  2536.789
 162  1931.221
 163  1614.325
 164  1283.453
 165  1350.778
 166  572.1847
 167  743.7114
 168  1275.965
 169  540.0224
 170  711.8954
 171  657.126
 172  288.9836
 173  435.9264
 174  881.0632
 175  1007.322
 176  894.9999
 177  36.99032
 178  477.1869
 179  173.5125
 180  64.87448
 181  -35.15726
 182  948.8014
 183  974.0309
 184  1681.163
 185  1810.148
 186  1583.939
 187  1224.902
 188  1324.886
 189  1680.725
 190  1933.974
 191  1694.153
 192  1079.131
 193  1291.078
 194  1770.481
 195  2026.565
 196  1537.08
 197  830.281
 198  1654.655
 199  1669.435
 200  2378.629
 201  1565.583
 202  1967.506
 203  1974.255
 204  2038.088
 205  1812.679
 206  1446.476
 207  1857.29
 208  2016.844
 209  1704.228
 210  1662.232
 211  1208.163
 212  1576.217
 213  1218.179
 214  1503.262
 215  1319.475
 216  1298.312
 217  833.8182
 218  1112.035
 219  883.998
 220  908.4926
 221  1509.368
 222  1008.234
 223  954.7007
 224  1149.966
 225  1359.93
 226  1291.984
 227  1252.349
 228  877.1011
 229  522.5347
 230  392.0385
 231  468.6176
 232  230.9298
 233  371.5148
 234  -202.3432
 235  98.41843
 236  466.8651
 237  338.3732
 238  658.0678
 239  756.0109
 240  -53.90268
 241  407.1775
 242  596.2827
 243  721.2265
 244  745.3447
 245  1182.973
 246  1337.557
 247  675.3875
 248  18.02637
 249  310.0673
 250  215.5679
 251  374.003
 252  863.5654
 253  129.9752
 254  -145.3302
 255  929.8083
