# Input file       =  1205482329.110533_cleaned.dat
# Candidate        =  PSR_0332+5434
# Telescope        =  AR
# Epoch_topo       =  58196.341992020061
# Epoch_bary       =  N/A
# T_sample         =  0.002
# Data Folded      =  7405568
# Data Avg         =  0.541092883099069
# Data StdDev      =  6.48946191600463 
# Profile Bins     =  1024
# Profile Avg      =  3913.35638325714 
# Profile StdDev   =  551.871411306541 
# Reduced chi-sqr  =  2.608
# Prob(Noise)      <  5.65e-147   (~25.8 sigma)
# P_topo (ms)      =  714.575988509758  +/- 1.38e-05
# P'_topo (s/s)    =  -0                +/- 7.2e-12
# P''_topo (s/s^2) =  0                 +/- 3.15e-15
# P_bary (ms)      =  N/A
# P'_bary (s/s)    =  N/A
# P''_bary (s/s^2) =  N/A
# P_orb (s)        =  N/A
# asin(i)/c (s)    =  N/A
# eccentricity     =  N/A
# w (rad)          =  N/A
# T_peri           =  N/A
######################################################
   0  3630.872
   1  3773.205
   2  3580.143
   3  3813.233
   4  3989.295
   5  4028.311
   6  4043.755
   7  4332.167
   8  4467.871
   9  4548.725
  10  4456.21
  11  4388.945
  12  4312.49
  13  4054.474
  14  3899.866
  15  3641.274
  16  3698.277
  17  3720.55
  18  3972.92
  19  4086.848
  20  4054.025
  21  4171.815
  22  4201.577
  23  4178.844
  24  4325.637
  25  4552.383
  26  4613.403
  27  4552.763
  28  4205.651
  29  3858.299
  30  3360.062
  31  3410.375
  32  3461.021
  33  3495.178
  34  3750.434
  35  3983.675
  36  4170.141
  37  4036.432
  38  4203.519
  39  4478.658
  40  4732.789
  41  4802.18
  42  4945.094
  43  4697.333
  44  4631.233
  45  4181.657
  46  3924.994
  47  3492.167
  48  3152.357
  49  3326.597
  50  3376.781
  51  3826.551
  52  3669.374
  53  3849.809
  54  3903.296
  55  3891.972
  56  4172.89
  57  4383.699
  58  4554.191
  59  4705.559
  60  4461.368
  61  4013.764
  62  3612.627
  63  3324.916
  64  3343.749
  65  3158.99
  66  3374.838
  67  3355.357
  68  3366.619
  69  3471.384
  70  3619.135
  71  3784.831
  72  4056.267
  73  4434.498
  74  4856.278
  75  4843.241
  76  4749.446
  77  4473.633
  78  3923.008
  79  3569.255
  80  3274.044
  81  3355.296
  82  3107
  83  3201.919
  84  3403.728
  85  3416.223
  86  3503.288
  87  3538.356
  88  3740.546
  89  3903.473
  90  4165.647
  91  4451.042
  92  4596.928
  93  4333.395
  94  4195.772
  95  3762.873
  96  3430.45
  97  3207.836
  98  3139.333
  99  3397.455
 100  3402.031
 101  3603.115
 102  3633.793
 103  3825.621
 104  3998.524
 105  4151.473
 106  4329.751
 107  4631.632
 108  4854.338
 109  4873.164
 110  4610.811
 111  4367.885
 112  4258.339
 113  3845.678
 114  3615.139
 115  3392.79
 116  3626.9
 117  3565.858
 118  3854.826
 119  3810.151
 120  3588.627
 121  3631.179
 122  3971.787
 123  4402.333
 124  4521.816
 125  4526.576
 126  4322.53
 127  4303.866
 128  3895.676
 129  3654.26
 130  3360.531
 131  3359.5
 132  3467.257
 133  3650.353
 134  3787.248
 135  3570.962
 136  3493.997
 137  3614.18
 138  3836.51
 139  4211.171
 140  4533.676
 141  4575.173
 142  4599.614
 143  4341.465
 144  4123.955
 145  3790.791
 146  3604.399
 147  3539.796
 148  3509.506
 149  3643.929
 150  3539.892
 151  3488.93
 152  3400.231
 153  3550.167
 154  3777.359
 155  3969.251
 156  4089.491
 157  4297.093
 158  4347.688
 159  4368.108
 160  4075.727
 161  3661.859
 162  3505.207
 163  3266.642
 164  3338.078
 165  3344.648
 166  3552.368
 167  3730.544
 168  3812.215
 169  3730.05
 170  3909.277
 171  4081.523
 172  4465.004
 173  4529.751
 174  4821.416
 175  4736.494
 176  4385.702
 177  4133.949
 178  3756.937
 179  3819.695
 180  3606.856
 181  3792.867
 182  3851.428
 183  3929.734
 184  3888.173
 185  3546.144
 186  3530.665
 187  3830.718
 188  4100.641
 189  4447.915
 190  4439.821
 191  4287.347
 192  4325.039
 193  3885.69
 194  3704.383
 195  3267.487
 196  3138.61
 197  3131.123
 198  3229.944
 199  3736.204
 200  3843.455
 201  3854.799
 202  3818.703
 203  3932.85
 204  4198.485
 205  4375.049
 206  4700.227
 207  4770.525
 208  4428.099
 209  4000.646
 210  3797.397
 211  3683.309
 212  3466.197
 213  3196.917
 214  3400.681
 215  3342.718
 216  3524.126
 217  3464.141
 218  3706.397
 219  3743.175
 220  3777.607
 221  3958.543
 222  4139.629
 223  4235.32
 224  4423.491
 225  4121.817
 226  3700.04
 227  3176.596
 228  2697.709
 229  2692.49
 230  2679.996
 231  3134.926
 232  3214.227
 233  3467.158
 234  3557.814
 235  3559.795
 236  3788.627
 237  3974.198
 238  4267.516
 239  4462.595
 240  4538.72
 241  4448.098
 242  4380.061
 243  4156.951
 244  3880.418
 245  3475.785
 246  3408.498
 247  3357.104
 248  3456.466
 249  3512.41
 250  3130.068
 251  3289.863
 252  3507.568
 253  3882.421
 254  4073.602
 255  4268.702
 256  4444.099
 257  4645.947
 258  4432.715
 259  4020.828
 260  3533.867
 261  3296.045
 262  3275.091
 263  3131.232
 264  3062.953
 265  3079.924
 266  3408.83
 267  3597.401
 268  3657.513
 269  3763.057
 270  4070.781
 271  4186.114
 272  4508.027
 273  4682.647
 274  4725.771
 275  4549.079
 276  4249.292
 277  3995.686
 278  3460.075
 279  3283.943
 280  3000.559
 281  3123.88
 282  3056.653
 283  3159.712
 284  3108.342
 285  3102.601
 286  3438.072
 287  3610.453
 288  3922.07
 289  4217.752
 290  4471.125
 291  4400.26
 292  4253.874
 293  3917.062
 294  3439.484
 295  3200.926
 296  3006.308
 297  3174.769
 298  3126.091
 299  3160.216
 300  3173.858
 301  3364.205
 302  3519.25
 303  3818.208
 304  4182.802
 305  4594.847
 306  4401.545
 307  4547.862
 308  4357.35
 309  4219.351
 310  3813.172
 311  3467.749
 312  3467.659
 313  3335.29
 314  3624.329
 315  3608.138
 316  3727.855
 317  3768.945
 318  3642.947
 319  3675.678
 320  3580.434
 321  3648.455
 322  4173.404
 323  4422.049
 324  4436.665
 325  4149.864
 326  3729.305
 327  3621.851
 328  3382.76
 329  3714.549
 330  3880.539
 331  3747.641
 332  3692.284
 333  3652.723
 334  3765.063
 335  3809.525
 336  3941.724
 337  4234.84
 338  4530.492
 339  4732.144
 340  4794.075
 341  4417.083
 342  4285.605
 343  3991.858
 344  4025.976
 345  3654.038
 346  3455.962
 347  3448.542
 348  3607.234
 349  4027.384
 350  3856.815
 351  3827.293
 352  3752.345
 353  3925.822
 354  4392.211
 355  4478.944
 356  4397.548
 357  4350.323
 358  4090.908
 359  3740.742
 360  3447.638
 361  3360.943
 362  3441.189
 363  3501.593
 364  3841.641
 365  3898.99
 366  3907.582
 367  3853.065
 368  3873.282
 369  4010.811
 370  4205.03
 371  4409.615
 372  4590.224
 373  4485.651
 374  4316.519
 375  4102.576
 376  3885.429
 377  3763.292
 378  3564.306
 379  3658.049
 380  3449.424
 381  3676.401
 382  3946.495
 383  3819.753
 384  3976.877
 385  3831.165
 386  4042.267
 387  4047.082
 388  4457.48
 389  4597.76
 390  4504.987
 391  4120.486
 392  3903.945
 393  3433.279
 394  3100.637
 395  2969.535
 396  3150.72
 397  3374.08
 398  3424.987
 399  3632.827
 400  3755.871
 401  3826.484
 402  3987.445
 403  4385.675
 404  4768.33
 405  4873.23
 406  4724.574
 407  4682.113
 408  4410.926
 409  4157.054
 410  3781.141
 411  3472.697
 412  3275.461
 413  3260.223
 414  3589.629
 415  3478.248
 416  3617.019
 417  3630.91
 418  3661.669
 419  3773.205
 420  4010.935
 421  4279.861
 422  4535.161
 423  4481.415
 424  4147.618
 425  3781.024
 426  3253.014
 427  3089.281
 428  2958.444
 429  3047.203
 430  3221.191
 431  3402.404
 432  3495.565
 433  3492.722
 434  3723.844
 435  3938.634
 436  4028.658
 437  4373.145
 438  4594.078
 439  4381.63
 440  4216.671
 441  3987.029
 442  3982.468
 443  3524.707
 444  3432.792
 445  3360.666
 446  3236.481
 447  3284.596
 448  3048.802
 449  3228.426
 450  3161.471
 451  3388.304
 452  3587.209
 453  3935.005
 454  4179.203
 455  4577.555
 456  4415.939
 457  4261.475
 458  3724.238
 459  3411.436
 460  3318.166
 461  3070.799
 462  3243.89
 463  3078.024
 464  3097.68
 465  3087.315
 466  3294.918
 467  3516.932
 468  3848.057
 469  4314.624
 470  4733.533
 471  4753.877
 472  4847.362
 473  4590.611
 474  4187.692
 475  3937.753
 476  3600.554
 477  3595.685
 478  3255.271
 479  3449.047
 480  3350.086
 481  3372.623
 482  3439.578
 483  3396.081
 484  3561.227
 485  3675.207
 486  4017.632
 487  4523.747
 488  4663.21
 489  4294.604
 490  4150.301
 491  3535.655
 492  3405.624
 493  3142.838
 494  3410.5
 495  3551.041
 496  3494.729
 497  3697.889
 498  3449.664
 499  3447.081
 500  3515.243
 501  3850.263
 502  4239.089
 503  4414.094
 504  4437.796
 505  4488.649
 506  4264.989
 507  4199.667
 508  3809.288
 509  3599.018
 510  3353.094
 511  3382.1
 512  3560.951
 513  3449.263
 514  3484.006
 515  3569.44
 516  3617.078
 517  3633.157
 518  3706.16
 519  4022.383
 520  4300.111
 521  4338.292
 522  4245.913
 523  3879.497
 524  3552.908
 525  3654.729
 526  3442.055
 527  3437.342
 528  3308.908
 529  3661.123
 530  3793.714
 531  3631.694
 532  3536.076
 533  3689.2
 534  4003.129
 535  4173.312
 536  4420.315
 537  4719.164
 538  4727.69
 539  4472.65
 540  4430.964
 541  4089.751
 542  3909.16
 543  3705.988
 544  3917.137
 545  3656.982
 546  3489.55
 547  3670.668
 548  3691.704
 549  3785.193
 550  3699.726
 551  3922.983
 552  4138.243
 553  4435.563
 554  4455.927
 555  4581.683
 556  4134.196
 557  3707.437
 558  3383.27
 559  3190.259
 560  3224.606
 561  3287.524
 562  3465.389
 563  3403.873
 564  3531.642
 565  3816.903
 566  3897.906
 567  4147.37
 568  4338.835
 569  4601.641
 570  4772.234
 571  4708.804
 572  4341.622
 573  4020.328
 574  3721.391
 575  3562.846
 576  3097.518
 577  3164.47
 578  3124.977
 579  3373.778
 580  3369.305
 581  3398.068
 582  3527.45
 583  3576.66
 584  3961.497
 585  4275.921
 586  4703.776
 587  4778.87
 588  4782.079
 589  4286.085
 590  3965.727
 591  3324.778
 592  3192.59
 593  3092.927
 594  3044.742
 595  3267.082
 596  3393.265
 597  3596.67
 598  3728.138
 599  4151.399
 600  4528.182
 601  4803.524
 602  5194.408
 603  5550.457
 604  5397.216
 605  5539.403
 606  5223.762
 607  5190.828
 608  4781.809
 609  4530.165
 610  4242.677
 611  3946.028
 612  4110.029
 613  3863.207
 614  3843.981
 615  3632.224
 616  3516.169
 617  3847.585
 618  3989.348
 619  4085.159
 620  4340.437
 621  4583.844
 622  4513.615
 623  4175.991
 624  3449.433
 625  3281.473
 626  3037.732
 627  3421.943
 628  3321.76
 629  3268.271
 630  3388.436
 631  3515.156
 632  3710.599
 633  3705.188
 634  4002.92
 635  4421.222
 636  4655.368
 637  4706.679
 638  4613.736
 639  4178.584
 640  4018.331
 641  3555.67
 642  3529.504
 643  3186.651
 644  3242.092
 645  3336.047
 646  3226.57
 647  3366.623
 648  3160.836
 649  3327.8
 650  3352.891
 651  3487.761
 652  4021.401
 653  4244.516
 654  4165.591
 655  4081.582
 656  3590.708
 657  3350.052
 658  3081.328
 659  3095.141
 660  3195.028
 661  3076.44
 662  3271.151
 663  3240.851
 664  3432.843
 665  3609.421
 666  3864.174
 667  4295.096
 668  4569.681
 669  4612.534
 670  4657.02
 671  4542.881
 672  4391.049
 673  4127.583
 674  3770.678
 675  3548.034
 676  3353.388
 677  3660.386
 678  3528.871
 679  3749.665
 680  3794.643
 681  3698.721
 682  3774.769
 683  3838.122
 684  4107.47
 685  4289.21
 686  4400.375
 687  4455.294
 688  4277.091
 689  3994.042
 690  3772.868
 691  3581.031
 692  3644.648
 693  3674.305
 694  3768.971
 695  3771.06
 696  3722.267
 697  3713.667
 698  3888.469
 699  4044.46
 700  4254.955
 701  4532.306
 702  4645.671
 703  4824.74
 704  4695.444
 705  4580.983
 706  4013.342
 707  3725.334
 708  3536.444
 709  3608.729
 710  3552.5
 711  3516.422
 712  3679.378
 713  3718.958
 714  3859.798
 715  3914.339
 716  4145.362
 717  4263.009
 718  4370.523
 719  4429.716
 720  4459.756
 721  4239.135
 722  3773.493
 723  3545.597
 724  3095.146
 725  3135.554
 726  3118.029
 727  3359.69
 728  3516.106
 729  3814.056
 730  3812.153
 731  3798.671
 732  3969.462
 733  4390.064
 734  4575.13
 735  4899.802
 736  5101.678
 737  4740.877
 738  4276.379
 739  3739.444
 740  3789.164
 741  3432.929
 742  3474.168
 743  3388.931
 744  3518.124
 745  3707.228
 746  3724.063
 747  3952.161
 748  3864.542
 749  3939.197
 750  4223.179
 751  4471.402
 752  4579.988
 753  4656.08
 754  4381.604
 755  4132.677
 756  3527.901
 757  3250.859
 758  3124.704
 759  3004.111
 760  3316.557
 761  3255.305
 762  3299.25
 763  3234.65
 764  3697.459
 765  4115.26
 766  4363.163
 767  4620.525
 768  4991.842
 769  4814.715
 770  4756.469
 771  4238.171
 772  3938.06
 773  3693.291
 774  3500.486
 775  3538.591
 776  3150.599
 777  3332.421
 778  3428.361
 779  3599.722
 780  3555.286
 781  3493.183
 782  3995.117
 783  4160.501
 784  4278.661
 785  4565.964
 786  4685.884
 787  4262.707
 788  3966.002
 789  3436.964
 790  3275.48
 791  3048.612
 792  3344.421
 793  3466.375
 794  3261.944
 795  3327.657
 796  3331.396
 797  3640.353
 798  4040.482
 799  4355.213
 800  4685.868
 801  4765.166
 802  4849.043
 803  4760.449
 804  4199.046
 805  3945.656
 806  3807.03
 807  3887.058
 808  3671.26
 809  3517.289
 810  3791.692
 811  3728.121
 812  4052.036
 813  3985.306
 814  3970.544
 815  3908.515
 816  4045.05
 817  4472.508
 818  4756.907
 819  4830.26
 820  4821.917
 821  4397.972
 822  3947.839
 823  3639.284
 824  3488.81
 825  3630.19
 826  3519.991
 827  3676.812
 828  3660.897
 829  3628.541
 830  3616.061
 831  3804.278
 832  4257.169
 833  4601.624
 834  4668.509
 835  4747.573
 836  4649.087
 837  4364.727
 838  4258.025
 839  3960.515
 840  3789.021
 841  3567.201
 842  3699.652
 843  3701.395
 844  3773.781
 845  3862.555
 846  3698.372
 847  3764.771
 848  3857.146
 849  4138.455
 850  4456.855
 851  4569.828
 852  4340.384
 853  4282.392
 854  3992.285
 855  3875.071
 856  3703.555
 857  3668.478
 858  3708.196
 859  3702.404
 860  3808.988
 861  3728.132
 862  3762.431
 863  3776.002
 864  3956.966
 865  4270.078
 866  4660.385
 867  4720.707
 868  4811.644
 869  4850.589
 870  4686.714
 871  4309.194
 872  3957.364
 873  3889.034
 874  3770.807
 875  4038.988
 876  3965.413
 877  4276.408
 878  4166.304
 879  4315.776
 880  4099.893
 881  4070.516
 882  4162.882
 883  4530.502
 884  4717.159
 885  4809.361
 886  4614.046
 887  4225.369
 888  3925.745
 889  3633.826
 890  3777.941
 891  3649.167
 892  3645.138
 893  3855.793
 894  4315.237
 895  4404.073
 896  4371.231
 897  4473.426
 898  4609.875
 899  4712.326
 900  4913.851
 901  5185.337
 902  4871.274
 903  4599.929
 904  4237.069
 905  4128.407
 906  3822.794
 907  3700.445
 908  3880.128
 909  3727.296
 910  3759.012
 911  3637.105
 912  3902.867
 913  3910.343
 914  4007.074
 915  4479.647
 916  4773.358
 917  4567.96
 918  4529.309
 919  4355.583
 920  4241.231
 921  3839.615
 922  3355.34
 923  3198.116
 924  3022.376
 925  3430.569
 926  3456.247
 927  3477.705
 928  3552.745
 929  3708.892
 930  3970.99
 931  4202.17
 932  4585.321
 933  4851.595
 934  4710.308
 935  4619.591
 936  4339.106
 937  4064.472
 938  3784.905
 939  3574.484
 940  3561.836
 941  3166.974
 942  3217.388
 943  3312.98
 944  3457.071
 945  3839.922
 946  3791.76
 947  3983.969
 948  3956.417
 949  4280.168
 950  4820.857
 951  4970.464
 952  4637.243
 953  4372.408
 954  3622.159
 955  3361.08
 956  3169.302
 957  3284.471
 958  3468.151
 959  3379.593
 960  3650.992
 961  3720.869
 962  3831.665
 963  3922.352
 964  4074.552
 965  4555.12
 966  4908.785
 967  5010.846
 968  5069.683
 969  4817.019
 970  4660.647
 971  4365.59
 972  4043.083
 973  3816.144
 974  3754.969
 975  4171.424
 976  3983.133
 977  4048.031
 978  3718.296
 979  3692.359
 980  3900.911
 981  4107.419
 982  4220.552
 983  4458.665
 984  4688.746
 985  4522.084
 986  4134.565
 987  3749.022
 988  3879.802
 989  3637.483
 990  3709.377
 991  3660.128
 992  3778.821
 993  3574.556
 994  3506.531
 995  3602.526
 996  3978.488
 997  4045.711
 998  4460.003
 999  4772.325
1000  4906.34
1001  4893.247
1002  4662.808
1003  4661.851
1004  4232.022
1005  4135.022
1006  3921.022
1007  3871.63
1008  3800.078
1009  3850.617
1010  3907.926
1011  3665.135
1012  3757.665
1013  3856.023
1014  4101.853
1015  4253.071
1016  4577.395
1017  4554.899
1018  4574.834
1019  4187.533
1020  3872.777
1021  3704.453
1022  3415.277
1023  3621.693
