# Input file       =  1205755380.118942-PSRB0329-2ms-sampling-dd.dat
# Candidate        =  PSR_0332+5434
# Telescope        =  AR
# Epoch_topo       =  58199.502304617381
# Epoch_bary       =  N/A
# T_sample         =  0.002
# Data Folded      =  7340032
# Data Avg         =  4.85188017111235e-10
# Data StdDev      =  7.01928009004492 
# Profile Bins     =  512
# Profile Avg      =  1.78168115200647 
# Profile StdDev   =  840.439718360059 
# Reduced chi-sqr  =  0.697
# Prob(Noise)      <  1   (~0.0 sigma)
# P_topo (ms)      =  714.574640602305  +/- 0.000683
# P'_topo (s/s)    =  -0                +/- 3.6e-10
# P''_topo (s/s^2) =  0                 +/- 1.59e-13
# P_bary (ms)      =  N/A
# P'_bary (s/s)    =  N/A
# P''_bary (s/s^2) =  N/A
# P_orb (s)        =  N/A
# asin(i)/c (s)    =  N/A
# eccentricity     =  N/A
# w (rad)          =  N/A
# T_peri           =  N/A
######################################################
   0  -755.2184
   1  -940.6766
   2  -1046.334
   3  -820.7784
   4  -730.0462
   5  -563.2811
   6  -210.9371
   7  41.92485
   8  -21.00839
   9  -351.647
  10  119.6653
  11  -217.7996
  12  -577.4009
  13  -500.7485
  14  -628.3777
  15  -307.2027
  16  -179.7538
  17  -18.82281
  18  -363.673
  19  -729.0632
  20  -971.5505
  21  -952.5205
  22  -660.0278
  23  -612.5526
  24  -560.5582
  25  -820.007
  26  -884.582
  27  -1074.155
  28  -739.9053
  29  -586.2338
  30  -993.9258
  31  -1086.228
  32  -1188.309
  33  -973.923
  34  -1356.013
  35  -756.6257
  36  -285.2128
  37  -414.3501
  38  -451.2019
  39  -667.9622
  40  -610.0044
  41  -318.0913
  42  -367.5296
  43  -182.8257
  44  -81.1611
  45  -52.85894
  46  -210.7603
  47  -485.5509
  48  -356.9976
  49  -378.7622
  50  -592.5859
  51  -640.1029
  52  -251.5371
  53  154.4982
  54  242.1263
  55  -298.8362
  56  -313.0898
  57  -156.8738
  58  -359.1577
  59  -580.6609
  60  -187.3218
  61  13.83987
  62  -290.6937
  63  -361.3968
  64  -307.5078
  65  -557.7122
  66  -637.704
  67  -697.2662
  68  -833.4764
  69  -845.2219
  70  -450.4784
  71  -412.6043
  72  -205.2586
  73  -42.88346
  74  -545.0521
  75  -450.4796
  76  -370.5727
  77  -143.4682
  78  -2.938258
  79  -209.7972
  80  -168.4561
  81  -465.1339
  82  -419.7721
  83  -348.1189
  84  203.0738
  85  330.2987
  86  333.4151
  87  258.2781
  88  152.6741
  89  117.5946
  90  168.0379
  91  200.8577
  92  -109.7959
  93  3.922328
  94  43.84876
  95  359.4037
  96  530.5727
  97  243.0304
  98  -7.173809
  99  201.4119
 100  476.7846
 101  341.9564
 102  288.3496
 103  492.3314
 104  502.7167
 105  171.3302
 106  105.8083
 107  152.9521
 108  169.7699
 109  -18.3053
 110  -130.9361
 111  -327.7009
 112  -238.9704
 113  -529.1408
 114  102.1072
 115  98.22353
 116  335.3301
 117  42.11284
 118  7.074911
 119  -83.47736
 120  16.29458
 121  -12.61066
 122  -84.57419
 123  -200.9116
 124  1.015543
 125  90.3936
 126  -192.5268
 127  -176.6637
 128  -189.6301
 129  -31.24171
 130  -236.7717
 131  -217.0518
 132  -287.4158
 133  -601.0004
 134  -142.0506
 135  104.7238
 136  -41.71307
 137  -298.3669
 138  160.8097
 139  428.303
 140  407.9269
 141  437.1714
 142  238.3906
 143  173.5352
 144  262.3893
 145  216.6875
 146  343.1572
 147  457.5049
 148  35.25104
 149  373.3741
 150  430.1769
 151  153.6928
 152  190.4827
 153  196.2718
 154  -284.7887
 155  -554.2845
 156  -172.8336
 157  67.6907
 158  66.11938
 159  -250.8079
 160  -225.47
 161  -163.0677
 162  -348.3713
 163  -359.5141
 164  -457.9941
 165  -5.23531
 166  -119.2896
 167  15.65702
 168  468.5336
 169  769.7988
 170  178.3922
 171  -22.3576
 172  306.572
 173  593.5959
 174  702.8831
 175  761.272
 176  603.6163
 177  704.895
 178  394.3675
 179  249.0441
 180  -5.396785
 181  319.2834
 182  -2.59969
 183  -229.5037
 184  -17.20641
 185  -494.7125
 186  -314.7353
 187  -478.265
 188  -467.5802
 189  -390.9897
 190  -346.3282
 191  -103.8779
 192  -188.2147
 193  -225.112
 194  -379.4694
 195  -513.6277
 196  -262.4665
 197  -147.1404
 198  -136.0069
 199  -69.58352
 200  459.4813
 201  930.2546
 202  483.9887
 203  438.7732
 204  -98.04668
 205  155.3127
 206  109.0235
 207  339.7731
 208  605.2156
 209  599.8002
 210  597.306
 211  455.3019
 212  650.7612
 213  521.1192
 214  426.8487
 215  266.0154
 216  35.25705
 217  115.7691
 218  313.7812
 219  385.2953
 220  210.1141
 221  -270.1723
 222  101.1043
 223  -125.2382
 224  -125.8362
 225  -134.2932
 226  -198.8715
 227  -125.3561
 228  -335.1871
 229  -319.1172
 230  -20.08714
 231  -143.4513
 232  -178.3345
 233  179.8438
 234  312.5876
 235  556.7918
 236  -67.79062
 237  56.13905
 238  447.683
 239  730.2866
 240  475.9388
 241  658.361
 242  760.4089
 243  662.2114
 244  336.4629
 245  182.3255
 246  384.8704
 247  247.7237
 248  30.70431
 249  -113.2629
 250  51.2148
 251  155.9231
 252  123.1794
 253  312.9237
 254  422.9638
 255  381.4942
 256  509.7508
 257  509.4915
 258  754.2687
 259  609.6301
 260  677.7454
 261  478.9496
 262  618.382
 263  906.8739
 264  1107.712
 265  1081.354
 266  798.8288
 267  784.3818
 268  708.896
 269  718.6022
 270  789.3431
 271  1077.712
 272  1211.186
 273  857.4005
 274  544.276
 275  621.4205
 276  434.1091
 277  565.632
 278  522.8297
 279  349.6162
 280  626.1401
 281  654.0331
 282  308.8649
 283  447.1068
 284  256.2857
 285  -45.22553
 286  374.2193
 287  176.694
 288  -72.54425
 289  -32.79958
 290  -152.1802
 291  -265.136
 292  -141.2509
 293  109.7502
 294  -99.5059
 295  -90.22271
 296  350.2881
 297  605.3351
 298  294.1862
 299  293.5854
 300  -51.73418
 301  -341.8102
 302  -181.2415
 303  -142.1918
 304  84.66381
 305  399.4557
 306  447.6798
 307  322.5624
 308  142.1168
 309  -3.307017
 310  290.5432
 311  297.4233
 312  -76.92789
 313  -159.9227
 314  -355.7148
 315  -292.4275
 316  136.247
 317  429.6737
 318  -12.72335
 319  -339.6059
 320  -577.3441
 321  -149.2168
 322  -496.3023
 323  -445.4468
 324  -270.2766
 325  -340.2224
 326  -334.9268
 327  -548.202
 328  -443.1827
 329  -568.9823
 330  -422.8839
 331  -149.2131
 332  -243.3685
 333  25.91462
 334  52.22509
 335  -249.0966
 336  -289.5121
 337  -82.75328
 338  -209.8756
 339  -382.8204
 340  -455.0384
 341  -139.2338
 342  -42.5499
 343  73.29426
 344  -149.0795
 345  -654.2635
 346  -783.257
 347  -389.2453
 348  -392.1817
 349  -543.5195
 350  -547.3842
 351  -520.4067
 352  -663.9232
 353  -705.1965
 354  -367.6921
 355  -382.9964
 356  -50.58899
 357  195.4754
 358  -228.2567
 359  -80.58567
 360  5.718691
 361  201.4776
 362  470.5348
 363  772.6147
 364  766.7573
 365  775.2342
 366  303.6058
 367  106.0094
 368  241.262
 369  338.519
 370  720.7278
 371  447.9858
 372  493.4581
 373  556.3628
 374  423.8895
 375  388.8358
 376  140.5257
 377  627.7714
 378  1204.578
 379  1280.166
 380  1877.642
 381  1955.704
 382  2493.906
 383  2514.309
 384  2477.39
 385  1851.883
 386  1002.973
 387  480.9249
 388  -122.1522
 389  -620.8136
 390  -426.8768
 391  -281.1207
 392  51.92157
 393  49.16529
 394  35.8365
 395  368.7918
 396  367.5398
 397  149.2695
 398  170.7602
 399  644.3539
 400  795.1492
 401  500.0886
 402  220.8928
 403  121.7724
 404  -265.1062
 405  84.31172
 406  -87.39217
 407  -250.6542
 408  -136.9138
 409  -161.2381
 410  -259.8931
 411  -203.2403
 412  -168.3623
 413  -15.17484
 414  -42.13526
 415  309.898
 416  116.5135
 417  27.73995
 418  -247.4675
 419  -381.6574
 420  -367.8192
 421  -304.8421
 422  -290.9816
 423  -401.9048
 424  -821.0653
 425  -926.4696
 426  -898.7481
 427  -799.1497
 428  -749.3857
 429  -816.5556
 430  -740.1443
 431  -560.1102
 432  -846.3017
 433  -692.3339
 434  -637.7122
 435  -333.0966
 436  -677.7305
 437  -574.8613
 438  -886.698
 439  -696.0895
 440  -716.1826
 441  -500.6163
 442  -636.4496
 443  -473.0322
 444  -184.4834
 445  -374.9473
 446  -423.741
 447  -581.7415
 448  -410.88
 449  -573.7992
 450  -473.9427
 451  -359.7816
 452  -129.3792
 453  -97.29043
 454  618.3879
 455  989.1564
 456  768.2078
 457  728.5909
 458  559.8643
 459  203.4227
 460  215.9963
 461  409.697
 462  434.4554
 463  -175.0039
 464  248.744
 465  73.82906
 466  226.0307
 467  140.3019
 468  -369.0497
 469  -395.9457
 470  -464.1125
 471  -84.68772
 472  -306.5232
 473  -385.2568
 474  -68.71659
 475  89.69205
 476  71.98611
 477  -114.479
 478  93.40113
 479  97.69316
 480  197.7519
 481  200.2781
 482  -2.114775
 483  104.234
 484  -134.1177
 485  -34.94029
 486  202.1525
 487  254.4767
 488  385.378
 489  516.7217
 490  590.0782
 491  464.5062
 492  360.7108
 493  323.3122
 494  105.8825
 495  51.69197
 496  601.5596
 497  498.6182
 498  248.7265
 499  451.2722
 500  598.1711
 501  341.2622
 502  137.6124
 503  295.7129
 504  150.6152
 505  -264.4174
 506  -431.1354
 507  -782.9147
 508  -537.3962
 509  -503.0098
 510  -521.5205
 511  -601.2916
