# Input file       =  1205152155.100529_cleaned.dat
# Candidate        =  PSR_0332+5434
# Telescope        =  AR
# Epoch_topo       =  58192.520533570940
# Epoch_bary       =  N/A
# T_sample         =  0.002
# Data Folded      =  7340032
# Data Avg         =  0.21002927435932 
# Data StdDev      =  5.37349883228354 
# Profile Bins     =  256
# Profile Avg      =  6022.32823845776 
# Profile StdDev   =  909.884261153167 
# Reduced chi-sqr  =  1.302
# Prob(Noise)      <  0.000824   (~3.1 sigma)
# P_topo (ms)      =  714.577425549599  +/- 0.000219
# P'_topo (s/s)    =  -0                +/- 1.16e-10
# P''_topo (s/s^2) =  0                 +/- 5.11e-14
# P_bary (ms)      =  N/A
# P'_bary (s/s)    =  N/A
# P''_bary (s/s^2) =  N/A
# P_orb (s)        =  N/A
# asin(i)/c (s)    =  N/A
# eccentricity     =  N/A
# w (rad)          =  N/A
# T_peri           =  N/A
######################################################
   0  6456.104
   1  7125.604
   2  7148.757
   3  5423.156
   4  5188.878
   5  6291.39
   6  6391.437
   7  6322.111
   8  6140.59
   9  6679.812
  10  6931.886
  11  6642.866
  12  5887.16
  13  6720.779
  14  6653.089
  15  7202.076
  16  6515.396
  17  6784.665
  18  5700.175
  19  5344.359
  20  6082.84
  21  5809.399
  22  5888.99
  23  6101.103
  24  5201.426
  25  5171.362
  26  5005.769
  27  5827.761
  28  6074.075
  29  4128.622
  30  5477.236
  31  6056.432
  32  5896.708
  33  6243.598
  34  6266.823
  35  5494.554
  36  5128.713
  37  6044.277
  38  6699.207
  39  7509.609
  40  6423.902
  41  6225.189
  42  6186.035
  43  6721.721
  44  6858.494
  45  7003.928
  46  7488.952
  47  7334.875
  48  5936.292
  49  4959.325
  50  5379.643
  51  5148.202
  52  5708.75
  53  6024.555
  54  6772.112
  55  5637.406
  56  6060.27
  57  5182.354
  58  4493.022
  59  5039.36
  60  5646.001
  61  5977.977
  62  6089.312
  63  4880.045
  64  6173.809
  65  6379.268
  66  5423.897
  67  4637.533
  68  4859.632
  69  4725.271
  70  4956.393
  71  4767.084
  72  4029.274
  73  4565.868
  74  4528.668
  75  5054.328
  76  5150.336
  77  5212.756
  78  5573.462
  79  6498.131
  80  5201.396
  81  6144.047
  82  5487.977
  83  6433.9
  84  5598.806
  85  7006.083
  86  7246.266
  87  6249.383
  88  5243.418
  89  6064.843
  90  6068.71
  91  3795.951
  92  4705.268
  93  5487.259
  94  5205.706
  95  5490.09
  96  5306.09
  97  6111.312
  98  5572.854
  99  5041.501
 100  4641.791
 101  4574.824
 102  4178.7
 103  5127.308
 104  6227.229
 105  5781.505
 106  5138.987
 107  5780.326
 108  4091.66
 109  5141.152
 110  6028.26
 111  5861.375
 112  5147.623
 113  5932.808
 114  6320.864
 115  5680.895
 116  5296.756
 117  5339.655
 118  5808.934
 119  5241.04
 120  5220.25
 121  5584.559
 122  5508.011
 123  5885.067
 124  5325.075
 125  5016.675
 126  5536.758
 127  4799.061
 128  5334.112
 129  5376.096
 130  4676.639
 131  5445.153
 132  5250.562
 133  5670.462
 134  5636.648
 135  5546.785
 136  5734.24
 137  6080.162
 138  5819.512
 139  6260.642
 140  6098.828
 141  5407.285
 142  5870.41
 143  6668.857
 144  5017.014
 145  5513.18
 146  6870.465
 147  7145.187
 148  7353.484
 149  7313.728
 150  8423.091
 151  9170.214
 152  10542.3
 153  9261.964
 154  6923.195
 155  7093.961
 156  5149.745
 157  5666.634
 158  6031.97
 159  5664.862
 160  5914.684
 161  7534.202
 162  6948.074
 163  5732.581
 164  6572.961
 165  6147.307
 166  5473.917
 167  6283.936
 168  4560.562
 169  4907.276
 170  4681.234
 171  5316.373
 172  6626.104
 173  5293.865
 174  6499.159
 175  5941.336
 176  6254.567
 177  5351.932
 178  5018.138
 179  6469.401
 180  6153.845
 181  6744.529
 182  6324.664
 183  7345.851
 184  6580.711
 185  6163.554
 186  7268.639
 187  5755.175
 188  5951.403
 189  5716.521
 190  6402.669
 191  7406.538
 192  6398.175
 193  6066.681
 194  5740.438
 195  5991.361
 196  5923.453
 197  6836.654
 198  6537.044
 199  6220.588
 200  6853.648
 201  6380.916
 202  5384.964
 203  6590.615
 204  5157.973
 205  5734.774
 206  5967.609
 207  6153.559
 208  7608.068
 209  6971.747
 210  6019.53
 211  7029.172
 212  6667.248
 213  6426.07
 214  6766.448
 215  7056.18
 216  5349.593
 217  5173.482
 218  5799.929
 219  6266.586
 220  5360.297
 221  5523.053
 222  6993.871
 223  6010.644
 224  7261.568
 225  7142.498
 226  6859.084
 227  6242.961
 228  5779.884
 229  7044.463
 230  5887.324
 231  5883.68
 232  6173.284
 233  7165.828
 234  7085.688
 235  5699.804
 236  7935.878
 237  7959.156
 238  7009.426
 239  6984.131
 240  6785.546
 241  7084.186
 242  5665.188
 243  6265.339
 244  6417.718
 245  5369.847
 246  5456.554
 247  5990.071
 248  5871.133
 249  6119.085
 250  6126.462
 251  7628.038
 252  7198.1
 253  7168.497
 254  6477.078
 255  6608.834
