# Input file       =  1205080843.115398_cleaned.dat
# Candidate        =  PSR_0332+5434
# Telescope        =  AR
# Epoch_topo       =  58191.695163372664
# Epoch_bary       =  N/A
# T_sample         =  0.002
# Data Folded      =  7340032
# Data Avg         =  0.0308709098847577
# Data StdDev      =  1.00006285134942 
# Profile Bins     =  512
# Profile Avg      =  442.568928320489 
# Profile StdDev   =  119.740561759672 
# Reduced chi-sqr  =  1.742
# Prob(Noise)      <  6.13e-23   (~9.8 sigma)
# P_topo (ms)      =  714.578031289669  +/- 0.000474
# P'_topo (s/s)    =  -0                +/- 2.5e-10
# P''_topo (s/s^2) =  0                 +/- 1.1e-13
# P_bary (ms)      =  N/A
# P'_bary (s/s)    =  N/A
# P''_bary (s/s^2) =  N/A
# P_orb (s)        =  N/A
# asin(i)/c (s)    =  N/A
# eccentricity     =  N/A
# w (rad)          =  N/A
# T_peri           =  N/A
######################################################
   0  1259.01
   1  1072.625
   2  890.5717
   3  726.8173
   4  582.6883
   5  521.0119
   6  401.6135
   7  408.26
   8  422.1196
   9  528.1508
  10  677.9153
  11  589.2334
  12  608.3378
  13  604.6492
  14  564.4189
  15  547.4581
  16  450.8982
  17  397.9748
  18  385.6716
  19  389.9441
  20  455.7096
  21  649.7999
  22  487.8165
  23  457.1882
  24  548.2651
  25  509.9967
  26  544.4045
  27  546.781
  28  450.153
  29  317.4125
  30  350.1577
  31  413.9258
  32  388.6358
  33  478.4237
  34  458.6133
  35  575.7406
  36  403.2294
  37  352.6035
  38  398.1559
  39  439.7019
  40  506.2502
  41  516.0068
  42  496.9502
  43  505.2075
  44  487.3517
  45  453.241
  46  451.9192
  47  471.8395
  48  493.6047
  49  454.1914
  50  388.0054
  51  418.7042
  52  548.2295
  53  573.306
  54  491.5793
  55  526.1646
  56  496.4627
  57  498.8131
  58  588.7987
  59  519.7591
  60  559.5081
  61  490.632
  62  532.8971
  63  565.2622
  64  502.5231
  65  530.3942
  66  529.8647
  67  522.2026
  68  634.2994
  69  627.7701
  70  510.3335
  71  526.382
  72  476.4615
  73  470.6626
  74  511.1585
  75  549.7743
  76  569.4855
  77  489.2143
  78  472.0028
  79  455.1197
  80  446.3322
  81  455.3708
  82  569.2201
  83  541.9655
  84  476.0785
  85  507.3886
  86  589.8984
  87  504.7977
  88  509.8301
  89  534.6022
  90  447.0076
  91  453.8792
  92  484.7606
  93  445.0374
  94  444.0057
  95  464.0185
  96  492.8716
  97  518.2474
  98  456.1595
  99  471.3531
 100  417.6311
 101  418.1261
 102  476.4692
 103  435.3073
 104  468.4156
 105  519.7158
 106  529.4561
 107  480.2077
 108  470.318
 109  471.5788
 110  435.112
 111  515.9567
 112  569.2433
 113  418.1859
 114  440.4128
 115  453.4243
 116  438.6342
 117  492.1349
 118  433.5432
 119  408.6822
 120  514.4345
 121  499.7744
 122  417.4055
 123  418.2609
 124  530.2311
 125  529.6371
 126  512.1739
 127  453.0016
 128  431.3157
 129  374.7729
 130  410.6779
 131  431.0543
 132  441.9343
 133  466.5581
 134  492.1458
 135  483.8781
 136  380.5457
 137  313.7146
 138  305.9866
 139  354.2028
 140  317.7323
 141  373.9083
 142  421.5604
 143  508.4118
 144  624.4128
 145  513.0984
 146  421.3416
 147  317.7812
 148  357.0015
 149  392.1488
 150  449.8535
 151  542.1614
 152  441.2889
 153  412.29
 154  458.1125
 155  467.843
 156  394.6806
 157  364.121
 158  376.3293
 159  425.2431
 160  489.4465
 161  495.534
 162  386.4908
 163  484.2429
 164  413.0603
 165  359.4356
 166  452.6587
 167  435.5066
 168  559.9587
 169  519.3356
 170  581.2325
 171  541.0883
 172  499.4274
 173  685.8494
 174  646.8023
 175  577.3948
 176  519.482
 177  561.5327
 178  420.1203
 179  407.1451
 180  502.5656
 181  550.3138
 182  552.1078
 183  374.6341
 184  396.3445
 185  308.0504
 186  303.6454
 187  313.0149
 188  441.1569
 189  445.0476
 190  462.139
 191  412.8312
 192  356.9352
 193  441.4121
 194  630.298
 195  523.338
 196  447.5388
 197  484.9492
 198  543.6679
 199  532.4752
 200  494.9014
 201  455.1061
 202  497.1407
 203  503.2125
 204  525.0411
 205  481.5266
 206  496.1045
 207  504.7962
 208  509.1685
 209  444.3708
 210  510.3531
 211  521.0659
 212  483.0096
 213  345.0722
 214  396.6912
 215  428.5468
 216  441.9541
 217  350.0688
 218  282.6217
 219  470.2312
 220  436.391
 221  371.4103
 222  398.8224
 223  330.608
 224  420.3503
 225  487.7248
 226  363.6567
 227  211.4647
 228  272.1063
 229  284.1089
 230  444.0585
 231  403.5597
 232  460.7956
 233  454.7605
 234  415.2269
 235  429.7428
 236  448.772
 237  531.4985
 238  469.3016
 239  452.5755
 240  457.9625
 241  532.789
 242  454.1343
 243  388.9709
 244  393.9468
 245  494.5331
 246  456.6295
 247  504.4839
 248  467.7651
 249  496.4958
 250  537.368
 251  500.371
 252  357.6069
 253  315.7045
 254  391.0186
 255  376.7463
 256  418.3576
 257  537.7898
 258  435.5872
 259  418.9853
 260  521.6787
 261  449.9881
 262  486.5197
 263  451.0497
 264  377.2643
 265  339.1483
 266  324.4001
 267  368.0832
 268  339.0273
 269  408.5678
 270  507.3046
 271  324.0956
 272  374.3034
 273  429.1865
 274  354.5973
 275  408.0877
 276  417.4269
 277  390.9649
 278  402.8432
 279  386.5699
 280  308.7498
 281  269.5366
 282  292.0525
 283  354.8525
 284  419.1183
 285  355.6288
 286  409.6903
 287  413.9309
 288  442.4623
 289  444.7896
 290  384.378
 291  352.3477
 292  367.0388
 293  345.3261
 294  357.1913
 295  348.1214
 296  376.8396
 297  330.9799
 298  365.5676
 299  396.6643
 300  371.7667
 301  361.2929
 302  389.3469
 303  343.2422
 304  344.5567
 305  319.2394
 306  255.2955
 307  271.2048
 308  217.9472
 309  208.5977
 310  280.1306
 311  459.0041
 312  447.7617
 313  325.528
 314  294.335
 315  278.3764
 316  201.1666
 317  232.8106
 318  383.2098
 319  351.7431
 320  467.7303
 321  378.3155
 322  294.1581
 323  420.7604
 324  453.8935
 325  400.7717
 326  325.2489
 327  396.2086
 328  529.7157
 329  399.4624
 330  382.6421
 331  456.1186
 332  333.7767
 333  400.4642
 334  274.8111
 335  401.4004
 336  513.5049
 337  361.0632
 338  304.3755
 339  437.6994
 340  265.7711
 341  297.167
 342  388.493
 343  409.2007
 344  369.717
 345  370.2041
 346  475.6322
 347  510.0163
 348  448.1853
 349  437.7885
 350  452.5605
 351  467.4858
 352  447.0021
 353  404.6126
 354  390.0621
 355  507.7485
 356  411.7989
 357  421.5998
 358  355.0844
 359  295.8387
 360  378.4934
 361  402.4741
 362  328.0335
 363  360.3972
 364  353.5367
 365  345.3401
 366  436.9271
 367  314.5063
 368  338.4054
 369  369.7509
 370  337.4964
 371  445.362
 372  460.0792
 373  291.0629
 374  212.8454
 375  240.0594
 376  366.5377
 377  447.4011
 378  339.1134
 379  206.6922
 380  272.2266
 381  370.1642
 382  249.8975
 383  349.5163
 384  399.514
 385  485.7098
 386  428.8233
 387  423.3063
 388  267.2382
 389  332.1604
 390  333.6919
 391  353.1041
 392  346.1119
 393  419.272
 394  387.3704
 395  412.9072
 396  368.1523
 397  346.9476
 398  331.2556
 399  447.8635
 400  357.9022
 401  357.377
 402  456.8732
 403  429.9801
 404  337.5963
 405  263.6805
 406  290.8131
 407  263.635
 408  353.2971
 409  310.0654
 410  280.6326
 411  268.4636
 412  318.0703
 413  416.4604
 414  287.4275
 415  294.7001
 416  232.9905
 417  231.7881
 418  291.7717
 419  452.5247
 420  427.4925
 421  380.2447
 422  327.8508
 423  364.3828
 424  357.3465
 425  372.4341
 426  352.1283
 427  442.4666
 428  405.073
 429  412.1788
 430  488.5876
 431  416.1584
 432  422.3549
 433  399.1631
 434  345.824
 435  340.4133
 436  427.2285
 437  330.4285
 438  324.4206
 439  331.9487
 440  367.3129
 441  321.3026
 442  496.8802
 443  415.2464
 444  405.75
 445  336.3898
 446  336.3024
 447  346.0721
 448  212.1782
 449  432.1485
 450  496.5134
 451  576.9417
 452  493.4672
 453  501.0467
 454  412.9841
 455  351.8602
 456  432.6659
 457  446.3173
 458  481.3615
 459  475.9062
 460  553.6729
 461  565.093
 462  483.2641
 463  465.6544
 464  426.4885
 465  478.636
 466  505.5384
 467  550.8131
 468  455.3563
 469  467.0163
 470  492.7234
 471  510.5954
 472  471.7059
 473  464.6909
 474  505.9286
 475  530.8557
 476  566.0459
 477  582.0422
 478  567.8424
 479  456.5814
 480  401.1732
 481  522.5645
 482  466.9894
 483  375.5461
 484  492.2203
 485  578.2838
 486  497.7252
 487  496.7819
 488  579.6776
 489  535.4302
 490  539.8967
 491  524.8771
 492  460.7096
 493  550.4601
 494  565.0248
 495  509.288
 496  444.6479
 497  461.2469
 498  510.1839
 499  532.4022
 500  426.5483
 501  435.0478
 502  406.4319
 503  586.5084
 504  660.6426
 505  600.4263
 506  672.5654
 507  798.7686
 508  731.7273
 509  968.1986
 510  1117.763
 511  1113.203
