# Input file       =  1205080843.115398-PSRB0329-2ms-sampling-dd.dat
# Candidate        =  PSR_0332+5434
# Telescope        =  AR
# Epoch_topo       =  58191.695163372664
# Epoch_bary       =  N/A
# T_sample         =  0.002
# Data Folded      =  7340032
# Data Avg         =  -5.43861590597307e-10
# Data StdDev      =  7.18051938198539 
# Profile Bins     =  512
# Profile Avg      =  0.1923135500647  
# Profile StdDev   =  859.745388367331 
# Reduced chi-sqr  =  1.042
# Prob(Noise)      <  0.249   (~0.7 sigma)
# P_topo (ms)      =  714.578032086114  +/- 0.000506
# P'_topo (s/s)    =  -0                +/- 2.67e-10
# P''_topo (s/s^2) =  0                 +/- 1.18e-13
# P_bary (ms)      =  N/A
# P'_bary (s/s)    =  N/A
# P''_bary (s/s^2) =  N/A
# P_orb (s)        =  N/A
# asin(i)/c (s)    =  N/A
# eccentricity     =  N/A
# w (rad)          =  N/A
# T_peri           =  N/A
######################################################
   0  -457.8307
   1  -745.4784
   2  -1014.937
   3  -1092.212
   4  -734.8289
   5  -520.1717
   6  -503.0778
   7  -762.2675
   8  -528.6327
   9  -791.884
  10  -764.0521
  11  -380.0821
  12  -548.229
  13  -498.1834
  14  -273.7718
  15  -160.5416
  16  -744.4518
  17  -344.8765
  18  -1080.93
  19  -875.4066
  20  -613.8812
  21  -422.1068
  22  -883.4442
  23  -796.0751
  24  -784.7055
  25  -685.2758
  26  -692.9174
  27  -890.0926
  28  -1050.495
  29  -1396.201
  30  -647.7966
  31  -510.3621
  32  -185.6559
  33  -289.2696
  34  -184.4096
  35  -305.4023
  36  -117.7784
  37  10.18343
  38  -175.2624
  39  266.6611
  40  697.259
  41  904.8393
  42  447.3441
  43  465.9084
  44  704.9376
  45  731.4207
  46  879.1411
  47  662.7131
  48  916.5661
  49  858.9452
  50  850.0536
  51  1013.152
  52  579.4581
  53  367.6712
  54  183.1667
  55  241.5473
  56  716.0834
  57  522.9666
  58  677.8442
  59  704.3715
  60  460.5796
  61  160.4693
  62  409.9574
  63  456.6833
  64  0.4057617
  65  285.1763
  66  431.7772
  67  -8.379128
  68  103.3622
  69  133.5923
  70  264.3207
  71  415.0241
  72  122.6846
  73  -126.7296
  74  -259.5352
  75  -76.42703
  76  -164.4047
  77  -354.0669
  78  -158.9333
  79  -159.6087
  80  -222.6487
  81  -358.2609
  82  -443.1038
  83  -173.9281
  84  581.0433
  85  1264.171
  86  1419.096
  87  1112.023
  88  1868.702
  89  1619.872
  90  2434.07
  91  3105.121
  92  3441.204
  93  3567.558
  94  3344.392
  95  2431.429
  96  1779.442
  97  844.204
  98  634.8965
  99  270.6552
 100  222.1322
 101  193.9328
 102  428.0456
 103  1052.806
 104  770.0231
 105  975.3986
 106  796.3057
 107  939.9747
 108  845.6657
 109  533.9625
 110  204.0366
 111  92.78251
 112  284.6447
 113  398.6099
 114  517.1202
 115  276.5706
 116  38.50304
 117  612.9732
 118  433.6082
 119  270.8304
 120  459.7122
 121  729.5461
 122  214.1022
 123  -371.1283
 124  -239.1915
 125  -280.8319
 126  166.6346
 127  382.5157
 128  394.8848
 129  -45.75939
 130  -388.1546
 131  -651.1744
 132  -354.894
 133  188.9127
 134  825.3062
 135  1236.822
 136  814.2359
 137  146.6493
 138  109.3346
 139  291.5074
 140  192.5768
 141  43.26459
 142  141.1388
 143  317.8964
 144  186.9683
 145  559.9363
 146  783.7889
 147  667.83
 148  440.6558
 149  357.2954
 150  242.7702
 151  305.8261
 152  353.3792
 153  759.3207
 154  724.2311
 155  604.0679
 156  591.1295
 157  438.5402
 158  279.5968
 159  747.0556
 160  549.0206
 161  639.7592
 162  923.2137
 163  456.2537
 164  176.8864
 165  167.8265
 166  87.23743
 167  435.3236
 168  808.9374
 169  1189.948
 170  704.9504
 171  409.2766
 172  357.2314
 173  473.7303
 174  889.7659
 175  1424.055
 176  1315.437
 177  1076.508
 178  937.5866
 179  1300.806
 180  1142.552
 181  617.98
 182  664.0967
 183  608.2372
 184  593.7354
 185  467.4616
 186  380.8589
 187  469.8319
 188  615.0986
 189  529.9621
 190  310.6052
 191  -11.18049
 192  -391.6566
 193  -625.7001
 194  -457.6029
 195  -83.76884
 196  -108.4908
 197  -219.9846
 198  -175.2901
 199  -140.3272
 200  -263.7528
 201  32.38917
 202  340.4353
 203  98.15016
 204  235.0867
 205  430.5473
 206  98.65581
 207  163.6767
 208  662.6478
 209  593.2224
 210  439.261
 211  -120.6243
 212  -96.76113
 213  247.7471
 214  157.1009
 215  302.8929
 216  431.965
 217  865.1415
 218  599.8154
 219  384.1175
 220  286.319
 221  151.6674
 222  -468.5445
 223  -626.0404
 224  -4.269433
 225  -281.9426
 226  -136.8622
 227  -416.0291
 228  -293.6407
 229  -567.487
 230  -1085.191
 231  -968.3739
 232  -932.0254
 233  -980.6563
 234  -814.5643
 235  -481.278
 236  311.2459
 237  688.1603
 238  494.9176
 239  -16.1825
 240  -364.0556
 241  -367.3469
 242  -573.4008
 243  -276.1771
 244  91.34526
 245  -70.63616
 246  -223.6871
 247  -171.0073
 248  -127.8815
 249  -314.5485
 250  -567.8734
 251  -604.4431
 252  -569.2036
 253  -59.22144
 254  -84.53246
 255  -71.11539
 256  380.5717
 257  279.068
 258  -149.1111
 259  -67.94306
 260  -151.3993
 261  485.6194
 262  482.2153
 263  952.759
 264  454.2644
 265  -57.67164
 266  217.8049
 267  176.7441
 268  171.4519
 269  381.9193
 270  589.4912
 271  -194.7877
 272  -80.28696
 273  81.23756
 274  -55.49203
 275  -65.5864
 276  -393.5746
 277  -307.0011
 278  -481.2233
 279  -715.1819
 280  -418.6595
 281  -95.20587
 282  -412.2396
 283  -297.3811
 284  -64.04211
 285  -306.9773
 286  -158.4007
 287  472.54
 288  30.41413
 289  -229.6012
 290  -154.5665
 291  276.7587
 292  540.4747
 293  585.0255
 294  108.6924
 295  -137.0618
 296  -19.25444
 297  218.9898
 298  360.5007
 299  243.5634
 300  56.34887
 301  -37.9479
 302  -65.70803
 303  340.2032
 304  266.5308
 305  80.48972
 306  -484.2223
 307  -537.6736
 308  -441.3726
 309  -470.5902
 310  -461.2596
 311  -538.6908
 312  -4.339211
 313  351.2836
 314  184.8117
 315  -108.3964
 316  -662.5115
 317  -370.9322
 318  -186.0709
 319  -472.3326
 320  -982.6179
 321  -746.587
 322  -796.1949
 323  -592.3329
 324  -720.6406
 325  -709.2468
 326  -798.2999
 327  -748.3043
 328  -586.8401
 329  -354.3203
 330  371.578
 331  61.66634
 332  -268.2635
 333  -554.1239
 334  -491.6263
 335  -322.5607
 336  -320.3319
 337  -83.51267
 338  119.4779
 339  203.4333
 340  144.821
 341  324.8877
 342  437.8489
 343  701.4125
 344  614.9527
 345  374.0069
 346  883.2395
 347  784.1858
 348  682.8412
 349  295.5568
 350  640.9746
 351  342.6656
 352  365.6031
 353  943.4411
 354  506.6051
 355  618.8089
 356  409.1362
 357  138.0883
 358  50.00402
 359  -146.8595
 360  -8.823053
 361  -242.0653
 362  -43.40569
 363  45.84725
 364  -310.5547
 365  -282.0777
 366  -208.4526
 367  -548.9667
 368  -454.733
 369  -227.5796
 370  -348.4116
 371  -116.1693
 372  2.542457
 373  -327.5929
 374  -832.8491
 375  -578.2263
 376  -384.0472
 377  -209.3007
 378  -220.3699
 379  51.59695
 380  144.8957
 381  102.5661
 382  153.4639
 383  -211.1064
 384  -420.2681
 385  -251.9569
 386  -146.844
 387  -191.9775
 388  -428.0031
 389  -386.2952
 390  -702.6584
 391  -971.7654
 392  -595.7379
 393  -589.0478
 394  -762.6469
 395  -75.10188
 396  -389.7263
 397  -484.9575
 398  -856.2495
 399  -964.3019
 400  -885.3989
 401  -933.9447
 402  -732.8746
 403  -737.1017
 404  -379.0757
 405  -496.5925
 406  -925.3818
 407  -931.4583
 408  -958.5147
 409  -1235.968
 410  -1013.028
 411  -299.1075
 412  -547.1243
 413  -205.9068
 414  -510.156
 415  -820.4635
 416  -588.7642
 417  -304.9959
 418  -349.233
 419  -785.8757
 420  -6.231133
 421  144.1519
 422  263.2154
 423  -437.642
 424  -184.1877
 425  -187.472
 426  66.82135
 427  -130.6631
 428  -639.3453
 429  196.1575
 430  -297.4104
 431  -860.0862
 432  -423.2718
 433  -812.0007
 434  -794.7241
 435  -713.8347
 436  -702.7446
 437  -893.7328
 438  -941.6353
 439  -330.0572
 440  -3.992426
 441  -645.9193
 442  -537.8397
 443  -480.3251
 444  -162.9655
 445  347.3494
 446  329.7017
 447  290.9303
 448  362.1483
 449  221.6435
 450  121.3717
 451  -104.9034
 452  -640.5186
 453  -621.1287
 454  -238.0229
 455  -151.3226
 456  -477.4587
 457  -465.1215
 458  -538.0426
 459  -345.0146
 460  -553.5026
 461  -351.7982
 462  -68.25036
 463  -195.725
 464  274.5106
 465  783.7484
 466  129.6435
 467  -567.8206
 468  -510.7672
 469  114.7824
 470  405.0345
 471  -37.26595
 472  -630.3673
 473  -475.3107
 474  -111.9497
 475  -645.1068
 476  -438.7619
 477  -493.6808
 478  -183.4179
 479  -325.3634
 480  -109.3699
 481  -405.2513
 482  -439.0949
 483  -679.9857
 484  -386.9936
 485  -315.2418
 486  -595.8044
 487  -475.1246
 488  -589.1987
 489  -132.0079
 490  -85.46638
 491  -451.2603
 492  254.5864
 493  -800.0297
 494  -929.0162
 495  -470.3739
 496  133.506
 497  -63.31469
 498  -411.6558
 499  -591.6378
 500  -847.6789
 501  -427.5922
 502  -443.8763
 503  -462.4201
 504  -400.0258
 505  -586.772
 506  -579.8326
 507  -676.9164
 508  -741.585
 509  -348.4271
 510  -232.1198
 511  -378.0799
