# Input file       =  1205137482.115043_cleaned.dat
# Candidate        =  PSR_0332+5434
# Telescope        =  AR
# Epoch_topo       =  58192.350707350037
# Epoch_bary       =  N/A
# T_sample         =  0.002
# Data Folded      =  7208960
# Data Avg         =  0.118491044235701
# Data StdDev      =  1.00025883077894 
# Profile Bins     =  512
# Profile Avg      =  1668.36329888601 
# Profile StdDev   =  118.68988844043  
# Reduced chi-sqr  =  1.513
# Prob(Noise)      <  5.12e-13   (~7.1 sigma)
# P_topo (ms)      =  714.577470476232  +/- 4.35e-05
# P'_topo (s/s)    =  -0                +/- 2.34e-11
# P''_topo (s/s^2) =  0                 +/- 1.05e-14
# P_bary (ms)      =  N/A
# P'_bary (s/s)    =  N/A
# P''_bary (s/s^2) =  N/A
# P_orb (s)        =  N/A
# asin(i)/c (s)    =  N/A
# eccentricity     =  N/A
# w (rad)          =  N/A
# T_peri           =  N/A
######################################################
   0  1569.515
   1  1517.781
   2  1674.85
   3  1794.82
   4  1851.261
   5  1882.358
   6  1801.171
   7  1890.924
   8  1975.199
   9  2110.743
  10  2060.499
  11  1996.223
  12  1993.276
  13  1896.289
  14  1758.577
  15  1716.237
  16  1667.666
  17  1638.531
  18  1540.664
  19  1626.479
  20  1692.097
  21  1661.681
  22  1647.796
  23  1656.071
  24  1648.549
  25  1720.484
  26  1658.667
  27  1717.036
  28  1771.693
  29  1728.747
  30  1823.701
  31  1717.536
  32  1629.411
  33  1714.048
  34  1715.267
  35  1597.824
  36  1745.666
  37  1825.387
  38  1667.962
  39  1570.657
  40  1569.63
  41  1600.783
  42  1591.471
  43  1573.971
  44  1645.219
  45  1664.659
  46  1729.834
  47  1591.526
  48  1552.866
  49  1661.959
  50  1646.969
  51  1691.03
  52  1696.888
  53  1775.502
  54  1712.795
  55  1591.739
  56  1534.617
  57  1558.818
  58  1556.982
  59  1558.355
  60  1691.107
  61  1833.06
  62  1837.958
  63  1683.354
  64  1680.022
  65  1591.083
  66  1561.166
  67  1557.201
  68  1580.08
  69  1610.053
  70  1723.966
  71  1730.175
  72  1681.455
  73  1611.63
  74  1652.215
  75  1597.667
  76  1618.62
  77  1735.745
  78  1783.803
  79  1893.18
  80  1687.055
  81  1700.423
  82  1712.509
  83  1652.918
  84  1721.198
  85  1730.98
  86  1714.989
  87  1694.983
  88  1634.597
  89  1628.718
  90  1629.436
  91  1710.117
  92  1682.903
  93  1815.002
  94  1903.191
  95  1930.633
  96  1858.048
  97  1796.671
  98  1652.31
  99  1643.281
 100  1701.067
 101  1660.561
 102  1629.051
 103  1679.881
 104  1707.2
 105  1605.304
 106  1514.009
 107  1663.823
 108  1603.541
 109  1566.852
 110  1693.133
 111  1763.905
 112  1737.028
 113  1772.064
 114  1723.046
 115  1641.427
 116  1590.371
 117  1609.084
 118  1619.003
 119  1602.474
 120  1626.026
 121  1667.926
 122  1685.998
 123  1591.615
 124  1534.157
 125  1621.718
 126  1685.526
 127  1762.548
 128  1839.997
 129  1803.083
 130  1663.356
 131  1590.662
 132  1602.263
 133  1473.43
 134  1490.655
 135  1709.164
 136  1749.747
 137  1725.053
 138  1623.009
 139  1631.16
 140  1617.083
 141  1709.822
 142  1636.77
 143  1630.089
 144  1664.946
 145  1737.724
 146  1752.144
 147  1689.6
 148  1613.643
 149  1643.767
 150  1716.739
 151  1660.075
 152  1735.752
 153  1662.266
 154  1715.372
 155  1680.027
 156  1538.31
 157  1562.255
 158  1590.273
 159  1688.322
 160  1836.371
 161  1758.955
 162  1748.861
 163  1674.015
 164  1600.184
 165  1614.591
 166  1620.969
 167  1684.404
 168  1636.553
 169  1644.222
 170  1661.625
 171  1625.276
 172  1483.109
 173  1422.434
 174  1544.53
 175  1568.151
 176  1577.703
 177  1656.785
 178  1733.695
 179  1663.779
 180  1568.639
 181  1489.649
 182  1549.418
 183  1540.829
 184  1514.911
 185  1583.816
 186  1564.57
 187  1499.653
 188  1488.215
 189  1493.547
 190  1694.094
 191  1725.274
 192  1652.646
 193  1763.407
 194  1826.281
 195  1717.969
 196  1591.893
 197  1662.582
 198  1647.319
 199  1631.22
 200  1579.248
 201  1559.508
 202  1649.551
 203  1683.582
 204  1659.199
 205  1503.47
 206  1544.902
 207  1571.234
 208  1474.719
 209  1636.25
 210  1731.812
 211  1752.292
 212  1824.096
 213  1784.063
 214  1693.707
 215  1641.902
 216  1591.262
 217  1488.765
 218  1665.919
 219  1692.437
 220  1598.078
 221  1569.701
 222  1497.819
 223  1523.949
 224  1539.589
 225  1660.938
 226  1828.338
 227  1828.317
 228  1793.561
 229  1722.193
 230  1659.169
 231  1658.88
 232  1574.249
 233  1614.024
 234  1737.006
 235  1700.376
 236  1637.621
 237  1651.949
 238  1656.624
 239  1681.774
 240  1742.43
 241  1763.338
 242  1761.9
 243  1802.533
 244  1798.051
 245  1799.42
 246  1774.052
 247  1729.543
 248  1636.417
 249  1610.395
 250  1561.014
 251  1700.98
 252  1660.664
 253  1694.547
 254  1683.703
 255  1447.929
 256  1485.026
 257  1640.166
 258  1677.958
 259  1746.031
 260  1800.629
 261  1840.521
 262  1768.532
 263  1632.745
 264  1626.967
 265  1649.526
 266  1629.29
 267  1615.854
 268  1656.222
 269  1690.447
 270  1626.687
 271  1581.946
 272  1563.491
 273  1566.524
 274  1573.85
 275  1758.17
 276  1694.176
 277  1701.1
 278  1729.077
 279  1596.628
 280  1595.789
 281  1634.765
 282  1654.997
 283  1574.334
 284  1578.57
 285  1665.479
 286  1526.139
 287  1442.561
 288  1465.046
 289  1477.727
 290  1371.161
 291  1478.505
 292  1615.578
 293  1722.595
 294  1731.78
 295  1656.724
 296  1570.859
 297  1607.995
 298  1587.205
 299  1485.53
 300  1531.476
 301  1614.038
 302  1662.656
 303  1608.163
 304  1493.276
 305  1480.567
 306  1387.845
 307  1454.999
 308  1597.056
 309  1708.455
 310  1793.09
 311  1755.658
 312  1648.837
 313  1583.625
 314  1602.143
 315  1625.69
 316  1655.48
 317  1724.995
 318  1676.919
 319  1564.316
 320  1478.322
 321  1440.556
 322  1409.304
 323  1521.639
 324  1596.307
 325  1633.58
 326  1750.732
 327  1878.06
 328  1773.974
 329  1598.454
 330  1578.177
 331  1604.94
 332  1538.438
 333  1564.61
 334  1681.451
 335  1699.583
 336  1713.243
 337  1668.381
 338  1646.978
 339  1550.374
 340  1623.297
 341  1671.161
 342  1739.496
 343  1797.283
 344  1812.235
 345  1561.996
 346  1499.033
 347  1634.356
 348  1583.827
 349  1570.946
 350  1648.38
 351  1671.234
 352  1630.749
 353  1634.169
 354  1616.288
 355  1587.386
 356  1638.625
 357  1617.864
 358  1777.998
 359  1894.807
 360  1938.69
 361  1858.661
 362  1812.069
 363  1725.9
 364  1720.296
 365  1702.1
 366  1682.82
 367  1666.386
 368  1776.343
 369  1715.976
 370  1572.906
 371  1654.36
 372  1659.816
 373  1575.497
 374  1721.282
 375  1770.136
 376  1889.882
 377  1872.843
 378  1653.085
 379  1691.971
 380  1754.664
 381  1801.588
 382  1716.913
 383  1705.506
 384  1677.665
 385  1625.297
 386  1574.664
 387  1568.331
 388  1636.116
 389  1633.886
 390  1705.885
 391  1771.799
 392  1810.809
 393  1779.128
 394  1665.863
 395  1681.591
 396  1679.56
 397  1591.656
 398  1596.257
 399  1527.402
 400  1577.569
 401  1654.584
 402  1593.035
 403  1639.094
 404  1656.443
 405  1612.876
 406  1674.856
 407  1703.067
 408  1730.842
 409  1770.23
 410  1724.962
 411  1601.04
 412  1561.765
 413  1556.775
 414  1531.64
 415  1536.522
 416  1536.789
 417  1557.924
 418  1492.077
 419  1456.708
 420  1446.944
 421  1408.712
 422  1572.425
 423  1640.579
 424  1769.923
 425  1820.773
 426  1800.604
 427  1706.405
 428  1559.536
 429  1523.323
 430  1587.909
 431  1584.722
 432  1655.153
 433  1599.998
 434  1624.739
 435  1676.361
 436  1607.588
 437  1463.674
 438  1498.542
 439  1532.708
 440  1562.348
 441  1662.15
 442  1767.475
 443  1829.626
 444  1707.283
 445  1648.938
 446  1756.797
 447  1725.051
 448  1605.391
 449  1571.059
 450  1614.745
 451  1780.138
 452  1757.499
 453  1753.448
 454  1750.354
 455  1684.978
 456  1685.287
 457  1813.164
 458  1864.172
 459  1795.867
 460  1744.053
 461  1763.682
 462  1706.743
 463  1721.057
 464  1703.278
 465  1782.568
 466  1865.219
 467  1852.75
 468  1834.487
 469  1721.02
 470  1681.734
 471  1778.404
 472  1796.34
 473  1819.983
 474  1790.649
 475  1795.567
 476  1847.538
 477  1810.304
 478  1713.763
 479  1752.526
 480  1742.264
 481  1629.307
 482  1632.346
 483  1755.301
 484  1740.196
 485  1684.707
 486  1562.998
 487  1609.407
 488  1674.296
 489  1694.535
 490  1722.558
 491  1797.97
 492  1813.361
 493  1749.785
 494  1695.521
 495  1701.506
 496  1730.052
 497  1717.406
 498  1744.434
 499  1756.422
 500  1730.087
 501  1725.809
 502  1713.752
 503  1653.78
 504  1639.307
 505  1676.643
 506  1747.423
 507  1813.477
 508  1834.1
 509  1879.952
 510  1747.042
 511  1722.915
