# Input file       =  1205425822.113558_cleaned.dat
# Candidate        =  PSR_0332+5434
# Telescope        =  AR
# Epoch_topo       =  58195.687975851368
# Epoch_bary       =  N/A
# T_sample         =  0.002
# Data Folded      =  7340032
# Data Avg         =  0.030542800691856
# Data StdDev      =  1.0000777577348  
# Profile Bins     =  512
# Profile Avg      =  437.810086618676 
# Profile StdDev   =  119.742346546456 
# Reduced chi-sqr  =  1.328
# Prob(Noise)      <  8.84e-07   (~4.8 sigma)
# P_topo (ms)      =  714.576604872371  +/- 0.000255
# P'_topo (s/s)    =  -0                +/- 1.34e-10
# P''_topo (s/s^2) =  0                 +/- 5.93e-14
# P_bary (ms)      =  N/A
# P'_bary (s/s)    =  N/A
# P''_bary (s/s^2) =  N/A
# P_orb (s)        =  N/A
# asin(i)/c (s)    =  N/A
# eccentricity     =  N/A
# w (rad)          =  N/A
# T_peri           =  N/A
######################################################
   0  1101.419
   1  1005.27
   2  850.3082
   3  623.2739
   4  406.7756
   5  382.4709
   6  401.9532
   7  399.1993
   8  396.0804
   9  266.3983
  10  302.2801
  11  465.2301
  12  433.7148
  13  522.8455
  14  612.2655
  15  556.658
  16  503.3427
  17  282.3405
  18  244.866
  19  333.6917
  20  321.7813
  21  469.6089
  22  499.1302
  23  423.1151
  24  499.133
  25  484.6541
  26  465.1835
  27  395.0466
  28  367.3603
  29  392.5094
  30  554.8942
  31  591.7946
  32  556.739
  33  386.8682
  34  467.8981
  35  532.3629
  36  602.601
  37  478.2059
  38  400.1194
  39  489.5748
  40  517.0932
  41  542.9407
  42  466.0361
  43  604.8641
  44  620.3521
  45  382.9884
  46  307.823
  47  385.2418
  48  478.1617
  49  371.1482
  50  377.105
  51  406.4948
  52  459.9657
  53  422.5792
  54  519.6548
  55  531.1951
  56  495.8654
  57  547.3517
  58  495.0914
  59  610.499
  60  667.8993
  61  595.2271
  62  496.9662
  63  515.8613
  64  479.9169
  65  420.0597
  66  450.2928
  67  503.8346
  68  464.1476
  69  511.4796
  70  397.675
  71  472.4186
  72  575.2306
  73  482.4461
  74  548.9943
  75  433.2831
  76  438.8023
  77  450.2491
  78  439.2016
  79  336.4799
  80  346.8004
  81  412.3526
  82  291.4022
  83  268.5403
  84  277.4764
  85  341.2985
  86  371.3256
  87  340.6334
  88  320.0742
  89  338.0046
  90  458.4388
  91  412.9579
  92  483.7494
  93  491.0627
  94  295.1524
  95  281.1339
  96  354.7354
  97  384.126
  98  260.1059
  99  290.0627
 100  271.6171
 101  422.5125
 102  554.0763
 103  479.4245
 104  415.8018
 105  405.2479
 106  442.4485
 107  366.6715
 108  361.9455
 109  447.4044
 110  460.3506
 111  366.2372
 112  381.1541
 113  347.8825
 114  495.9121
 115  481.7224
 116  391.0481
 117  408.8145
 118  468.666
 119  356.2472
 120  379.1188
 121  410.9692
 122  387.6894
 123  458.8586
 124  387.5722
 125  465.0669
 126  442.6672
 127  336.1362
 128  389.8344
 129  384.1253
 130  434.0049
 131  527.0458
 132  419.7356
 133  439.7745
 134  498.2087
 135  481.155
 136  458.3144
 137  351.2264
 138  353.8174
 139  513.3917
 140  641.6592
 141  525.9912
 142  466.0482
 143  464.6443
 144  456.6575
 145  470.4073
 146  416.8831
 147  529.4542
 148  476.2835
 149  484.7328
 150  506.6079
 151  477.0845
 152  455.3532
 153  464.0067
 154  525.3364
 155  536.7678
 156  517.7518
 157  481.7489
 158  522.6292
 159  473.2795
 160  464.5112
 161  409.5512
 162  411.1461
 163  387.7958
 164  469.4909
 165  482.5298
 166  297.248
 167  373.7635
 168  458.9125
 169  450.0085
 170  497.2567
 171  501.9824
 172  497.2994
 173  572.2918
 174  491.5821
 175  581.9877
 176  542.9069
 177  501.3654
 178  503.9774
 179  446.9127
 180  527.6083
 181  516.423
 182  511.7122
 183  564.7319
 184  493.8993
 185  427.9253
 186  411.0281
 187  404.9738
 188  462.6151
 189  491.9692
 190  529.7613
 191  501.3072
 192  516.3901
 193  474.0463
 194  457.8135
 195  436.6194
 196  426.6106
 197  456.9875
 198  439.5164
 199  412.0814
 200  396.297
 201  393.6177
 202  359.8428
 203  408.9156
 204  415.5494
 205  460.5361
 206  566.2534
 207  506.4625
 208  434.5407
 209  504.7442
 210  516.223
 211  509.9248
 212  384.6654
 213  427.8714
 214  345.9897
 215  303.4786
 216  465.0531
 217  458.1051
 218  446.2312
 219  516.7794
 220  427.1187
 221  444.3122
 222  484.5526
 223  435.6069
 224  397.5917
 225  335.1431
 226  445.3456
 227  526.8858
 228  578.705
 229  477.9978
 230  388.0462
 231  408.8766
 232  422.4772
 233  452.372
 234  410.8876
 235  360.2751
 236  332.3763
 237  409.7523
 238  406.9796
 239  359.9012
 240  350.6495
 241  417.18
 242  392.1823
 243  333.304
 244  455.8525
 245  495.4185
 246  474.4014
 247  454.1102
 248  397.0138
 249  454.5329
 250  460.7943
 251  427.2098
 252  520.0853
 253  537.7282
 254  500.3247
 255  507.8463
 256  398.4202
 257  299.5632
 258  360.5019
 259  480.7775
 260  489.2354
 261  447.4036
 262  431.7803
 263  507.9486
 264  402.0988
 265  384.4459
 266  553.7885
 267  501.6219
 268  557.5316
 269  452.4293
 270  612.3627
 271  526.8886
 272  446.1367
 273  442.2631
 274  501.6971
 275  585.3682
 276  637.0341
 277  601.6395
 278  703.0574
 279  671.6063
 280  486.8209
 281  485.2878
 282  526.163
 283  590.775
 284  520.8239
 285  454.7872
 286  393.873
 287  552.6262
 288  478.8275
 289  659.5304
 290  530.0842
 291  362.0178
 292  325.3023
 293  366.1812
 294  476.4737
 295  523.3837
 296  460.3975
 297  468.2205
 298  464.4303
 299  451.3089
 300  361.2074
 301  442.7082
 302  457.748
 303  455.0917
 304  464.0533
 305  514.8793
 306  488.712
 307  515.2491
 308  466.1199
 309  409.3794
 310  440.8214
 311  440.2442
 312  497.4843
 313  449.8236
 314  447.8573
 315  421.2361
 316  391.5936
 317  364.0893
 318  307.5144
 319  307.2231
 320  388.7927
 321  479.4865
 322  386.677
 323  413.748
 324  248.9512
 325  400.8867
 326  395.0618
 327  427.1259
 328  430.1636
 329  428.1622
 330  439.7225
 331  508.4148
 332  516.3026
 333  514.0446
 334  421.0942
 335  388.5482
 336  419.149
 337  383.1214
 338  342.1216
 339  264.5707
 340  241.0514
 341  387.6649
 342  412.1928
 343  424.7108
 344  502.8806
 345  521.7814
 346  497.4485
 347  427.6766
 348  387.8295
 349  403.5254
 350  360.3927
 351  531.6075
 352  503.965
 353  439.6529
 354  359.852
 355  369.8687
 356  410.8556
 357  443.7845
 358  499.6937
 359  469.2416
 360  459.4046
 361  502.4932
 362  501.8615
 363  386.7777
 364  382.875
 365  344.8083
 366  462.6248
 367  534.6628
 368  465.0686
 369  406.5771
 370  293.7994
 371  357.3489
 372  356.5445
 373  430.1984
 374  444.9885
 375  379.2522
 376  350.9752
 377  341.1816
 378  369.9979
 379  357.0185
 380  197.57
 381  303.4243
 382  427.843
 383  386.961
 384  324.1705
 385  393.351
 386  435.4367
 387  441.5825
 388  455.3456
 389  522.8707
 390  479.0962
 391  449.9256
 392  431.0137
 393  462.8509
 394  307.0634
 395  305.7159
 396  402.104
 397  279.8195
 398  326.3626
 399  344.3906
 400  313.0704
 401  288.9521
 402  334.9393
 403  395.6751
 404  353.8935
 405  287.6131
 406  352.7107
 407  345.1204
 408  354.9815
 409  409.5839
 410  369.0969
 411  510.4095
 412  530.8817
 413  384.3962
 414  295.5078
 415  265.2088
 416  303.1165
 417  377.7388
 418  445.4568
 419  332.7262
 420  319.8488
 421  388.4605
 422  396.0204
 423  461.9498
 424  444.8421
 425  362.4478
 426  404.0231
 427  368.3029
 428  458.096
 429  427.5562
 430  340.1688
 431  405.2562
 432  351.8467
 433  300.6677
 434  337.178
 435  465.5482
 436  506.6581
 437  397.7282
 438  464.4576
 439  556.359
 440  511.2749
 441  525.4879
 442  510.1527
 443  450.8233
 444  378.2336
 445  302.7971
 446  260.6973
 447  380.594
 448  396.0366
 449  438.227
 450  501.5642
 451  432.2256
 452  337.662
 453  394.9988
 454  417.1961
 455  356.9097
 456  322.766
 457  334.0714
 458  424.5584
 459  498.9465
 460  465.2236
 461  416.7
 462  421.6974
 463  282.6944
 464  235.0616
 465  406.7678
 466  446.0194
 467  270.7351
 468  249.7698
 469  321.9585
 470  476.2385
 471  359.0485
 472  234.4683
 473  398.19
 474  393.1309
 475  370.5206
 476  343.4744
 477  369.3153
 478  332.4154
 479  283.8709
 480  315.9231
 481  413.7156
 482  389.8132
 483  359.1195
 484  363.5781
 485  367.1631
 486  359.8947
 487  316.3978
 488  323.9214
 489  396.6984
 490  535.8899
 491  473.654
 492  430.8554
 493  367.4788
 494  441.4398
 495  448.0245
 496  471.4154
 497  417.0077
 498  461.4069
 499  434.3214
 500  303.6207
 501  328.7953
 502  437.7564
 503  458.7099
 504  395.6019
 505  481.4673
 506  516.0263
 507  504.0031
 508  586.4013
 509  802.0619
 510  968.5732
 511  1053.884
