# Input file       =  1205051296.112978_cleaned.dat
# Candidate        =  PSR_0332+5434
# Telescope        =  AR
# Epoch_topo       =  58191.353184177984
# Epoch_bary       =  N/A
# T_sample         =  0.002
# Data Folded      =  7208960
# Data Avg         =  -0.0175396874266747
# Data StdDev      =  1.0000807890251  
# Profile Bins     =  512
# Profile Avg      =  -246.980628996075
# Profile StdDev   =  118.668762152662 
# Reduced chi-sqr  =  1.400
# Prob(Noise)      <  5.4e-09   (~5.7 sigma)
# P_topo (ms)      =  714.577797068561  +/- 0.000214
# P'_topo (s/s)    =  -0                +/- 1.15e-10
# P''_topo (s/s^2) =  0                 +/- 5.17e-14
# P_bary (ms)      =  N/A
# P'_bary (s/s)    =  N/A
# P''_bary (s/s^2) =  N/A
# P_orb (s)        =  N/A
# asin(i)/c (s)    =  N/A
# eccentricity     =  N/A
# w (rad)          =  N/A
# T_peri           =  N/A
######################################################
   0  22.7891
   1  -20.48891
   2  -61.43036
   3  -152.2343
   4  -167.6794
   5  -219.9501
   6  -255.6988
   7  -131.6918
   8  -174.775
   9  -169.821
  10  -130.0333
  11  -162.4093
  12  -205.412
  13  -203.5785
  14  -142.2368
  15  -207.577
  16  -101.8524
  17  -165.1594
  18  -166.3252
  19  -97.25289
  20  -130.1543
  21  -132.5851
  22  -153.3661
  23  -183.7309
  24  -267.1939
  25  -222.968
  26  -197.0121
  27  -203.3916
  28  -148.3633
  29  -132.0043
  30  -142.8107
  31  -125.5277
  32  -108.9847
  33  -107.3731
  34  -42.56836
  35  -110.9721
  36  -21.04072
  37  208.8817
  38  344.425
  39  236.0251
  40  136.6875
  41  3.322301
  42  -230.7133
  43  -185.5911
  44  -164.745
  45  -210.5252
  46  -273.9698
  47  -107.3019
  48  -101.1165
  49  -169.4645
  50  -210.5423
  51  -197.0961
  52  -67.04913
  53  -46.10826
  54  -123.8179
  55  -192.0896
  56  -221.6148
  57  -212.827
  58  -238.1933
  59  -182.9008
  60  -108.6471
  61  -78.21233
  62  -147.3994
  63  -288.8231
  64  -226.8351
  65  -214.261
  66  -154.8497
  67  -124.8004
  68  -215.5312
  69  -221.0303
  70  -249.288
  71  -206.8834
  72  -242.0161
  73  -220.4076
  74  -192.7836
  75  -147.9885
  76  -160.6215
  77  -153.632
  78  -133.8929
  79  -158.9823
  80  -104.7599
  81  -99.60976
  82  -106.0229
  83  -130.473
  84  -237.6546
  85  -349.5709
  86  -280.0925
  87  -178.7332
  88  -200.3719
  89  -242.9947
  90  -247.3939
  91  -215.5559
  92  -247.4875
  93  -248.7135
  94  -158.5034
  95  -151.8508
  96  -154.49
  97  -154.455
  98  -168.7362
  99  -145.9365
 100  -192.202
 101  -130.5916
 102  -138.4201
 103  -109.2981
 104  -123.5244
 105  -165.9476
 106  -275.8208
 107  -227.985
 108  -150.1805
 109  -140.9062
 110  -207.2886
 111  -218.9312
 112  -229.4425
 113  -323.4928
 114  -277.5901
 115  -172.1907
 116  -213.0541
 117  -155.833
 118  -227.3573
 119  -269.0589
 120  -227.0632
 121  -252.251
 122  -221.3829
 123  -298.601
 124  -340.4202
 125  -228.5124
 126  -245.014
 127  -287.4243
 128  -187.1256
 129  -90.27104
 130  -219.3609
 131  -230.9195
 132  -214.6706
 133  -204.4569
 134  -196.2819
 135  -195.744
 136  -137.7424
 137  -120.1857
 138  -105.8807
 139  -159.3714
 140  -245.7644
 141  -282.4399
 142  -288.3925
 143  -219.0489
 144  -167.5954
 145  -124.4212
 146  -149.5211
 147  -166.2822
 148  -110.5936
 149  -144.4325
 150  -175.3281
 151  -157.3946
 152  -126.1248
 153  -87.09358
 154  -186.9393
 155  -133.5502
 156  -156.7064
 157  -247.9509
 158  -295.4835
 159  -299.2406
 160  -234.3628
 161  -272.136
 162  -308.5194
 163  -218.5656
 164  -233.5827
 165  -227.8882
 166  -239.0559
 167  -287.2033
 168  -312.0665
 169  -397.6494
 170  -429.3816
 171  -258.6372
 172  -334.3126
 173  -366.7124
 174  -350.6194
 175  -323.8604
 176  -233.7016
 177  -326.8652
 178  -265.2802
 179  -386.195
 180  -373.5203
 181  -346.5941
 182  -336.7251
 183  -316.9317
 184  -209.3322
 185  -205.8662
 186  -273.1928
 187  -367.5351
 188  -365.9016
 189  -353.8572
 190  -344.4054
 191  -233.3151
 192  -168.6564
 193  -169.1147
 194  -157.6454
 195  -242.5811
 196  -319.7469
 197  -319.0608
 198  -277.4457
 199  -164.856
 200  -188.3987
 201  -152.9248
 202  -176.6911
 203  -194.8149
 204  -361.962
 205  -343.3262
 206  -358.495
 207  -360.6284
 208  -351.8446
 209  -354.4662
 210  -210.1826
 211  -124.453
 212  -256.0421
 213  -326.6594
 214  -282.5329
 215  -270.77
 216  -270.2299
 217  -295.3007
 218  -198.847
 219  -233.4197
 220  -271.3585
 221  -250.4458
 222  -356.5665
 223  -227.0332
 224  -181.9944
 225  -225.1769
 226  -273.1236
 227  -262.393
 228  -262.3598
 229  -284.9968
 230  -285.7312
 231  -317.8509
 232  -294.2506
 233  -334.0333
 234  -372.2233
 235  -352.8149
 236  -363.3666
 237  -345.2879
 238  -407.8639
 239  -374.6593
 240  -280.2979
 241  -281.9353
 242  -352.4521
 243  -250.578
 244  -341.9576
 245  -344.1204
 246  -259.0061
 247  -296.0228
 248  -332.1296
 249  -280.6415
 250  -347.7234
 251  -339.8261
 252  -306.3325
 253  -354.178
 254  -363.5323
 255  -429.8169
 256  -403.9597
 257  -302.6366
 258  -202.26
 259  -272.6392
 260  -264.1428
 261  -367.2269
 262  -535.7964
 263  -475.314
 264  -357.4014
 265  -247.6197
 266  -267.6725
 267  -273.2037
 268  -362.5119
 269  -424.468
 270  -277.9297
 271  -332.7215
 272  -307.7352
 273  -333.6661
 274  -347.4637
 275  -321.7162
 276  -296.7625
 277  -326.4409
 278  -385.9325
 279  -463.4142
 280  -309.2511
 281  -265.7247
 282  -297.2481
 283  -357.9754
 284  -359.0499
 285  -370.157
 286  -374.3146
 287  -238.3861
 288  -250.9238
 289  -345.5158
 290  -369.2403
 291  -350.8152
 292  -354.239
 293  -267.6227
 294  -283.4346
 295  -390.6656
 296  -380.5774
 297  -405.9575
 298  -352.7049
 299  -307.4558
 300  -325.6347
 301  -336.2929
 302  -371.6195
 303  -420.8004
 304  -378.2513
 305  -425.724
 306  -414.2307
 307  -468.2926
 308  -464.1456
 309  -449.6211
 310  -367.4482
 311  -311.2317
 312  -402.2513
 313  -431.3136
 314  -394.3758
 315  -450.4653
 316  -364.2257
 317  -315.9738
 318  -374.8814
 319  -386.5069
 320  -310.6246
 321  -425.1139
 322  -391.0304
 323  -341.4468
 324  -422.9286
 325  -441.2981
 326  -395.0172
 327  -306.824
 328  -297.459
 329  -365.3036
 330  -350.2858
 331  -283.7334
 332  -363.3933
 333  -390.9878
 334  -351.4403
 335  -321.6982
 336  -368.2363
 337  -439.5959
 338  -387.3308
 339  -335.3889
 340  -338.5821
 341  -343.9516
 342  -364.9749
 343  -362.007
 344  -331.153
 345  -292.5595
 346  -274.9201
 347  -293.0915
 348  -270.012
 349  -245.7419
 350  -325.1464
 351  -319.071
 352  -277.5797
 353  -331.465
 354  -332.0724
 355  -401.7715
 356  -294.4896
 357  -241.9195
 358  -261.1698
 359  -284.4412
 360  -396.9993
 361  -344.4057
 362  -311.8641
 363  -279.3092
 364  -164.8182
 365  -168.68
 366  -195.891
 367  -252.6931
 368  -318.4022
 369  -231.9737
 370  -225.5265
 371  -237.9469
 372  -288.47
 373  -154.2776
 374  -216.1493
 375  -297.8206
 376  -253.328
 377  -155.7091
 378  -196.2956
 379  -252.2123
 380  -170.0499
 381  -164.4783
 382  -126.0304
 383  -114.1285
 384  -209.1446
 385  -164.2507
 386  -236.1312
 387  -310.8557
 388  -276.4362
 389  -230.0971
 390  -133.393
 391  -206.8443
 392  -124.891
 393  -244.8465
 394  -318.8243
 395  -296.6733
 396  -263.1403
 397  -223.8412
 398  -357.5426
 399  -275.9211
 400  -193.4261
 401  -209.5784
 402  -190.2042
 403  -263.8782
 404  -271.5438
 405  -207.2342
 406  -202.8629
 407  -303.7291
 408  -291.7015
 409  -277.5021
 410  -291.9132
 411  -269.5666
 412  -257.0517
 413  -168.2173
 414  -184.5865
 415  -202.9053
 416  -322.9088
 417  -378.65
 418  -316.156
 419  -233.2891
 420  -265.6722
 421  -208.2599
 422  -210.7421
 423  -265.0949
 424  -315.9741
 425  -326.3032
 426  -243.8444
 427  -216.9443
 428  -240.2994
 429  -233.1603
 430  -287.261
 431  -312.8611
 432  -272.2429
 433  -288.4907
 434  -338.3044
 435  -348.2958
 436  -288.706
 437  -262.7206
 438  -224.334
 439  -270.5801
 440  -275.5227
 441  -267.8965
 442  -283.5536
 443  -253.5499
 444  -294.2242
 445  -300.5084
 446  -262.8865
 447  -213.0775
 448  -320.7733
 449  -310.3513
 450  -224.2277
 451  -321.7406
 452  -431.3271
 453  -364.7702
 454  -360.4459
 455  -335.2531
 456  -198.0033
 457  -180.2169
 458  -311.1649
 459  -285.7278
 460  -271.4597
 461  -273.2572
 462  -234.6165
 463  -293.7155
 464  -289.7655
 465  -292.1771
 466  -249.8797
 467  -205.0952
 468  -180.8808
 469  -196.4953
 470  -268.1336
 471  -269.1558
 472  -273.6447
 473  -272.4285
 474  -155.4617
 475  -89.73135
 476  -92.73584
 477  -23.14382
 478  -98.88067
 479  -169.7876
 480  -251.7119
 481  -258.9475
 482  -300.6743
 483  -188.08
 484  -182.0163
 485  -231.2779
 486  -309.7582
 487  -220.0369
 488  -309.6372
 489  -276.1241
 490  -112.2757
 491  -123.7183
 492  -58.66444
 493  -136.8621
 494  -93.83618
 495  -162.0029
 496  -124.6644
 497  -96.88355
 498  -157.0564
 499  -203.9932
 500  -138.7153
 501  -121.048
 502  -76.23461
 503  -287.0847
 504  -190.5912
 505  -96.71598
 506  -50.48624
 507  -67.54758
 508  -150.5863
 509  -182.7751
 510  -229.1076
 511  -147.0443
