# Input file       =  1205238896.100999_cleaned.dat
# Candidate        =  PSR_0332+5434
# Telescope        =  AR
# Epoch_topo       =  58193.524480335640
# Epoch_bary       =  N/A
# T_sample         =  0.002
# Data Folded      =  7340032
# Data Avg         =  0.0242525778495022
# Data StdDev      =  1.00005645617428 
# Profile Bins     =  512
# Profile Avg      =  347.636242478092 
# Profile StdDev   =  119.739796045934 
# Reduced chi-sqr  =  1.226
# Prob(Noise)      <  0.000346   (~3.4 sigma)
# P_topo (ms)      =  714.57708509732   +/- 0.00062
# P'_topo (s/s)    =  -0                +/- 3.27e-10
# P''_topo (s/s^2) =  0                 +/- 1.44e-13
# P_bary (ms)      =  N/A
# P'_bary (s/s)    =  N/A
# P''_bary (s/s^2) =  N/A
# P_orb (s)        =  N/A
# asin(i)/c (s)    =  N/A
# eccentricity     =  N/A
# w (rad)          =  N/A
# T_peri           =  N/A
######################################################
   0  358.8395
   1  416.9865
   2  328.7273
   3  264.2399
   4  323.6075
   5  230.7906
   6  286.2686
   7  242.8625
   8  281.1996
   9  321.1899
  10  311.9456
  11  333.3969
  12  265.7765
  13  247.7931
  14  325.7895
  15  288.9006
  16  305.0977
  17  271.7477
  18  235.7043
  19  237.1673
  20  141.6065
  21  239.5266
  22  257.0934
  23  243.5958
  24  270.8576
  25  295.6702
  26  200.0198
  27  156.945
  28  279.3713
  29  287.2711
  30  168.0643
  31  174.5221
  32  303.9568
  33  274.7334
  34  257.8208
  35  208.5836
  36  141.1815
  37  102.6945
  38  216.2111
  39  240.5909
  40  320.4777
  41  356.6408
  42  281.2474
  43  288.289
  44  343.6426
  45  278.28
  46  160.597
  47  317.4014
  48  416.5369
  49  454.2435
  50  283.1726
  51  238.3934
  52  246.8701
  53  272.8286
  54  435.4371
  55  424.6083
  56  323.4659
  57  332.1915
  58  380.2296
  59  373.6581
  60  400.945
  61  259.277
  62  218.3922
  63  279.7474
  64  361.5783
  65  256.2734
  66  281.6152
  67  306.3853
  68  346.5905
  69  368.0355
  70  295.1562
  71  341.2334
  72  362.5018
  73  308.7857
  74  273.0019
  75  373.9294
  76  465.1123
  77  318.6612
  78  289.186
  79  361.1807
  80  284.372
  81  120.8854
  82  130.1987
  83  232.4932
  84  329.2236
  85  389.2888
  86  380.9323
  87  415.2588
  88  490.7477
  89  384.9401
  90  265.0969
  91  350.3344
  92  327.5732
  93  402.6578
  94  480.584
  95  487.9854
  96  416.6092
  97  331.32
  98  354.6868
  99  405.1872
 100  334.3919
 101  360.4858
 102  358.1227
 103  329.9149
 104  396.8837
 105  309.2449
 106  329.0006
 107  402.724
 108  415.5222
 109  352.0634
 110  378.6151
 111  366.8934
 112  319.6422
 113  330.485
 114  324.8201
 115  324.265
 116  257.2939
 117  137.7013
 118  243.5805
 119  282.9074
 120  358.6289
 121  279.4112
 122  258.9179
 123  344.3312
 124  380.2327
 125  322.5364
 126  321.2549
 127  281.8888
 128  283.8157
 129  283.8276
 130  234.6807
 131  326.8474
 132  371.8434
 133  379.9713
 134  309.8111
 135  266.9366
 136  311.0258
 137  281.3756
 138  320.5812
 139  471.476
 140  425.4501
 141  350.9606
 142  357.5601
 143  368.5609
 144  321.2221
 145  270.9049
 146  395.0413
 147  356.2456
 148  241.6992
 149  166.0922
 150  207.8118
 151  339.0344
 152  368.9326
 153  347.6143
 154  361.3592
 155  272.6407
 156  244.9691
 157  460.6693
 158  380.0828
 159  359.4864
 160  369.8525
 161  210.1692
 162  109.8182
 163  290.4717
 164  346.5939
 165  343.8116
 166  230.75
 167  200.9009
 168  256.7649
 169  272.733
 170  255.0851
 171  299.0454
 172  259.2608
 173  314.7826
 174  302.0227
 175  290.2388
 176  253.058
 177  253.751
 178  297.018
 179  300.8033
 180  357.9948
 181  384.3102
 182  480.6266
 183  408.1635
 184  370.8358
 185  369.3199
 186  363.8528
 187  326.2886
 188  298.5712
 189  340.8416
 190  395.29
 191  229.3799
 192  319.3407
 193  332.2059
 194  273.9391
 195  300.1278
 196  216.8896
 197  286.0754
 198  313.2256
 199  371.9815
 200  345.1478
 201  400.5143
 202  424.408
 203  485.2336
 204  551.6545
 205  597.282
 206  489.2192
 207  401.7167
 208  541.3567
 209  498.4215
 210  591.1669
 211  709.5831
 212  697.8535
 213  821.1924
 214  846.1934
 215  899.6738
 216  831.5219
 217  737.2203
 218  430.7931
 219  269.6012
 220  344.5256
 221  352.8285
 222  362.6697
 223  355.1261
 224  344.4858
 225  331.0444
 226  363.2661
 227  338.6573
 228  312.5757
 229  278.8568
 230  347.0761
 231  387.3407
 232  293.6932
 233  266.215
 234  365.8488
 235  297.9434
 236  205.2634
 237  264.4865
 238  377.8795
 239  244.9956
 240  258.7942
 241  227.9302
 242  354.5528
 243  437.5734
 244  299.7433
 245  259.896
 246  298.6732
 247  286.9447
 248  303.2623
 249  375.1514
 250  439.8029
 251  377.8219
 252  400.5796
 253  427.6532
 254  344.27
 255  273.5673
 256  396.9056
 257  436.6865
 258  383.1694
 259  377.0649
 260  470.4755
 261  308.893
 262  273.674
 263  326.632
 264  472.4424
 265  489.7338
 266  416.5992
 267  324.2574
 268  416.5347
 269  432.5659
 270  326.6933
 271  495.8696
 272  462.3112
 273  494.3997
 274  487.7177
 275  428.0107
 276  398.1425
 277  430.616
 278  429.4681
 279  434.1358
 280  467.588
 281  455.6535
 282  432.3912
 283  428.2888
 284  427.1822
 285  406.6858
 286  513.0889
 287  446.9428
 288  346.8885
 289  369.0531
 290  479.9389
 291  490.8048
 292  404.6905
 293  420.8896
 294  364.3515
 295  450.2984
 296  446.6375
 297  345.4688
 298  311.938
 299  321.1033
 300  412.3345
 301  506.2676
 302  354.6866
 303  316.1103
 304  393.5909
 305  334.6174
 306  306.9937
 307  265.4605
 308  226.5313
 309  310.4727
 310  446.6866
 311  310.5592
 312  315.3641
 313  374.2772
 314  350.1742
 315  332.611
 316  366.619
 317  349.1089
 318  472.1299
 319  435.8667
 320  272.3599
 321  170.7345
 322  172.4587
 323  113.3669
 324  383.0746
 325  353.6756
 326  241.521
 327  197.7324
 328  292.1793
 329  346.7491
 330  351.0637
 331  455.4808
 332  267.9549
 333  239.6006
 334  322.1199
 335  332.5439
 336  330.6968
 337  302.9685
 338  301.7984
 339  223.336
 340  219.2677
 341  337.0954
 342  346.7455
 343  309.9832
 344  184.1896
 345  256.7538
 346  293.8182
 347  221.8279
 348  253.2027
 349  442.6738
 350  400.2141
 351  400.9755
 352  302.3861
 353  417.7165
 354  439.522
 355  347.0067
 356  363.2616
 357  438.8107
 358  375.8166
 359  368.8228
 360  438.9604
 361  313.1143
 362  286.5351
 363  306.8883
 364  362.9388
 365  388.5892
 366  276.2933
 367  218.7567
 368  348.4395
 369  420.0552
 370  280.5777
 371  261.3728
 372  262.8282
 373  293.3736
 374  307.0491
 375  398.4655
 376  271.282
 377  254.1724
 378  341.9123
 379  280.0666
 380  305.4607
 381  407.2003
 382  344.9196
 383  297.0397
 384  348.6582
 385  401.3626
 386  303.2713
 387  464.2514
 388  476.4274
 389  327.2898
 390  269.106
 391  365.3119
 392  460.2058
 393  358.9582
 394  325.8368
 395  374.0835
 396  385.0759
 397  339.8826
 398  326.1179
 399  302.5623
 400  270.2691
 401  222.2184
 402  267.9157
 403  247.7104
 404  295.7611
 405  269.3618
 406  296.7262
 407  302.5853
 408  273.6474
 409  338.4565
 410  312.5094
 411  304.005
 412  406.5494
 413  325.1413
 414  338.7766
 415  375.7653
 416  380.0862
 417  303.3083
 418  383.6929
 419  462.8954
 420  439.2118
 421  547.4267
 422  469.8913
 423  406.6664
 424  408.2981
 425  298.5345
 426  232.8819
 427  412.0794
 428  372.4831
 429  397.8192
 430  377.8368
 431  401.0562
 432  402.645
 433  419.1249
 434  332.8894
 435  301.7376
 436  336.709
 437  439.8329
 438  408.5657
 439  463.8482
 440  482.9206
 441  389.4796
 442  374.7732
 443  400.5365
 444  343.8335
 445  351.4637
 446  297.2224
 447  334.5389
 448  344.5294
 449  335.7917
 450  294.2385
 451  271.7105
 452  298.1716
 453  381.9475
 454  426.3152
 455  467.9262
 456  493.4314
 457  532.0702
 458  492.7051
 459  369.3925
 460  462.5775
 461  377.3027
 462  375.3541
 463  377.4358
 464  372.7746
 465  324.0317
 466  360.1321
 467  357.6079
 468  427.3216
 469  399.39
 470  422.3761
 471  421.4881
 472  286.5585
 473  487.4896
 474  391.3105
 475  335.595
 476  458.076
 477  462.4916
 478  505.3018
 479  441.5419
 480  339.193
 481  358.171
 482  468.451
 483  432.6293
 484  424.7249
 485  442.8034
 486  373.705
 487  393.1059
 488  314.8204
 489  354.3426
 490  331.0736
 491  286.78
 492  377.0399
 493  357.8842
 494  254.5011
 495  277.3649
 496  409.2672
 497  347.5765
 498  235.1272
 499  205.4369
 500  312.8781
 501  358.2273
 502  310.713
 503  325.2904
 504  366.3435
 505  331.23
 506  421.5186
 507  500.6616
 508  387.9832
 509  384.8259
 510  339.7628
 511  258.951
