# Input file       =  1205238896.100999_cleaned.dat
# Candidate        =  PSR_0332+5434
# Telescope        =  AR
# Epoch_topo       =  58193.524480335640
# Epoch_bary       =  N/A
# T_sample         =  0.002
# Data Folded      =  7340032
# Data Avg         =  0.0602829081825411
# Data StdDev      =  3.8138575466412  
# Profile Bins     =  256
# Profile Avg      =  1728.24981722316 
# Profile StdDev   =  645.79319067133  
# Reduced chi-sqr  =  1.179
# Prob(Noise)      <  0.0264   (~1.9 sigma)
# P_topo (ms)      =  714.57708502565   +/- 0.000234
# P'_topo (s/s)    =  -0                +/- 1.23e-10
# P''_topo (s/s^2) =  0                 +/- 5.44e-14
# P_bary (ms)      =  N/A
# P'_bary (s/s)    =  N/A
# P''_bary (s/s^2) =  N/A
# P_orb (s)        =  N/A
# asin(i)/c (s)    =  N/A
# eccentricity     =  N/A
# w (rad)          =  N/A
# T_peri           =  N/A
######################################################
   0  2274.678
   1  954.1751
   2  1814.25
   3  2225.633
   4  2084.805
   5  1720.883
   6  1998.563
   7  2401.945
   8  2380.104
   9  1207.846
  10  1477.793
  11  1850.262
  12  1243.009
  13  1337.667
  14  1509.887
  15  2195.073
  16  2444.253
  17  2392.195
  18  2501.696
  19  2090.586
  20  2135.592
  21  2281.361
  22  2236.72
  23  1717.532
  24  1549.438
  25  2330.496
  26  2224.783
  27  2741.662
  28  1959.979
  29  2464.483
  30  2487.644
  31  2445.056
  32  2134.011
  33  1807.958
  34  1822.146
  35  2121.537
  36  1509.644
  37  1276.377
  38  1396.076
  39  2211.958
  40  1838.786
  41  1785.173
  42  2718.496
  43  1968.381
  44  1631.801
  45  1659.501
  46  1553.895
  47  747.8288
  48  1148.832
  49  1674.053
  50  1038.815
  51  1221.889
  52  1317.408
  53  1658.939
  54  1075.496
  55  1164.74
  56  1902.08
  57  1756.323
  58  1360.426
  59  1171.005
  60  1510.825
  61  1728.08
  62  1171.282
  63  1161.215
  64  1462.401
  65  1723.928
  66  1886.386
  67  1181.162
  68  2199.114
  69  2029.574
  70  1264.18
  71  1814.39
  72  1759.866
  73  1960.171
  74  2594.266
  75  1344.215
  76  1381.973
  77  1492.968
  78  1977.747
  79  1640.647
  80  2296.094
  81  1785.431
  82  2570.17
  83  1625.935
  84  1632.374
  85  106.861
  86  1283.781
  87  1962.941
  88  2296.293
  89  2081.592
  90  2012.988
  91  2605.596
  92  2597.077
  93  1838.582
  94  2099.472
  95  2061.73
  96  2499.455
  97  2300.76
  98  2100.721
  99  1979.855
 100  2003.418
 101  1368.218
 102  1001.518
 103  535.5385
 104  1293.87
 105  1139.401
 106  1747.658
 107  1491.056
 108  1202.899
 109  1273.838
 110  2195.157
 111  2375.61
 112  1334.908
 113  1737.645
 114  1964.129
 115  1150.211
 116  1616.548
 117  1727.876
 118  1379.781
 119  724.1732
 120  1566.157
 121  1498.27
 122  1226.215
 123  2356.204
 124  1674.87
 125  452.6815
 126  1657.22
 127  1490.435
 128  1249.089
 129  868.7797
 130  1491.121
 131  1740.048
 132  1538.309
 133  1331.556
 134  1623.361
 135  2121.001
 136  1700.969
 137  2143.085
 138  1926.224
 139  2019.078
 140  1581.765
 141  1386.561
 142  998.7983
 143  1124.965
 144  1701.714
 145  2827.251
 146  3242.439
 147  2574.554
 148  2184.918
 149  2798.81
 150  3698.529
 151  4485.743
 152  4825.61
 153  3257.855
 154  1959.09
 155  2190.544
 156  1950.424
 157  1782.024
 158  1710.454
 159  1920.309
 160  1963.254
 161  1611.228
 162  873.1642
 163  1269.065
 164  1003.474
 165  1155.601
 166  1549.406
 167  1530.955
 168  1535.13
 169  2236.834
 170  2005.373
 171  1879.331
 172  1708.6
 173  2409.584
 174  2043.773
 175  1512.929
 176  2272.987
 177  2417.963
 178  1981.369
 179  1636.304
 180  2444.813
 181  2657.627
 182  2239.208
 183  2446.23
 184  2471.535
 185  2473.873
 186  2256.808
 187  2363.085
 188  1625.148
 189  2080.363
 190  2020.655
 191  1660.611
 192  1883.742
 193  1046.757
 194  1438.839
 195  2014.963
 196  1220.288
 197  1305.908
 198  1374.448
 199  1630.512
 200  1017.275
 201  1630.452
 202  1956.065
 203  2038.415
 204  1462.895
 205  1193.91
 206  1370.777
 207  1162.775
 208  699.4225
 209  1993.561
 210  1984.804
 211  1528.111
 212  1685.459
 213  1177.36
 214  826.311
 215  957.2843
 216  993.3605
 217  1170.048
 218  1060.657
 219  2350.536
 220  1745.862
 221  2192.944
 222  1515.582
 223  2076.814
 224  1974.455
 225  941.163
 226  1297.577
 227  1012.279
 228  1027.411
 229  1177.076
 230  997.5562
 231  1531.962
 232  1371.264
 233  1319.422
 234  1044.869
 235  1351.103
 236  1395.263
 237  1525.356
 238  2555.678
 239  1128.619
 240  1723.983
 241  1406.772
 242  1201.981
 243  998.0474
 244  592.0676
 245  435.3905
 246  658.1653
 247  694.3036
 248  818.311
 249  1034.614
 250  1036.697
 251  1250.553
 252  2114.492
 253  1585.787
 254  1959.875
 255  2711.241
