# Input file       =  1205396186.107609-PSRB0329-2ms-sampling-dd.dat
# Candidate        =  PSR_0332+5434
# Telescope        =  AR
# Epoch_topo       =  58195.344966523255
# Epoch_bary       =  N/A
# T_sample         =  0.002
# Data Folded      =  7405568
# Data Avg         =  -1.0770869736025e-10
# Data StdDev      =  6.12150594647588 
# Profile Bins     =  512
# Profile Avg      =  -0.215176393579632
# Profile StdDev   =  736.211305402752 
# Reduced chi-sqr  =  1.311
# Prob(Noise)      <  2.67e-06   (~4.6 sigma)
# P_topo (ms)      =  714.576383867481  +/- 2.99e-05
# P'_topo (s/s)    =  -0                +/- 1.57e-11
# P''_topo (s/s^2) =  0                 +/- 6.85e-15
# P_bary (ms)      =  N/A
# P'_bary (s/s)    =  N/A
# P''_bary (s/s^2) =  N/A
# P_orb (s)        =  N/A
# asin(i)/c (s)    =  N/A
# eccentricity     =  N/A
# w (rad)          =  N/A
# T_peri           =  N/A
######################################################
   0  -627.2027
   1  -303.7722
   2  -280.6144
   3  -669.2062
   4  -462.27
   5  -145.8514
   6  245.0548
   7  246.5494
   8  628.0949
   9  713.7928
  10  348.2345
  11  -88.25252
  12  -445.46
  13  -309.1313
  14  -640.2336
  15  -600.789
  16  -216.8948
  17  291.8764
  18  -9.880375
  19  -703.4592
  20  -336.4338
  21  -77.64404
  22  -475.4963
  23  -222.4918
  24  456.1546
  25  932.3384
  26  351.8816
  27  -202.0822
  28  -725.4957
  29  -892.1807
  30  -964.2034
  31  -651.3116
  32  -525.1579
  33  -704.0867
  34  -49.25036
  35  -651.5142
  36  -1361.246
  37  -830.1859
  38  -691.8841
  39  -295.4853
  40  135.8024
  41  683.2145
  42  927.8578
  43  862.5982
  44  195.3086
  45  -549.7235
  46  -700.974
  47  -740.1617
  48  -493.6141
  49  -710.2934
  50  74.50686
  51  10.89581
  52  -586.0618
  53  -364.2648
  54  -1.167252
  55  -195.8121
  56  -455.6699
  57  15.8423
  58  1044.925
  59  931.2217
  60  282.1713
  61  10.20261
  62  -284.3694
  63  -545.0809
  64  -442.8054
  65  -505.025
  66  -9.782973
  67  312.1782
  68  134.4283
  69  -204.8473
  70  -194.1499
  71  353.4874
  72  -87.85093
  73  132.4598
  74  666.0132
  75  979.1605
  76  653.3402
  77  30.45552
  78  -307.1051
  79  -418.3935
  80  -467.3969
  81  -517.6074
  82  -521.3826
  83  -39.90052
  84  340.817
  85  161.0873
  86  17.95885
  87  127.4046
  88  -113.0951
  89  73.06812
  90  865.4974
  91  1583.242
  92  974.3243
  93  141.6805
  94  -4.444004
  95  -61.12938
  96  320.9812
  97  411.7068
  98  470.6227
  99  1484.668
 100  2044.925
 101  1786.298
 102  1436.202
 103  1425.129
 104  887.5774
 105  606.1415
 106  543.9873
 107  1069.417
 108  1227.629
 109  1086.268
 110  273.8442
 111  12.49632
 112  225.3124
 113  -271.0426
 114  -667.9294
 115  -14.68607
 116  495.6712
 117  739.4498
 118  173.3257
 119  -34.48189
 120  -22.77762
 121  203.9721
 122  12.15925
 123  404.0812
 124  1098.578
 125  1285.377
 126  800.7782
 127  -315.5536
 128  -589.1909
 129  -842.2039
 130  -961.2028
 131  -510.4052
 132  -20.77805
 133  144.4115
 134  33.63682
 135  -368.2943
 136  -436.8408
 137  231.2504
 138  -6.244621
 139  171.7294
 140  715.3365
 141  682.7521
 142  536.3228
 143  -193.8875
 144  -452.933
 145  -853.7374
 146  -906.2457
 147  -610.6247
 148  -626.6914
 149  -142.2699
 150  91.28723
 151  -428.7859
 152  -659.4531
 153  -277.7322
 154  -119.929
 155  -17.73227
 156  279.5696
 157  1102.453
 158  1002.477
 159  353.6555
 160  -183.1525
 161  -494.3769
 162  -295.165
 163  -812.1714
 164  -700.3953
 165  -446.6967
 166  60.53666
 167  -142.944
 168  -699.4844
 169  -364.2729
 170  -247.6391
 171  -332.4203
 172  135.8071
 173  361.7117
 174  465.537
 175  -99.27394
 176  -357.2036
 177  -501.139
 178  -904.2469
 179  -865.9767
 180  -730.7358
 181  -575.0691
 182  -528.4473
 183  -191.7755
 184  -478.0435
 185  -811.768
 186  -417.7531
 187  -467.4452
 188  -158.5078
 189  389.9166
 190  1071.472
 191  1048.756
 192  282.8246
 193  -149.2087
 194  -230.6046
 195  -393.7818
 196  -465.106
 197  -449.0837
 198  122.5607
 199  986.3371
 200  533.0127
 201  -297.6892
 202  -555.5243
 203  -34.02512
 204  253.3344
 205  152.8324
 206  921.6392
 207  1149.866
 208  592.2211
 209  -436.418
 210  -777.288
 211  -540.2628
 212  -383.6468
 213  -309.4698
 214  -69.31467
 215  48.4609
 216  45.59109
 217  -429.4134
 218  -736.6326
 219  -134.6171
 220  403.4961
 221  195.5126
 222  430.735
 223  1051.105
 224  1306.424
 225  640.4595
 226  -363.879
 227  -669.7535
 228  -239.646
 229  390.0896
 230  182.4359
 231  185.6855
 232  640.121
 233  512.1238
 234  -168.8356
 235  -477.1914
 236  -299.9931
 237  272.1437
 238  710.1561
 239  1065.687
 240  1280.033
 241  866.991
 242  89.78974
 243  -313.2936
 244  -333.0677
 245  -69.02193
 246  -93.59306
 247  164.0402
 248  256.921
 249  -171.7335
 250  -762.0423
 251  -935.3628
 252  -210.2223
 253  213.269
 254  74.61187
 255  475.2863
 256  796.2043
 257  828.7141
 258  65.06548
 259  -394.9418
 260  -628.3908
 261  -610.0216
 262  -633.0057
 263  -599.1274
 264  30.50614
 265  910.5807
 266  304.5612
 267  -423.9834
 268  -865.986
 269  -811.7716
 270  -277.0423
 271  506.0828
 272  1080.393
 273  1503.499
 274  943.9907
 275  -54.63845
 276  -527.9481
 277  -498.2244
 278  -789.4388
 279  -561.8958
 280  -737.914
 281  -171.7274
 282  132.3364
 283  -869.7441
 284  -1052.387
 285  -596.9955
 286  -99.85155
 287  -47.24611
 288  234.3733
 289  797.7742
 290  580.2827
 291  146.5325
 292  -782.9257
 293  -797.4941
 294  -622.0386
 295  -405.551
 296  -755.8263
 297  -566.3198
 298  421.1218
 299  -1.669983
 300  -456.2585
 301  -378.265
 302  -532.2941
 303  -534.2774
 304  -102.3948
 305  806.9044
 306  1271.211
 307  1342.234
 308  342.6108
 309  -503.2636
 310  -578.7297
 311  -614.9598
 312  -644.7463
 313  -377.0425
 314  242.2043
 315  221.7842
 316  -472.191
 317  -725.4537
 318  -862.7111
 319  -215.4131
 320  282.0031
 321  1105.269
 322  1602.385
 323  1525.782
 324  517.725
 325  -460.5494
 326  -925.8879
 327  -388.2192
 328  -3.868116
 329  146.4477
 330  203.5031
 331  650.9608
 332  138.545
 333  -319.942
 334  -709.1136
 335  -215.2903
 336  -388.3581
 337  -248.2544
 338  626.7433
 339  1110.493
 340  770.4696
 341  214.6927
 342  -473.2515
 343  -950.2177
 344  -754.2838
 345  -325.7288
 346  -16.42273
 347  256.9028
 348  304.9279
 349  -463.5168
 350  -1159.196
 351  -812.1901
 352  -498.988
 353  680.395
 354  1337.566
 355  1087.425
 356  1049.94
 357  434.4892
 358  -61.38271
 359  -785.7162
 360  -40.64124
 361  165.6072
 362  38.31909
 363  323.182
 364  754.1519
 365  531.1107
 366  -507.1971
 367  -592.4229
 368  -245.7644
 369  38.44753
 370  476.6844
 371  1171.505
 372  1501.838
 373  567.5002
 374  30.51439
 375  -349.0408
 376  -531.3404
 377  -227.5436
 378  -285.7383
 379  -10.37407
 380  471.5989
 381  538.6128
 382  2.051809
 383  -626.0767
 384  -724.0322
 385  -579.6619
 386  -137.0166
 387  664.6586
 388  1406.732
 389  1510.34
 390  1030.373
 391  -159.9652
 392  -517.4475
 393  -391.2122
 394  -264.8155
 395  -477.1911
 396  47.2232
 397  829.0873
 398  442.4116
 399  -363.9839
 400  -397.4059
 401  -268.9063
 402  431.7598
 403  722.3096
 404  1156.422
 405  1459.668
 406  1005.367
 407  430.3876
 408  -426.3397
 409  -457.1892
 410  -584.9472
 411  -750.1114
 412  -334.656
 413  29.79375
 414  533.811
 415  18.84007
 416  -326.2
 417  -737.3227
 418  -588.7109
 419  43.58743
 420  332.433
 421  1112.321
 422  1078.545
 423  667.0884
 424  97.65818
 425  -536.2375
 426  -650.4429
 427  -619.5383
 428  -651.3759
 429  -181.7829
 430  393.6556
 431  -216.4389
 432  -818.4678
 433  -945.9893
 434  -353.3016
 435  -138.9164
 436  398.0191
 437  797.8057
 438  883.5459
 439  521.8763
 440  -433.9268
 441  -634.6922
 442  -593.226
 443  -526.6445
 444  -549.8884
 445  -486.1437
 446  223.3584
 447  -48.60361
 448  -434.0919
 449  -555.3569
 450  -327.5163
 451  -415.932
 452  -270.0569
 453  460.396
 454  790.4642
 455  1100.094
 456  905.5541
 457  86.14981
 458  -847.376
 459  -1116.889
 460  -1154.393
 461  -965.1165
 462  -727.1854
 463  -54.83037
 464  194.5905
 465  -420.4356
 466  -709.0401
 467  -443.9912
 468  -286.1153
 469  -264.8066
 470  650.6777
 471  1193.749
 472  777.4826
 473  128.31
 474  -637.3763
 475  -383.0266
 476  -395.3373
 477  -399.6995
 478  -579.4905
 479  -142.3047
 480  328.2263
 481  97.95912
 482  -677.708
 483  -441.7477
 484  82.31942
 485  -140.0148
 486  216.6743
 487  868.9357
 488  1244.751
 489  448.7448
 490  96.48374
 491  -325.8421
 492  -351.8673
 493  -181.9888
 494  -569.238
 495  3.195372
 496  455.0079
 497  537.8268
 498  -263.1523
 499  -342.9235
 500  135.117
 501  202.3599
 502  330.8874
 503  563.1387
 504  565.2774
 505  4.961885
 506  -555.3746
 507  -576.6902
 508  -643.9832
 509  -72.56893
 510  -139.4057
 511  -268.4898
