# Input file       =  1205583670.095333-PSRB0329-2ms-sampling-dd.dat
# Candidate        =  PSR_0332+5434
# Telescope        =  AR
# Epoch_topo       =  58197.514920084875
# Epoch_bary       =  N/A
# T_sample         =  0.002
# Data Folded      =  7340032
# Data Avg         =  3.21924612516502e-10
# Data StdDev      =  7.15631156595127 
# Profile Bins     =  512
# Profile Avg      =  1.15927814698926 
# Profile StdDev   =  856.846913049516 
# Reduced chi-sqr  =  0.791
# Prob(Noise)      <  1   (~0.0 sigma)
# P_topo (ms)      =  714.575526513192  +/- 0.00152
# P'_topo (s/s)    =  -0                +/- 8.01e-10
# P''_topo (s/s^2) =  0                 +/- 3.54e-13
# P_bary (ms)      =  N/A
# P'_bary (s/s)    =  N/A
# P''_bary (s/s^2) =  N/A
# P_orb (s)        =  N/A
# asin(i)/c (s)    =  N/A
# eccentricity     =  N/A
# w (rad)          =  N/A
# T_peri           =  N/A
######################################################
   0  -357.1768
   1  -254.5197
   2  -355.4499
   3  -502.0553
   4  -447.5094
   5  -466.1561
   6  -508.0511
   7  -158.644
   8  -220.3988
   9  -552.64
  10  -385.9318
  11  -286.2013
  12  -0.6096686
  13  134.5421
  14  149.1453
  15  318.3485
  16  -0.05077304
  17  -311.2113
  18  52.62236
  19  126.1827
  20  -298.8652
  21  -103.3919
  22  -146.7669
  23  -175.9722
  24  -387.4183
  25  -138.6842
  26  -231.9956
  27  -59.35372
  28  187.821
  29  -53.12194
  30  248.4806
  31  579.2841
  32  809.7563
  33  790.1619
  34  955.8231
  35  673.3354
  36  427.0946
  37  780.4927
  38  611.206
  39  586.0081
  40  760.7808
  41  659.9089
  42  478.8244
  43  463.7614
  44  668.5247
  45  660.3647
  46  232.0111
  47  20.61051
  48  -226.6074
  49  72.54139
  50  -113.8573
  51  57.90844
  52  391.0821
  53  639.9565
  54  358.1157
  55  292.7196
  56  358.0988
  57  204.1848
  58  132.1506
  59  92.39191
  60  422.4009
  61  459.1865
  62  346.6894
  63  491.0064
  64  285.2673
  65  167.951
  66  -114.8584
  67  111.5103
  68  -93.79068
  69  120.8989
  70  192.9113
  71  -207.566
  72  -217.7196
  73  -500.8599
  74  -403.764
  75  -560.1233
  76  -3.312803
  77  147.4886
  78  -65.22297
  79  -256.3835
  80  -568.106
  81  -505.0402
  82  -892.833
  83  -769.1722
  84  -763.6528
  85  -625.8979
  86  -501.0973
  87  -968.8585
  88  -800.4384
  89  -782.7046
  90  -618.5885
  91  -856.1265
  92  -1025.705
  93  -1079.706
  94  -891.2172
  95  -621.2236
  96  -424.6859
  97  -116.8275
  98  -254.1382
  99  6.353569
 100  -548.6149
 101  -601.7126
 102  -422.7528
 103  -203.2587
 104  -387.2134
 105  -265.6818
 106  -429.7111
 107  -265.9299
 108  -484.2546
 109  30.38241
 110  89.40076
 111  -111.757
 112  -230.0755
 113  -255.1212
 114  -50.53326
 115  -173.3245
 116  -285.9527
 117  -507.0596
 118  -427.2338
 119  -521.3611
 120  -792.6476
 121  -693.3001
 122  -570.3233
 123  -226.465
 124  -213.4003
 125  95.31599
 126  269.6931
 127  332.4775
 128  208.3437
 129  6.059142
 130  63.07821
 131  161.5416
 132  354.6759
 133  190.3804
 134  320.7
 135  520.5654
 136  11.19016
 137  32.53426
 138  415.7872
 139  880.9868
 140  436.9617
 141  465.9843
 142  579.4249
 143  903.7648
 144  903.0615
 145  393.5567
 146  542.1268
 147  727.593
 148  423.7646
 149  180.0338
 150  492.015
 151  616.7311
 152  558.0743
 153  543.403
 154  458.5786
 155  471.6287
 156  633.9078
 157  801.4257
 158  1018.489
 159  1385.573
 160  1446.715
 161  748.7048
 162  1100.442
 163  1150.835
 164  1076.204
 165  1343.364
 166  1682.887
 167  1610.859
 168  1840.989
 169  2240.273
 170  2190.129
 171  1650.232
 172  1091.787
 173  779.2292
 174  331.0223
 175  340.8255
 176  801.4658
 177  475.4081
 178  308.2483
 179  704.5839
 180  398.811
 181  256.6819
 182  394.8039
 183  497.2038
 184  290.4241
 185  427.5862
 186  390.9737
 187  197.7379
 188  47.04478
 189  462.5932
 190  755.8826
 191  667.2191
 192  411.4442
 193  227.2827
 194  -43.55767
 195  166.7806
 196  125.2697
 197  448.0439
 198  442.3294
 199  330.312
 200  352.1604
 201  290.2242
 202  482.0317
 203  538.7413
 204  477.0955
 205  296.913
 206  238.1152
 207  10.95726
 208  473.0704
 209  830.061
 210  476.6225
 211  455.3543
 212  326.6999
 213  268.3793
 214  107.2273
 215  540.2946
 216  560.3331
 217  883.5123
 218  810.2169
 219  290.5226
 220  183.9686
 221  553.2062
 222  864.8379
 223  808.6615
 224  852.2267
 225  1141.238
 226  842.6301
 227  197.5165
 228  -3.036275
 229  60.18624
 230  506.489
 231  719.0712
 232  1195.417
 233  1020.577
 234  748.6021
 235  484.7514
 236  462.4233
 237  303.467
 238  521.0062
 239  777.9298
 240  1147.665
 241  788.3046
 242  1011.412
 243  652.735
 244  458.2084
 245  499.503
 246  457.4523
 247  314.7212
 248  772.5762
 249  569.1661
 250  355.7218
 251  262.9318
 252  249.3943
 253  310.0451
 254  382.1533
 255  436.9572
 256  544.3163
 257  352.713
 258  588.8487
 259  284.8071
 260  13.71246
 261  237.5624
 262  228.1085
 263  230.724
 264  453.8648
 265  367.947
 266  239.3587
 267  22.95036
 268  -7.344727
 269  -199.5101
 270  -73.91689
 271  202.2742
 272  24.55581
 273  -115.2877
 274  -2.773735
 275  -117.2699
 276  -62.81482
 277  3.703705
 278  -38.64989
 279  -3.777312
 280  182.3863
 281  246.1145
 282  312.0259
 283  371.9496
 284  716.1768
 285  616.9821
 286  449.4681
 287  334.9489
 288  125.5833
 289  484.0551
 290  381.3407
 291  133.4181
 292  427.5235
 293  395.2202
 294  219.1758
 295  50.89034
 296  -17.26547
 297  101.3699
 298  409.2244
 299  440.3594
 300  484.3167
 301  387.1133
 302  -1.92787
 303  161.3425
 304  234.4725
 305  -107.7079
 306  -10.57213
 307  310.3513
 308  340.787
 309  557.8221
 310  553.0467
 311  384.0596
 312  149.8641
 313  217.6246
 314  373.8466
 315  252.3969
 316  182.7481
 317  279.2184
 318  634.8434
 319  599.3674
 320  384.1994
 321  215.6691
 322  208.0614
 323  431.6265
 324  380.8332
 325  -203.7396
 326  -127.7639
 327  -199.8042
 328  58.43777
 329  394.2446
 330  76.00896
 331  -214.6995
 332  -319.6121
 333  -72.04237
 334  134.4648
 335  -109.8227
 336  -196.7502
 337  33.04491
 338  183.8992
 339  -68.31597
 340  129.7039
 341  167.1262
 342  31.72547
 343  -70.79285
 344  124.4685
 345  188.1036
 346  -96.0663
 347  -462.3608
 348  -255.1314
 349  58.55706
 350  -125.8654
 351  79.91849
 352  -8.876218
 353  -15.22173
 354  -461.1269
 355  -341.7679
 356  -362.8616
 357  -233.1756
 358  -107.7318
 359  101.6172
 360  -140.212
 361  -86.81223
 362  28.31223
 363  -352.9622
 364  -511.4907
 365  -400.677
 366  -443.9428
 367  -297.7938
 368  -380.4996
 369  -484.678
 370  -455.695
 371  -147.3162
 372  185.77
 373  79.17569
 374  -20.67086
 375  70.85156
 376  -207.5855
 377  -610.1621
 378  -663.4443
 379  -522.834
 380  -477.1571
 381  -397.973
 382  -170.1209
 383  -308.7291
 384  -621.0278
 385  -480.8266
 386  -611.1148
 387  -792.8286
 388  -763.8242
 389  -519.9722
 390  -357.6773
 391  -261.5218
 392  -494.6932
 393  -504.5103
 394  -209.2442
 395  -73.0905
 396  -256.3567
 397  -465.3932
 398  -538.7517
 399  -622.2752
 400  -757.4541
 401  -1003.737
 402  -850.6016
 403  -723.6893
 404  -532.2613
 405  -606.3181
 406  -662.9617
 407  -983.7313
 408  -988.2657
 409  -933.9689
 410  -824.0545
 411  -862.8109
 412  -998.3446
 413  -773.2026
 414  -497.0753
 415  -353.4651
 416  -545.5339
 417  -583.5577
 418  -785.0111
 419  -823.1423
 420  -735.766
 421  -752.4535
 422  -777.8587
 423  -511.0879
 424  -295.0095
 425  -717.577
 426  -922.2958
 427  -687.4435
 428  -553.8184
 429  -862.7589
 430  -876.7975
 431  -596.9296
 432  -580.9802
 433  -562.8818
 434  -759.6713
 435  -655.2278
 436  -470.9637
 437  -573.6292
 438  -660.3184
 439  -391.6628
 440  -587.6107
 441  -548.7715
 442  -137.5871
 443  -238.2474
 444  -621.7408
 445  -631.873
 446  -656.1653
 447  -323.6776
 448  -815.5191
 449  -1047.669
 450  -714.9481
 451  -781.6113
 452  -725.2061
 453  -935.0047
 454  -1052.466
 455  -770.3032
 456  -928.2243
 457  -926.0878
 458  -899.2327
 459  -831.8208
 460  -798.6791
 461  -778.7104
 462  -1017.395
 463  -791.0247
 464  -604.447
 465  -560.326
 466  -767.7241
 467  -882.011
 468  -770.8317
 469  -909.0582
 470  -977.2371
 471  -927.222
 472  -951.7632
 473  -627.0721
 474  -419.0579
 475  -498.588
 476  -592.4476
 477  -672.2061
 478  -233.2019
 479  -88.64642
 480  -23.49132
 481  -85.94482
 482  56.52575
 483  59.59702
 484  98.28504
 485  761.3916
 486  319.6796
 487  141.558
 488  150.3313
 489  -589.934
 490  -387.9162
 491  -223.2873
 492  -343.7978
 493  -482.3582
 494  -406.1159
 495  -342.7712
 496  -675.6344
 497  -884.257
 498  -549.9245
 499  -377.1372
 500  -132.6869
 501  -237.4238
 502  -407.3011
 503  -246.2272
 504  -132.8096
 505  -151.4559
 506  -457.5634
 507  13.557
 508  37.21265
 509  -235.6326
 510  242.2438
 511  -186.8075
