# Input file       =  1205513153.125172_cleaned.dat
# Candidate        =  PSR_0332+5434
# Telescope        =  AR
# Epoch_topo       =  58196.698751448748
# Epoch_bary       =  N/A
# T_sample         =  0.002
# Data Folded      =  7340032
# Data Avg         =  0.221930004663591
# Data StdDev      =  5.88656827139994 
# Profile Bins     =  512
# Profile Avg      =  3181.56858377346 
# Profile StdDev   =  704.816692973846 
# Reduced chi-sqr  =  1.829
# Prob(Noise)      <  2.94e-27   (~10.8 sigma)
# P_topo (ms)      =  714.576229146543  +/- 0.000189
# P'_topo (s/s)    =  -0                +/- 9.96e-11
# P''_topo (s/s^2) =  0                 +/- 4.4e-14
# P_bary (ms)      =  N/A
# P'_bary (s/s)    =  N/A
# P''_bary (s/s^2) =  N/A
# P_orb (s)        =  N/A
# asin(i)/c (s)    =  N/A
# eccentricity     =  N/A
# w (rad)          =  N/A
# T_peri           =  N/A
######################################################
   0  4108.688
   1  3751.404
   2  3391.574
   3  3675.114
   4  3761.774
   5  3447.915
   6  3213.68
   7  3064.333
   8  2657.753
   9  2352.064
  10  2217.936
  11  2230.124
  12  2173.225
  13  2253.814
  14  2133.428
  15  1823.534
  16  1827.415
  17  2138.695
  18  2277.907
  19  2655.183
  20  2725.006
  21  2174.818
  22  2205.287
  23  2245.52
  24  1961.186
  25  2183.665
  26  2118.568
  27  2084.895
  28  1858.076
  29  1552.135
  30  1674.043
  31  2091.989
  32  2429.259
  33  2142.713
  34  2286.339
  35  2399.617
  36  2393.181
  37  2253.504
  38  2564.783
  39  2548.236
  40  2595.22
  41  2451.448
  42  2442.858
  43  2458.925
  44  2554.691
  45  2552.114
  46  3055.247
  47  3020.279
  48  2875.73
  49  2922.362
  50  2969.467
  51  2794.516
  52  3031.186
  53  2873.099
  54  2582.729
  55  2952.809
  56  3034.733
  57  2958.247
  58  3344.406
  59  3224.948
  60  2759.037
  61  2813.115
  62  2705.621
  63  3280.626
  64  3481.292
  65  3302.384
  66  3270.168
  67  3188.307
  68  3293.969
  69  3550.173
  70  3316.63
  71  3449.168
  72  3596.442
  73  3357.263
  74  3086.967
  75  3339.494
  76  3807.33
  77  3736.848
  78  3495.615
  79  3740.525
  80  3845.329
  81  3579.624
  82  3226.024
  83  3119.95
  84  2924.319
  85  2651.604
  86  2607.791
  87  2497.282
  88  2492.676
  89  2604.189
  90  2294.037
  91  1484.829
  92  1574.971
  93  1482.423
  94  1580.68
  95  2136.686
  96  1807.577
  97  2003.886
  98  1926.072
  99  2014.559
 100  1909.799
 101  2003.515
 102  2320.672
 103  2175.953
 104  2256.114
 105  2095.037
 106  2042.364
 107  2424.75
 108  2331.755
 109  2631.943
 110  2284.312
 111  2000.453
 112  2102.464
 113  2285.958
 114  2359.358
 115  1879.374
 116  1756.655
 117  2459.211
 118  2645.233
 119  2546.545
 120  2515.49
 121  2498.309
 122  2585.082
 123  2421.84
 124  2541.205
 125  2539.333
 126  2192.621
 127  2197.954
 128  2544.78
 129  3307.955
 130  2933.22
 131  2780.574
 132  2857.564
 133  2928.343
 134  3065.78
 135  3678.727
 136  3922.047
 137  3871.252
 138  3577.614
 139  3755.167
 140  3785.334
 141  3202.855
 142  3499.542
 143  3783.321
 144  3782.995
 145  3166.82
 146  3561.604
 147  4109.848
 148  4005.01
 149  4077.959
 150  4177.592
 151  3786.875
 152  3436.85
 153  3232.192
 154  3637.622
 155  3701.436
 156  3463.06
 157  3507.055
 158  2814.527
 159  2927.575
 160  2738.512
 161  2774.218
 162  2839.615
 163  2988.16
 164  2919.503
 165  2646.422
 166  2683.145
 167  2842.019
 168  2307.346
 169  2139.377
 170  2631.206
 171  2833.903
 172  2036.967
 173  1962.86
 174  2622.331
 175  3007.002
 176  2645.079
 177  2192.116
 178  2494.278
 179  2815.531
 180  2967
 181  2449.274
 182  2580.456
 183  2717.336
 184  2584.892
 185  2574.044
 186  2493.342
 187  2498.7
 188  2593.511
 189  2933.179
 190  2593.27
 191  2431.858
 192  2622.495
 193  2374.389
 194  2667.922
 195  2817.57
 196  2733.803
 197  2970.349
 198  2968.915
 199  3143.313
 200  2967.131
 201  3037.356
 202  3014.583
 203  3157.452
 204  3817.42
 205  4015.208
 206  3693.831
 207  3836.775
 208  3987.876
 209  3816.054
 210  3569.294
 211  4173.467
 212  4246.155
 213  4479.547
 214  4578.348
 215  4360.988
 216  4550.579
 217  4445.156
 218  4335.428
 219  4283.692
 220  4380.541
 221  4443.43
 222  4256.757
 223  4176.17
 224  3935.267
 225  3866.602
 226  3668.257
 227  3606.572
 228  3500.368
 229  3622.737
 230  3792.049
 231  4077.857
 232  3865.742
 233  3693.546
 234  3733.602
 235  4095.694
 236  4018.423
 237  3883.478
 238  3681.596
 239  3864.651
 240  3546.514
 241  3240.22
 242  3199.514
 243  3468.982
 244  3339.847
 245  3287.474
 246  3392.857
 247  3158.565
 248  3328.604
 249  3687.478
 250  3320.031
 251  3152.713
 252  3092.075
 253  3084.65
 254  2966.849
 255  3023.539
 256  3201.941
 257  2755.108
 258  2402.502
 259  2296.092
 260  2489.465
 261  2399.632
 262  2617.406
 263  2692.077
 264  2771.275
 265  2902.556
 266  2623.863
 267  2645.686
 268  2394.777
 269  2833.466
 270  2607.701
 271  2560.18
 272  2794.729
 273  2671.611
 274  2848.66
 275  3315.868
 276  3656.276
 277  3450.867
 278  3304.58
 279  3224.593
 280  3730.73
 281  3803.921
 282  3564.906
 283  3281.364
 284  3511.346
 285  3959.634
 286  4098.622
 287  4514.102
 288  4437.363
 289  4382.907
 290  4426.326
 291  4550.432
 292  4798.942
 293  4502.995
 294  4276.865
 295  4280.503
 296  4412.413
 297  4217.769
 298  4366.075
 299  4656.819
 300  4490.046
 301  3760.005
 302  3804.365
 303  3645.174
 304  3591.401
 305  3474.588
 306  3457.078
 307  3351.589
 308  3202.147
 309  3095.012
 310  3017.81
 311  2851.024
 312  3010.275
 313  2643.839
 314  2533.649
 315  2656.949
 316  2670.793
 317  2965.689
 318  2921.112
 319  2903.323
 320  3308.964
 321  2981.253
 322  2773.28
 323  2722.176
 324  2983.681
 325  2854.394
 326  2678.336
 327  3060.927
 328  3487.257
 329  3233.882
 330  3094.786
 331  2923.399
 332  2878.024
 333  2944.901
 334  3264.566
 335  3177.147
 336  3189.3
 337  3241.305
 338  3055.662
 339  3142.115
 340  3229.44
 341  3066.881
 342  3230.859
 343  3746.368
 344  3814.487
 345  3648.056
 346  3670.294
 347  3475.517
 348  3582.016
 349  3760.221
 350  4004.183
 351  4063.71
 352  4019.805
 353  4421.772
 354  4189.011
 355  4286.566
 356  4479.699
 357  4023.053
 358  3987.958
 359  4210.906
 360  4444.954
 361  4210.873
 362  4196.102
 363  4224.557
 364  4594.871
 365  4168.037
 366  4049.24
 367  4034.626
 368  4055.11
 369  3980.15
 370  3916.025
 371  4378.264
 372  4191.745
 373  3928.431
 374  3554.762
 375  3929.709
 376  3818.323
 377  3373.271
 378  3411.083
 379  3318.779
 380  3660.33
 381  3805.739
 382  3515.284
 383  3381.866
 384  3273.755
 385  3327.671
 386  3633.33
 387  3233.617
 388  3489.347
 389  3233.78
 390  3228.487
 391  3031.03
 392  2783.463
 393  3329.612
 394  3229.794
 395  3182.831
 396  3123.901
 397  2922.34
 398  3143.27
 399  3121.542
 400  2950.222
 401  2905.103
 402  2674.99
 403  2584.238
 404  2652.794
 405  2669.684
 406  2892.738
 407  3200.995
 408  3374.849
 409  2997.414
 410  3043.151
 411  2946.632
 412  2998.344
 413  3193.837
 414  3728.477
 415  3863.236
 416  3467.443
 417  3862.729
 418  3626.112
 419  3787.219
 420  3670.903
 421  3253.481
 422  3117.15
 423  3141.417
 424  3049.435
 425  3406.682
 426  3261.88
 427  3043.653
 428  3653.76
 429  3672.241
 430  3799.919
 431  3656.957
 432  4040.463
 433  4029.105
 434  4058.462
 435  3733.135
 436  3426.956
 437  3596.264
 438  3680.846
 439  3720.977
 440  3423.933
 441  3370.252
 442  3569.655
 443  3333.384
 444  3562.548
 445  3352.192
 446  3019.268
 447  3275.716
 448  3494.798
 449  3533.303
 450  3639.711
 451  3758.545
 452  3590.657
 453  3511.091
 454  3537.064
 455  3125.115
 456  2739.165
 457  3027.596
 458  2831.103
 459  2519.264
 460  2492.906
 461  2530.506
 462  2631.271
 463  2357.323
 464  2546.506
 465  2954.978
 466  3102.734
 467  2469.708
 468  2635.437
 469  2732.625
 470  2293.872
 471  2182.375
 472  2507.372
 473  2370.904
 474  2170.086
 475  2346.353
 476  2387.928
 477  2538.391
 478  2613.181
 479  2729.317
 480  2939.563
 481  2795.899
 482  3176.463
 483  3312.97
 484  3572.927
 485  3370.864
 486  3169.607
 487  3526.769
 488  3524.849
 489  3280.582
 490  2947.774
 491  2791.084
 492  3025.136
 493  3209.572
 494  3307.62
 495  3052.262
 496  3405.273
 497  3611.209
 498  3857.714
 499  4039.047
 500  4424.724
 501  5053.809
 502  5075.724
 503  5150.11
 504  4864.25
 505  4416.718
 506  4264.876
 507  4019.352
 508  4085.066
 509  4125.502
 510  4092.483
 511  3904.369
