# Input file       =  1205826898.111558_cleaned.dat
# Candidate        =  PSR_0332+5434
# Telescope        =  AR
# Epoch_topo       =  58200.330059161548
# Epoch_bary       =  N/A
# T_sample         =  0.002
# Data Folded      =  7143424
# Data Avg         =  0.219854627362102
# Data StdDev      =  6.10501547022817 
# Profile Bins     =  512
# Profile Avg      =  3067.30277913171 
# Profile StdDev   =  721.115785583252 
# Reduced chi-sqr  =  3.547
# Prob(Noise)      <  7.86e-145   (~25.6 sigma)
# P_topo (ms)      =  714.574242049414  +/- 1.56e-05
# P'_topo (s/s)    =  -0                +/- 8.48e-12
# P''_topo (s/s^2) =  0                 +/- 3.85e-15
# P_bary (ms)      =  N/A
# P'_bary (s/s)    =  N/A
# P''_bary (s/s^2) =  N/A
# P_orb (s)        =  N/A
# asin(i)/c (s)    =  N/A
# eccentricity     =  N/A
# w (rad)          =  N/A
# T_peri           =  N/A
######################################################
   0  4508.036
   1  4524.896
   2  4124.242
   3  3604.308
   4  2768.426
   5  2615.156
   6  2950.618
   7  2897.42
   8  2676.889
   9  3159.77
  10  3360.271
  11  2446.501
  12  1935.327
  13  1619.49
  14  2279.54
  15  2987.939
  16  3828.802
  17  4850.532
  18  4861.336
  19  3743.271
  20  2967.996
  21  2314.308
  22  1970.607
  23  2048.236
  24  2615.116
  25  3118.043
  26  3359.485
  27  2760.096
  28  1849.564
  29  1523.345
  30  1945.118
  31  2598.563
  32  3617.483
  33  4305.507
  34  4724.172
  35  4652.541
  36  3949.06
  37  2678.316
  38  1987.08
  39  2268.388
  40  2713.481
  41  2966.288
  42  3427.876
  43  3251.07
  44  2533.908
  45  1775.151
  46  1660.072
  47  1785.297
  48  2706.642
  49  3904.242
  50  4728.314
  51  4949.634
  52  4508.221
  53  3857.887
  54  2432.835
  55  2368.001
  56  2594.049
  57  2658.583
  58  2969.672
  59  3236.765
  60  2497.902
  61  1881.913
  62  1330.283
  63  1908.769
  64  2703.377
  65  3730.408
  66  4422.06
  67  4576.938
  68  4193.318
  69  3666.355
  70  2849.493
  71  2294.614
  72  2460.459
  73  2738.687
  74  2895.486
  75  3348.204
  76  3174.29
  77  2657.52
  78  2138.187
  79  2230.299
  80  2477.498
  81  3075.712
  82  4350.565
  83  5338.207
  84  4928.988
  85  4173.985
  86  3029.154
  87  2447.215
  88  1868.173
  89  2244.741
  90  2805.633
  91  3487.128
  92  3417.804
  93  3030.523
  94  2277.872
  95  1671.382
  96  1953.081
  97  2390.132
  98  3519.804
  99  4842.921
 100  5541.093
 101  5083.738
 102  3767.17
 103  2620.571
 104  2186.534
 105  2447.636
 106  2671.183
 107  2996.939
 108  3038.261
 109  3438.402
 110  2743.934
 111  1878.09
 112  1908.056
 113  1974.803
 114  2923.395
 115  4240.963
 116  5423.008
 117  5122.301
 118  4406.268
 119  3101.829
 120  2209.041
 121  2089.222
 122  2266.842
 123  2775.442
 124  3097.606
 125  3473.922
 126  3092.505
 127  2252.948
 128  1881.838
 129  1964.08
 130  2662.314
 131  3066.98
 132  3853.153
 133  4237.132
 134  4613.185
 135  4306.432
 136  3109.935
 137  2544.99
 138  2579.364
 139  3148.593
 140  2769.353
 141  3150.842
 142  3063.132
 143  2143.22
 144  1853.43
 145  1806.52
 146  2396.535
 147  2943.416
 148  3868.431
 149  4979.682
 150  5268.211
 151  4299.619
 152  2794.455
 153  2558.5
 154  2523.693
 155  3013.326
 156  2779.677
 157  3258.385
 158  3551.455
 159  2859.254
 160  2131.948
 161  1493.521
 162  1806.403
 163  2544.045
 164  3669.051
 165  4912.167
 166  5195.799
 167  4884.065
 168  3442.399
 169  2741.15
 170  2261.795
 171  2055.962
 172  2509.431
 173  2802.09
 174  3445.52
 175  3517.737
 176  3005.679
 177  1882.937
 178  1645.996
 179  2161.037
 180  2963.573
 181  4059.514
 182  4856.364
 183  5155.876
 184  4518.77
 185  3613.142
 186  2492.206
 187  2765.233
 188  3408.248
 189  3146.247
 190  3390.369
 191  3263.49
 192  3126.307
 193  2383.278
 194  1811.306
 195  2204.438
 196  2674.516
 197  3656.703
 198  4556.547
 199  5096.97
 200  4910.208
 201  4127.352
 202  2804.872
 203  2256.134
 204  2310.662
 205  2376.865
 206  2978.693
 207  3429.655
 208  3050.909
 209  2478.602
 210  2200.868
 211  1550.216
 212  2147.012
 213  3115.722
 214  3765.408
 215  4386.492
 216  4055.215
 217  3775.472
 218  3349.731
 219  2646.698
 220  2967.08
 221  2770.993
 222  2756.541
 223  3037.665
 224  3210.755
 225  2808.219
 226  2122.511
 227  1954.548
 228  1828.02
 229  2464.745
 230  3486.115
 231  4482.168
 232  5188.383
 233  4954.831
 234  3975.257
 235  2397.876
 236  1542.001
 237  1778.527
 238  2498.876
 239  3155.084
 240  3557.322
 241  3451.899
 242  3085.905
 243  1767.387
 244  1382.794
 245  1732.444
 246  2870.482
 247  3908.938
 248  4747.214
 249  5123.948
 250  4572.738
 251  3181.296
 252  1880.479
 253  1858.61
 254  2415.683
 255  2440.814
 256  2763.487
 257  3257.974
 258  3052.287
 259  2683.253
 260  1794.517
 261  1377.506
 262  2044.903
 263  3343.814
 264  4215.098
 265  4812.398
 266  5114.913
 267  4181.752
 268  3008.188
 269  2428.065
 270  2339.306
 271  2356.909
 272  2718.007
 273  2972.776
 274  3525.266
 275  2999.067
 276  2354.375
 277  1805.413
 278  1976.315
 279  2781.162
 280  3386.329
 281  4257.093
 282  4641.389
 283  4128.765
 284  3531.125
 285  2764.213
 286  2179.644
 287  2396.741
 288  2158.672
 289  2503.541
 290  2862.458
 291  2975.867
 292  2132.269
 293  1353.315
 294  1792.058
 295  2703.171
 296  3862.313
 297  4791.25
 298  5272.02
 299  4886.376
 300  4418.406
 301  3682.98
 302  3723.712
 303  3987.885
 304  4903.356
 305  4729.358
 306  4416.991
 307  3727.996
 308  2699.888
 309  1574.803
 310  915.2811
 311  1857.318
 312  3193.001
 313  4246.938
 314  4562.119
 315  4910.487
 316  4705.518
 317  3022.564
 318  2336.322
 319  2178.423
 320  2195.929
 321  2553.881
 322  3338.614
 323  3692.19
 324  3129.113
 325  1933.564
 326  1407.669
 327  1469.774
 328  2400.172
 329  3304.143
 330  4675.421
 331  5388.285
 332  4513.152
 333  3608.75
 334  2733.941
 335  2002.889
 336  1737.223
 337  2013.458
 338  2347.378
 339  3205.083
 340  3528.593
 341  3249.315
 342  2179.41
 343  1337.367
 344  2000.467
 345  2409.05
 346  3677.857
 347  4592.449
 348  5172.298
 349  4971.214
 350  3525.5
 351  2808.01
 352  2190.084
 353  2359.56
 354  2215.541
 355  2496.172
 356  3196.822
 357  2922.102
 358  2507.831
 359  1946.99
 360  2125.109
 361  2408.244
 362  3286.049
 363  4188.287
 364  4793.33
 365  4671.009
 366  3627.01
 367  2960.953
 368  2361.44
 369  2785.058
 370  2910.78
 371  2447.27
 372  2535.398
 373  2758.674
 374  2615.919
 375  2116.28
 376  2148.672
 377  2315.804
 378  3016.187
 379  3828.845
 380  4484.47
 381  4749.14
 382  4278.993
 383  3884.294
 384  2258.241
 385  1948.016
 386  2515.854
 387  2909.658
 388  3704.698
 389  3407.416
 390  2856.172
 391  2241.731
 392  1884.603
 393  2335.971
 394  2326.771
 395  3437.822
 396  4070.394
 397  4874.238
 398  4546.673
 399  3843.524
 400  3069.228
 401  2357.04
 402  2068.263
 403  2813.343
 404  2962.621
 405  3378.573
 406  3299.982
 407  2537.041
 408  2201.781
 409  2093.346
 410  1758.788
 411  2575.594
 412  3566.165
 413  4923.242
 414  5261.155
 415  5008.623
 416  3712.477
 417  2346.476
 418  2014.676
 419  1757.501
 420  2490.023
 421  2997.731
 422  3556.85
 423  3375.22
 424  2525.315
 425  2186.853
 426  1326.824
 427  2527.173
 428  3102.944
 429  3969.836
 430  4844.612
 431  4532.423
 432  4208.517
 433  3210.662
 434  2835.882
 435  2439.922
 436  2313.685
 437  2346.707
 438  2552.877
 439  3325.526
 440  3180.515
 441  2334.885
 442  1731.34
 443  1839.724
 444  2781.031
 445  3773.672
 446  4690.168
 447  4894.133
 448  4565.615
 449  3294.864
 450  2845.541
 451  2513.425
 452  2370.552
 453  2614
 454  2847.701
 455  2892.652
 456  2926.986
 457  2655.258
 458  1738.177
 459  1855.068
 460  2521.875
 461  2891.757
 462  4312.889
 463  4325.96
 464  4316.538
 465  4010.539
 466  3056.458
 467  2401.959
 468  1877.214
 469  2150.709
 470  2686.432
 471  3246.916
 472  3282.779
 473  2717.024
 474  2215.492
 475  1549.178
 476  2015.389
 477  3197.744
 478  3941.292
 479  4834.125
 480  4840.467
 481  3999.252
 482  3260.534
 483  2603.704
 484  2069.197
 485  2374.099
 486  2685.309
 487  3074.187
 488  3384.668
 489  3536.007
 490  2312.515
 491  1549.752
 492  1887.4
 493  2132.695
 494  3090.409
 495  3828.521
 496  4690.612
 497  4600.721
 498  3853.035
 499  2751.288
 500  2285.091
 501  2129.241
 502  2284.893
 503  2415.758
 504  3336.196
 505  3125.694
 506  2859.28
 507  2060.367
 508  1670.775
 509  1628.507
 510  2542.034
 511  3648.32
