# Input file       =  1205826898.111558-PSRB0329-2ms-sampling-dd.dat
# Candidate        =  PSR_0332+5434
# Telescope        =  AR
# Epoch_topo       =  58200.330059161548
# Epoch_bary       =  N/A
# T_sample         =  0.002
# Data Folded      =  7208960
# Data Avg         =  1.13707505166961e-09
# Data StdDev      =  7.70146946426195 
# Profile Bins     =  512
# Profile Avg      =  -0.0875566594086033
# Profile StdDev   =  913.850019028366 
# Reduced chi-sqr  =  2.074
# Prob(Noise)      <  1.34e-40   (~13.3 sigma)
# P_topo (ms)      =  714.574242188075  +/- 2.19e-05
# P'_topo (s/s)    =  -0                +/- 1.17e-11
# P''_topo (s/s^2) =  0                 +/- 5.28e-15
# P_bary (ms)      =  N/A
# P'_bary (s/s)    =  N/A
# P''_bary (s/s^2) =  N/A
# P_orb (s)        =  N/A
# asin(i)/c (s)    =  N/A
# eccentricity     =  N/A
# w (rad)          =  N/A
# T_peri           =  N/A
######################################################
   0  -682.6238
   1  -794.618
   2  -968.2327
   3  -755.5051
   4  -750.5632
   5  -0.4684509
   6  -259.7989
   7  -735.1697
   8  -1032.909
   9  -1136.33
  10  -627.129
  11  23.66173
  12  762.9514
  13  1171.351
  14  996.6221
  15  377.5132
  16  -0.4450229
  17  -748.5704
  18  -992.0396
  19  -1369.36
  20  -1119.508
  21  -388.5935
  22  -301.9436
  23  -566.2635
  24  -1725.153
  25  -1449.526
  26  -493.5283
  27  824.6187
  28  1817.389
  29  2045.692
  30  1931.96
  31  1202.025
  32  574.0062
  33  605.4377
  34  826.0988
  35  1552.145
  36  1793.664
  37  1528.851
  38  793.9577
  39  -332.1663
  40  -1207.514
  41  -2063.998
  42  -1110.668
  43  -13.14248
  44  864.9433
  45  952.2046
  46  1522.331
  47  1872.356
  48  667.7472
  49  -73.74497
  50  -690.0087
  51  -490.13
  52  -716.7514
  53  -3.634694
  54  371.6313
  55  237.0974
  56  -664.437
  57  -1186.547
  58  -1052.627
  59  -1038.437
  60  -200.9739
  61  851.2997
  62  2052.917
  63  1370.408
  64  492.7076
  65  39.11712
  66  -708.9246
  67  -944.0955
  68  -906.0977
  69  -1020.826
  70  -320.5094
  71  387.9129
  72  329.9176
  73  -603.77
  74  -1594.934
  75  -1073.226
  76  -694.8856
  77  221.0376
  78  1093.476
  79  1712.329
  80  1810.119
  81  687.596
  82  -60.30764
  83  -657.2302
  84  -940.952
  85  -1129.024
  86  -856.2228
  87  -118.3206
  88  -4.4676
  89  -755.7448
  90  -1005.276
  91  -748.5579
  92  -724.0835
  93  -4.692634
  94  637.5355
  95  1387.074
  96  1618.912
  97  969.2261
  98  224.5494
  99  -304.1352
 100  -136.3703
 101  4.207251
 102  -647.5891
 103  -857.7467
 104  -732.2892
 105  -625.9548
 106  -1110.473
 107  -823.4838
 108  -792.3099
 109  -224.0875
 110  678.9484
 111  1310.652
 112  1510.314
 113  929.2629
 114  773.3868
 115  -700.9464
 116  -1099.813
 117  -531.0852
 118  -311.9929
 119  195.1938
 120  197.9783
 121  -243.3685
 122  -859.4786
 123  -1457.469
 124  -931.5132
 125  -733.2628
 126  57.26917
 127  692.132
 128  1369.379
 129  1360.176
 130  901.993
 131  357.432
 132  -121.1497
 133  -585.4457
 134  -567.3371
 135  -236.7106
 136  -150.3808
 137  401.2322
 138  -286.4886
 139  -926.2588
 140  -712.0802
 141  -1025.05
 142  -429.7799
 143  4.277141
 144  1531.958
 145  2220.884
 146  1899.76
 147  1123.593
 148  -493.2231
 149  -708.1878
 150  -1146.293
 151  -444.3489
 152  -19.7434
 153  157.4834
 154  294.5331
 155  -609.1064
 156  -560.077
 157  -1439.21
 158  -638.3881
 159  -371.6057
 160  358.0233
 161  1499.38
 162  1257.556
 163  959.152
 164  167.7825
 165  -75.45515
 166  -314.2401
 167  -463.9233
 168  -978.8699
 169  -883.2814
 170  -7.374321
 171  274.9378
 172  -339.8553
 173  -1182.793
 174  -1051.475
 175  -652.0107
 176  385.2632
 177  1459.189
 178  1442.567
 179  1749.769
 180  452.7897
 181  119.8674
 182  -205.6458
 183  -599.5286
 184  -307.2462
 185  -190.0655
 186  68.00808
 187  -371.2701
 188  -398.3576
 189  -1295.215
 190  -1485.796
 191  -463.1587
 192  -629.7218
 193  726.1297
 194  1093.959
 195  1098.376
 196  1046.851
 197  154.7644
 198  -602.8369
 199  -1411.555
 200  -977.0042
 201  -571.3185
 202  189.9371
 203  288.92
 204  -286.8114
 205  -708.4537
 206  -1482.661
 207  -1095.661
 208  -328.1397
 209  634.816
 210  1509.326
 211  1996.981
 212  1400.012
 213  137.417
 214  -128.6254
 215  -805.3188
 216  -520.5251
 217  -657.0368
 218  -186.793
 219  328.1352
 220  836.5447
 221  49.60692
 222  -1293.787
 223  -995.9655
 224  -1063.999
 225  -188.1735
 226  665.2411
 227  1257.483
 228  1902.58
 229  891.3408
 230  278.5245
 231  -650.2001
 232  -546.9118
 233  -747.6061
 234  -638.7507
 235  59.96573
 236  361.3651
 237  -113.6297
 238  -1066.849
 239  -1373.503
 240  -1236.797
 241  -580.0035
 242  317.1944
 243  1043.807
 244  1774.156
 245  1104.55
 246  866.8442
 247  26.15418
 248  -561.7949
 249  -253.2346
 250  -53.42515
 251  -89.94265
 252  -17.55099
 253  598.397
 254  -176.6337
 255  -767.5417
 256  -1317.686
 257  -1074.847
 258  -298.4057
 259  306.2257
 260  1621.039
 261  1800.926
 262  972.1087
 263  -109.1139
 264  -670.5466
 265  -915.2797
 266  -960.3853
 267  -408.6798
 268  -69.02717
 269  601.2731
 270  350.8618
 271  -775.2792
 272  -1265.237
 273  -1231.618
 274  -594.7938
 275  375.1201
 276  1330.51
 277  1678.92
 278  1642.069
 279  1182.036
 280  -22.57009
 281  -719.8519
 282  -949.9409
 283  -531.1948
 284  -294.1278
 285  456.7348
 286  581.6167
 287  -134.5973
 288  -1019.566
 289  -1122.335
 290  -1119.398
 291  -709.8906
 292  329.6599
 293  1501.81
 294  2056.621
 295  1589.037
 296  1266.303
 297  112.0511
 298  -587.9691
 299  -530.9129
 300  -358.4295
 301  -103.3642
 302  226.2148
 303  -427.171
 304  -1044.243
 305  -1710.677
 306  -1275.004
 307  -644.9786
 308  114.9976
 309  1320.163
 310  1716.722
 311  1576.847
 312  695.0433
 313  -138.4032
 314  -635.0646
 315  -590.0306
 316  -52.63281
 317  -218.5238
 318  308.8904
 319  355.9184
 320  -113.3618
 321  -511.6679
 322  -772.7289
 323  -381.843
 324  -13.69186
 325  1054.725
 326  2280.699
 327  2145.863
 328  1333.688
 329  360.0186
 330  -321.917
 331  -718.4894
 332  -708.4999
 333  -172.1228
 334  500.0735
 335  805.2526
 336  231.7147
 337  -405.0125
 338  -1171.185
 339  -923.8102
 340  -516.7156
 341  197.677
 342  1599.801
 343  2329.159
 344  2204.885
 345  1061.81
 346  -189.6227
 347  -901.2868
 348  -780.9649
 349  -306.6892
 350  -134.9189
 351  -10.95842
 352  476.1883
 353  118.8572
 354  -912.2865
 355  -1068.769
 356  -1177.675
 357  -450.3047
 358  973.2945
 359  2485.611
 360  2713.653
 361  1813.768
 362  342.9884
 363  -579.8326
 364  -1073.051
 365  -807.7415
 366  -604.4177
 367  -46.2133
 368  415.7344
 369  494.2114
 370  -354.8477
 371  -928.2844
 372  -936.0646
 373  -659.867
 374  -41.90678
 375  478.5216
 376  1118.196
 377  1350.999
 378  1256.513
 379  392.8141
 380  -324.4274
 381  -516.5511
 382  -289.1263
 383  -394.1317
 384  -306.6917
 385  -245.9616
 386  -954.1313
 387  -1651.01
 388  -1583.615
 389  -975.4228
 390  -290.9597
 391  472.9505
 392  1470.875
 393  2105.113
 394  1438.076
 395  -221.6374
 396  -569.2258
 397  -756.29
 398  -176.7294
 399  14.65058
 400  78.31412
 401  466.3225
 402  -154.2316
 403  -1072.754
 404  -1712.818
 405  -1322.367
 406  -913.115
 407  -266.9792
 408  1085.703
 409  1820.028
 410  1771.948
 411  411.3112
 412  -461.9066
 413  -915.3389
 414  -895.2621
 415  -653.217
 416  -383.4875
 417  94.00195
 418  457.2061
 419  307.163
 420  -786.4775
 421  -1369.014
 422  -1204.51
 423  -314.6614
 424  889.7359
 425  2106.219
 426  2396.173
 427  1593.778
 428  789.1732
 429  -119.2935
 430  -209.6147
 431  489.8247
 432  161.9092
 433  261.0582
 434  504.9019
 435  477.1866
 436  -177.587
 437  -1051.741
 438  -789.1176
 439  -366.6845
 440  542.471
 441  1366.318
 442  2056.851
 443  2180.538
 444  1565.056
 445  410.8463
 446  -481.269
 447  -944.9758
 448  -1034.714
 449  -658.498
 450  456.713
 451  61.03334
 452  -434.1398
 453  -687.8518
 454  -1203.735
 455  -947.7787
 456  84.87956
 457  436.4279
 458  1435.507
 459  1578.412
 460  960.8273
 461  441.2304
 462  -448.1753
 463  -144.4212
 464  -106.5449
 465  123.8565
 466  138.162
 467  311.2351
 468  64.63682
 469  -666.6002
 470  -954.5944
 471  -1150.033
 472  -552.8239
 473  291.2758
 474  1177.444
 475  2008.784
 476  1935.068
 477  798.6308
 478  -587.6199
 479  -1257.189
 480  -1212.767
 481  -807.6792
 482  -585.3679
 483  -155.1207
 484  -89.84056
 485  -156.1633
 486  -1278.349
 487  -2003.287
 488  -1897.202
 489  -864.334
 490  142.0895
 491  894.7921
 492  1396.198
 493  1443.39
 494  472.5311
 495  -751.5717
 496  -1262.961
 497  -1124.866
 498  -891.4774
 499  -937.7164
 500  -147.066
 501  -111.5697
 502  -422.1968
 503  -893.7108
 504  -1578.489
 505  -1207.539
 506  -462.863
 507  678.8361
 508  1211.629
 509  1883.631
 510  1207.686
 511  31.50603
