# Input file       =  1205999253.103225_cleaned.dat
# Candidate        =  PSR_0332+5434
# Telescope        =  AR
# Epoch_topo       =  58202.324908602139
# Epoch_bary       =  N/A
# T_sample         =  0.002
# Data Folded      =  7208960
# Data Avg         =  0.214359539887994
# Data StdDev      =  5.64899935510075 
# Profile Bins     =  512
# Profile Avg      =  3018.00986438005 
# Profile StdDev   =  670.305607534441 
# Reduced chi-sqr  =  1.603
# Prob(Noise)      <  1.12e-16   (~8.2 sigma)
# P_topo (ms)      =  714.573275118613  +/- 2.21e-05
# P'_topo (s/s)    =  -0                +/- 1.19e-11
# P''_topo (s/s^2) =  0                 +/- 5.35e-15
# P_bary (ms)      =  N/A
# P'_bary (s/s)    =  N/A
# P''_bary (s/s^2) =  N/A
# P_orb (s)        =  N/A
# asin(i)/c (s)    =  N/A
# eccentricity     =  N/A
# w (rad)          =  N/A
# T_peri           =  N/A
######################################################
   0  2954.114
   1  3344.407
   2  3671.085
   3  3320.127
   4  3174.017
   5  2120.324
   6  2628.199
   7  3065.516
   8  2946.578
   9  3289.294
  10  3350.151
  11  3615.479
  12  3208.892
  13  2696.479
  14  2753.118
  15  3451.426
  16  3702.166
  17  3043.098
  18  3045.314
  19  3451.76
  20  3117.932
  21  2420.451
  22  2152.801
  23  2523.908
  24  2690.257
  25  2645.917
  26  3061.799
  27  3308.423
  28  3151.883
  29  2285.333
  30  2304.578
  31  2839.796
  32  2893.669
  33  2579.867
  34  3113.313
  35  3484.004
  36  3554.922
  37  2467.355
  38  2227.586
  39  2367.544
  40  2279.179
  41  2878.157
  42  2864.066
  43  3731.208
  44  3687.497
  45  3054.817
  46  2175.2
  47  1970.734
  48  2871.604
  49  3065.436
  50  2941.638
  51  3533.467
  52  3938.116
  53  3128.582
  54  1951.205
  55  2323.909
  56  2256.587
  57  2396.543
  58  2516.158
  59  3391.403
  60  4033.697
  61  3911.849
  62  2843.092
  63  2678.925
  64  2472.261
  65  2319.545
  66  2850.618
  67  3500.143
  68  4089.585
  69  4292.967
  70  3504.627
  71  2848.531
  72  2626.075
  73  2804.295
  74  2619.685
  75  2886.678
  76  3518.87
  77  3824.548
  78  3581.658
  79  2623.719
  80  3085.54
  81  3210.038
  82  2921.373
  83  3307.94
  84  3658.769
  85  3911.869
  86  3741.415
  87  3151.927
  88  2842.212
  89  3184.804
  90  3055.925
  91  2782.773
  92  3284.308
  93  3985.898
  94  3776.284
  95  2999.381
  96  3093.447
  97  3483.369
  98  3459.478
  99  3631.559
 100  4011.596
 101  4084.468
 102  3623.253
 103  2862.806
 104  2539.572
 105  3279.663
 106  3202.779
 107  3118.336
 108  3273.841
 109  3615.818
 110  4323.735
 111  3359.772
 112  2435.171
 113  2527.94
 114  3073.947
 115  3179.667
 116  2836.919
 117  3328.752
 118  3549.309
 119  3170.362
 120  2318.53
 121  2268.963
 122  2795.49
 123  2580.804
 124  2757.535
 125  3287.024
 126  3930.559
 127  3667.589
 128  2507.33
 129  2210.885
 130  2444.543
 131  3222.205
 132  3185.167
 133  3317.251
 134  3895.261
 135  3777.905
 136  2960.514
 137  2231.865
 138  2156.746
 139  1745.395
 140  2149.877
 141  2474.066
 142  3286.169
 143  4043.444
 144  3231.796
 145  2266.067
 146  2076.615
 147  2066.363
 148  2103.353
 149  2640.117
 150  3405.484
 151  3690.701
 152  3641.769
 153  2627.774
 154  2064.966
 155  1964.403
 156  2116.656
 157  2111.842
 158  3150.503
 159  4466.687
 160  4094.309
 161  2636.019
 162  1940.763
 163  2720.671
 164  2901.695
 165  2892.157
 166  3316.476
 167  3881.105
 168  3902.485
 169  3334.989
 170  2477.93
 171  2850.214
 172  3052.774
 173  2736.635
 174  2965.151
 175  3296.619
 176  3582.714
 177  3273.928
 178  2555.819
 179  2868.537
 180  3324.318
 181  3153.389
 182  2960.375
 183  3214.706
 184  3366.709
 185  2987.83
 186  2524.464
 187  2066.353
 188  2411.889
 189  2570.344
 190  2867.322
 191  3230.182
 192  3896.412
 193  4203.758
 194  3002.237
 195  2426.963
 196  2331.419
 197  2200.121
 198  2479.862
 199  3202.615
 200  3677.24
 201  3383.983
 202  2812.875
 203  1993.497
 204  2394.228
 205  2265.438
 206  2299.444
 207  2784.825
 208  3194.333
 209  3705.8
 210  2932.227
 211  1966.571
 212  1922.404
 213  2383.936
 214  2749.436
 215  2686.883
 216  3660.521
 217  3715.566
 218  2920.72
 219  2077.202
 220  1677.647
 221  1827.918
 222  2016.252
 223  2449.434
 224  2964.247
 225  3662.161
 226  3948.12
 227  2800.823
 228  2526.705
 229  2920.042
 230  3817.298
 231  4148.251
 232  4871.304
 233  5846.229
 234  5836.476
 235  4096.302
 236  2726.152
 237  2231.871
 238  2055.159
 239  2234.721
 240  2729.368
 241  3759.16
 242  4097.933
 243  3100.317
 244  2501.428
 245  2494.104
 246  2600.202
 247  2330.001
 248  2497.997
 249  3007.588
 250  3306.537
 251  3468.217
 252  2126.744
 253  2124.69
 254  2569.42
 255  2531.365
 256  2395.233
 257  2573.339
 258  3178.247
 259  2949.883
 260  2448.689
 261  2098.496
 262  2400.138
 263  2595.919
 264  2404.646
 265  2762.803
 266  3135.12
 267  3186.832
 268  2551.173
 269  2362.341
 270  2096.134
 271  2527.741
 272  2440.118
 273  2532.587
 274  3464.41
 275  3645.951
 276  3001.384
 277  2093.452
 278  2152.554
 279  2647.646
 280  2691.62
 281  2951.287
 282  3406.325
 283  3784.748
 284  2985.991
 285  2301.465
 286  2162.656
 287  2319.181
 288  2601.549
 289  2544.246
 290  3184.465
 291  3654.087
 292  3558.578
 293  2322.589
 294  1886.106
 295  2154.811
 296  2390.971
 297  2760.548
 298  3417.1
 299  3862.25
 300  3525.68
 301  3044.584
 302  1985.382
 303  1550.645
 304  2220.369
 305  2393.092
 306  2960.873
 307  3255.458
 308  3920.107
 309  3438.84
 310  2786.219
 311  2377.354
 312  2513.494
 313  2726.174
 314  2855.419
 315  3469.72
 316  3893.02
 317  3474.108
 318  3043.637
 319  2338.065
 320  2400.712
 321  2494.552
 322  2794.221
 323  3105.569
 324  3536.415
 325  4076.055
 326  2975.136
 327  2276.396
 328  2567.315
 329  2797.029
 330  2781.571
 331  3282.867
 332  3532.287
 333  3744.8
 334  3289.296
 335  2572.757
 336  2456.985
 337  2536.229
 338  2310.212
 339  2250.363
 340  3077.829
 341  3998.42
 342  3456.874
 343  3083.884
 344  2251.736
 345  2411.095
 346  2431.171
 347  2112.941
 348  2796.656
 349  3288.508
 350  3437.992
 351  2525.493
 352  2516.512
 353  2192.165
 354  2482.306
 355  2821.944
 356  2908.226
 357  3530.795
 358  3661.58
 359  3205.662
 360  2530.535
 361  2514.237
 362  2842.255
 363  2592.629
 364  2697.977
 365  3534.483
 366  3831.826
 367  2844.323
 368  2509.708
 369  2509.262
 370  2958.909
 371  2754.177
 372  2521.904
 373  3500.044
 374  3921.911
 375  4197.924
 376  2934.903
 377  2297.292
 378  2701.858
 379  3033.58
 380  2782.554
 381  3518.862
 382  4477.659
 383  4061.032
 384  3451.454
 385  3378.948
 386  3149.457
 387  3285.538
 388  3072.673
 389  3724.234
 390  4056.552
 391  3922.466
 392  3413.462
 393  2919.639
 394  2892.777
 395  3140.968
 396  3225.304
 397  3311.522
 398  4180.826
 399  4162.69
 400  3986.447
 401  2952.959
 402  2902.248
 403  2901.903
 404  2890.441
 405  3011.238
 406  3586.067
 407  4435.381
 408  4249.754
 409  3466.123
 410  2922.698
 411  3014.919
 412  3216.393
 413  2961.382
 414  3349.248
 415  4244.732
 416  4124.683
 417  3279.487
 418  3074.15
 419  3017.049
 420  2694.79
 421  2423.382
 422  3145.431
 423  3733.465
 424  4283.708
 425  3286.559
 426  2594.9
 427  2783.263
 428  2751.224
 429  2783.12
 430  2689.266
 431  3225.537
 432  3694.197
 433  3433.916
 434  2357.753
 435  2671.384
 436  2929.099
 437  2355.632
 438  2153.463
 439  2818.17
 440  3844.65
 441  3231.848
 442  2313.052
 443  2617.754
 444  2755.492
 445  3043.849
 446  2962.272
 447  3439.619
 448  3835.006
 449  3552.924
 450  2350.505
 451  2105.747
 452  2246.08
 453  2815.233
 454  3103.569
 455  3185.295
 456  3604.507
 457  3658.469
 458  3267.961
 459  2480.489
 460  2683.735
 461  2997.227
 462  2876.895
 463  3446.261
 464  3878.711
 465  3872.949
 466  3343.617
 467  2791.795
 468  2439.522
 469  2672.382
 470  2803.226
 471  2652.432
 472  3117.208
 473  3694.917
 474  3904.634
 475  3312.469
 476  2565.126
 477  2780.391
 478  3066.149
 479  3388.164
 480  3978.268
 481  4216.265
 482  4200.898
 483  3448.26
 484  2961.048
 485  2470.51
 486  2512.254
 487  2681.266
 488  3343.032
 489  4223.98
 490  4521.369
 491  3811.815
 492  2990.67
 493  2950.504
 494  3043.076
 495  3141.247
 496  3169.46
 497  3214.125
 498  3537.118
 499  3585.66
 500  2886.215
 501  2754.32
 502  2682.18
 503  2462.962
 504  2643.614
 505  3250.623
 506  3563.591
 507  3634.356
 508  3186.739
 509  2671.968
 510  2963.522
 511  2986.335
