# Input file       =  1205498225.096636_cleaned.dat
# Candidate        =  PSR_0332+5434
# Telescope        =  AR
# Epoch_topo       =  58196.525973340693
# Epoch_bary       =  N/A
# T_sample         =  0.002
# Data Folded      =  7340032
# Data Avg         =  0.399382603521061
# Data StdDev      =  5.90135428729045 
# Profile Bins     =  256
# Profile Avg      =  11451.1015034079 
# Profile StdDev   =  999.265013929942 
# Reduced chi-sqr  =  2.688
# Prob(Noise)      <  4.03e-41   (~13.4 sigma)
# P_topo (ms)      =  714.575949835967  +/- 0.00031
# P'_topo (s/s)    =  -0                +/- 1.64e-10
# P''_topo (s/s^2) =  0                 +/- 7.22e-14
# P_bary (ms)      =  N/A
# P'_bary (s/s)    =  N/A
# P''_bary (s/s^2) =  N/A
# P_orb (s)        =  N/A
# asin(i)/c (s)    =  N/A
# eccentricity     =  N/A
# w (rad)          =  N/A
# T_peri           =  N/A
######################################################
   0  13381.87
   1  13572.81
   2  13199.76
   3  13177.56
   4  12541.92
   5  12806.43
   6  11862.16
   7  11673.53
   8  11253.58
   9  11424.55
  10  11406.82
  11  10420.32
  12  11400.29
  13  11721.55
  14  11492.05
  15  11349.37
  16  12528.94
  17  11745.97
  18  11866.06
  19  11419.83
  20  12698.44
  21  11776.75
  22  12148.02
  23  12009.99
  24  12517.22
  25  12026.19
  26  11710.75
  27  11993.14
  28  12860.98
  29  13111.24
  30  13143.08
  31  12536.4
  32  12690.93
  33  13424.77
  34  12953.84
  35  13187.25
  36  12197.43
  37  12482.64
  38  12702.21
  39  11976.11
  40  11731.64
  41  11299.92
  42  10834.84
  43  10722.29
  44  9744.074
  45  9404.037
  46  10255.22
  47  10262.53
  48  10786.38
  49  11248.7
  50  11528.4
  51  12082.32
  52  11735.69
  53  12648.12
  54  13021.73
  55  13321.9
  56  12606.04
  57  13316.8
  58  13160.77
  59  12787.8
  60  12927.42
  61  13692.99
  62  13729.19
  63  12803.97
  64  12933.98
  65  12974.25
  66  12920.35
  67  13058.57
  68  12876.46
  69  13339.44
  70  12955.6
  71  13084.01
  72  11908.2
  73  12396.83
  74  11993.32
  75  12013.08
  76  10825.61
  77  10651.18
  78  10538.61
  79  10012.73
  80  9212.24
  81  9478.984
  82  9032.257
  83  8558.981
  84  9038.087
  85  8499.977
  86  8704.579
  87  9120.967
  88  8853.204
  89  8442.514
  90  8643.13
  91  9291.896
  92  9225.401
  93  9686.755
  94  9983.536
  95  10098.87
  96  10505.84
  97  11328.28
  98  11437.72
  99  11678.32
 100  11129.4
 101  11479.43
 102  12024.11
 103  12088.97
 104  11565.97
 105  12451.3
 106  12197.68
 107  12932.41
 108  11776.55
 109  12113.16
 110  11432.4
 111  11538.75
 112  11039.11
 113  10970.98
 114  10534.12
 115  10423.99
 116  10121.46
 117  10757.3
 118  9791.422
 119  10375.53
 120  10458.28
 121  10420.46
 122  10181.41
 123  9910.03
 124  9926.283
 125  10249.02
 126  10111.1
 127  10278.75
 128  10357.55
 129  10926.09
 130  10470.24
 131  10396.3
 132  11155.38
 133  11047.17
 134  10533.05
 135  10596.41
 136  10450.42
 137  11217.17
 138  10970.3
 139  11462.04
 140  11216.42
 141  11144.04
 142  11660.29
 143  10989.62
 144  10981.08
 145  10225.03
 146  10360.44
 147  9770.992
 148  9273.843
 149  9417.815
 150  9666.133
 151  11479
 152  12765.58
 153  9770.912
 154  8125.874
 155  8574.755
 156  9003.94
 157  8267.238
 158  8898.636
 159  8823.024
 160  9740.474
 161  9853.341
 162  9912.771
 163  10741.75
 164  10355.02
 165  10240.92
 166  10165.18
 167  10625.32
 168  10170.42
 169  10383.82
 170  10393.28
 171  10395.08
 172  10142.82
 173  10788.2
 174  10964.58
 175  10967.66
 176  10422.58
 177  10825.46
 178  11090.64
 179  10807.47
 180  11045.9
 181  11525.47
 182  11287.23
 183  10267.57
 184  10985.97
 185  10055.18
 186  10183.31
 187  10798.83
 188  9497.38
 189  9330.38
 190  10345.29
 191  9394.792
 192  9560.484
 193  9485.082
 194  9852.38
 195  10020.48
 196  10271.33
 197  10754.85
 198  10748.46
 199  10293.37
 200  10397.88
 201  11100.58
 202  11189.75
 203  10711.5
 204  11847.55
 205  12475.35
 206  12929.59
 207  12464.67
 208  12623.52
 209  12387.44
 210  12418.58
 211  12471.86
 212  12584.27
 213  12576.3
 214  13574.16
 215  12597.88
 216  13240.61
 217  12822.17
 218  12846.9
 219  13342.79
 220  12824.56
 221  12692.61
 222  12913.24
 223  11855.16
 224  12195.52
 225  12544.52
 226  11691.47
 227  12495.9
 228  13010.53
 229  11861.11
 230  12727.34
 231  12121.49
 232  12821.34
 233  12046.09
 234  12624.52
 235  12917.39
 236  12504.36
 237  13343.29
 238  13917.9
 239  14006.42
 240  13024.07
 241  12675.37
 242  12544.91
 243  14298.23
 244  13942.87
 245  13765.64
 246  13845.41
 247  14077.81
 248  14223.57
 249  14696.38
 250  13780.66
 251  13641.31
 252  13327.62
 253  13517.26
 254  12704.97
 255  13381.79
