# Input file       =  1205167077.107159_cleaned.dat
# Candidate        =  PSR_0332+5434
# Telescope        =  AR
# Epoch_topo       =  58192.693241981004
# Epoch_bary       =  N/A
# T_sample         =  0.002
# Data Folded      =  7340032
# Data Avg         =  0.0412712605830163
# Data StdDev      =  3.35873921276238 
# Profile Bins     =  256
# Profile Avg      =  1183.22079610685 
# Profile StdDev   =  568.728875244168 
# Reduced chi-sqr  =  1.408
# Prob(Noise)      <  1.86e-05   (~4.1 sigma)
# P_topo (ms)      =  714.577701384787  +/- 0.000451
# P'_topo (s/s)    =  -0                +/- 2.38e-10
# P''_topo (s/s^2) =  0                 +/- 1.05e-13
# P_bary (ms)      =  N/A
# P'_bary (s/s)    =  N/A
# P''_bary (s/s^2) =  N/A
# P_orb (s)        =  N/A
# asin(i)/c (s)    =  N/A
# eccentricity     =  N/A
# w (rad)          =  N/A
# T_peri           =  N/A
######################################################
   0  1230.816
   1  1005.347
   2  458.7009
   3  1142.187
   4  159.0128
   5  706.2901
   6  1191.475
   7  1530.233
   8  1317.78
   9  449.1313
  10  1475.225
  11  1532.242
  12  1530.903
  13  840.5247
  14  1186.993
  15  506.0061
  16  445.2857
  17  1066.882
  18  1467.136
  19  1110.985
  20  1416.946
  21  1154.069
  22  1018.31
  23  1786.879
  24  1596.21
  25  1831.255
  26  437.6708
  27  2165.317
  28  1585.843
  29  1606.01
  30  2406.355
  31  1477.892
  32  1544.832
  33  1805.971
  34  1289.895
  35  1746.566
  36  1951.29
  37  1225.496
  38  322.3147
  39  917.8273
  40  1649.629
  41  1311.945
  42  1644.745
  43  1046.17
  44  1848.433
  45  1555.582
  46  1325.062
  47  824.1917
  48  1456.081
  49  2031.539
  50  1552.823
  51  1557.921
  52  1174.552
  53  1351.044
  54  1280.146
  55  965.7836
  56  1390.777
  57  1598.369
  58  1761.173
  59  1623.562
  60  1924.142
  61  1906.125
  62  2617.307
  63  1184.927
  64  1843.999
  65  2146.537
  66  1789.187
  67  1061.418
  68  1276.221
  69  1637.963
  70  1639.735
  71  2045.011
  72  1759.55
  73  1489.196
  74  1176.933
  75  1540.654
  76  1608.645
  77  1688.812
  78  1668.233
  79  954.6124
  80  1139.017
  81  733.0035
  82  522.005
  83  530.5413
  84  182.8217
  85  505.9547
  86  715.0901
  87  1357.062
  88  1516.019
  89  1499.438
  90  1511.873
  91  1045.821
  92  669.6948
  93  1022.652
  94  1237.155
  95  798.3333
  96  880.865
  97  959.4051
  98  1139.863
  99  809.8572
 100  1162.188
 101  673.4411
 102  217.7908
 103  131.5789
 104  241.3332
 105  768.796
 106  437.8722
 107  520.8933
 108  1349.484
 109  1734.015
 110  776.9349
 111  761.2791
 112  1163.234
 113  920.3069
 114  872.8038
 115  1162.475
 116  1304.866
 117  1385.829
 118  1392.245
 119  2108.749
 120  957.2703
 121  1582.878
 122  1390.181
 123  897.6109
 124  1351.131
 125  420.0421
 126  680.048
 127  875.2422
 128  309.6814
 129  101.1925
 130  880.2465
 131  665.2202
 132  801.7871
 133  1167.786
 134  699.7068
 135  367.0185
 136  1325.281
 137  1507.051
 138  1566.841
 139  1884.759
 140  1136.261
 141  1404.046
 142  1114.273
 143  1761.61
 144  845.5372
 145  905.7001
 146  1957.096
 147  1739.223
 148  1567.593
 149  1920.636
 150  3284.24
 151  4589.563
 152  4511.501
 153  2881.995
 154  1515.942
 155  873.0561
 156  1290.555
 157  1308.65
 158  1251.794
 159  826.8176
 160  599.7894
 161  401.2302
 162  303.4576
 163  744.4426
 164  401.7263
 165  64.78378
 166  697.3647
 167  1040.408
 168  1478.189
 169  1455.069
 170  1678.689
 171  574.3721
 172  1203.58
 173  702.012
 174  959.9969
 175  703.314
 176  1163.567
 177  899.1037
 178  1329.415
 179  844.7537
 180  1846.119
 181  1223.904
 182  1466.593
 183  1725.561
 184  1056.494
 185  951.8472
 186  253.5549
 187  677.2024
 188  1591.771
 189  498.873
 190  981.7051
 191  1561.812
 192  1171.703
 193  1028.116
 194  993.8364
 195  388.4649
 196  880.2047
 197  763.7318
 198  421.229
 199  205.0264
 200  1077.983
 201  933.3777
 202  920.6317
 203  1347.022
 204  1251.55
 205  1279.485
 206  1559.539
 207  675.0215
 208  1253.217
 209  1173.504
 210  903.2891
 211  1187.185
 212  1244.972
 213  1489.346
 214  1838.688
 215  654.5141
 216  1709.015
 217  1379.122
 218  1191.525
 219  637.9667
 220  872.0849
 221  967.3533
 222  562.4282
 223  718.6775
 224  615.3669
 225  799.955
 226  434.2722
 227  625.5656
 228  556.5932
 229  1293.816
 230  1331.36
 231  767.9694
 232  926.5806
 233  1356.521
 234  1259.564
 235  493.9659
 236  1117.002
 237  1022.104
 238  1581.602
 239  1476.411
 240  1278.585
 241  891.8699
 242  1332.663
 243  1147.726
 244  1396.781
 245  1053.856
 246  647.1968
 247  1747.527
 248  933.1097
 249  970.5831
 250  867.8945
 251  726.6191
 252  1128.345
 253  1284.654
 254  689.6666
 255  1859.794
