# Input file       =  1205598593.103592_cleaned.dat
# Candidate        =  PSR_0332+5434
# Telescope        =  AR
# Epoch_topo       =  58197.687640087868
# Epoch_bary       =  N/A
# T_sample         =  0.002
# Data Folded      =  7340032
# Data Avg         =  0.0315738313771276
# Data StdDev      =  1.00008881790958 
# Profile Bins     =  512
# Profile Avg      =  452.641318700159 
# Profile StdDev   =  119.743670814765 
# Reduced chi-sqr  =  1.112
# Prob(Noise)      <  0.0407   (~1.7 sigma)
# P_topo (ms)      =  714.575795379214  +/- 0.000263
# P'_topo (s/s)    =  -0                +/- 1.39e-10
# P''_topo (s/s^2) =  0                 +/- 6.13e-14
# P_bary (ms)      =  N/A
# P'_bary (s/s)    =  N/A
# P''_bary (s/s^2) =  N/A
# P_orb (s)        =  N/A
# asin(i)/c (s)    =  N/A
# eccentricity     =  N/A
# w (rad)          =  N/A
# T_peri           =  N/A
######################################################
   0  430.9195
   1  545.3893
   2  449.0862
   3  352.7541
   4  487.6888
   5  523.386
   6  375.1519
   7  394.4821
   8  488.0532
   9  464.9055
  10  425.6806
  11  439.949
  12  404.709
  13  499.5787
  14  555.8851
  15  469.9357
  16  537.6918
  17  484.9788
  18  403.0507
  19  502.3704
  20  479.9727
  21  437.837
  22  408.5976
  23  469.446
  24  384.0418
  25  410.1911
  26  412.4926
  27  490.3727
  28  442.983
  29  387.4288
  30  422.1287
  31  403.1697
  32  362.9121
  33  481.4784
  34  516.5893
  35  408.7573
  36  395.6034
  37  425.1149
  38  357.4834
  39  381.9628
  40  410.4932
  41  412.8425
  42  376.949
  43  352.4351
  44  490.5678
  45  439.1917
  46  397.295
  47  368.2055
  48  427.1255
  49  461.5222
  50  465.4929
  51  419.1971
  52  491.9412
  53  544.5889
  54  470.1257
  55  377.4839
  56  393.421
  57  527.9047
  58  570.445
  59  389.4933
  60  298.8726
  61  346.6175
  62  471.9588
  63  366.9363
  64  329.3284
  65  485.6965
  66  514.3279
  67  506.6547
  68  525.571
  69  484.5606
  70  448.5804
  71  521.5599
  72  538.1342
  73  617.8442
  74  694.9365
  75  652.2987
  76  468.2887
  77  551.9561
  78  553.7036
  79  445.1673
  80  541.9985
  81  599.3491
  82  562.183
  83  475.0393
  84  496.6625
  85  487.6509
  86  472.8632
  87  560.7097
  88  584.5795
  89  522.2851
  90  488.2879
  91  523.8895
  92  481.9596
  93  443.882
  94  546.0944
  95  498.7464
  96  545.5173
  97  547.3339
  98  517.0482
  99  470.1803
 100  472.8945
 101  429.1799
 102  462.7772
 103  496.1138
 104  439.1306
 105  404.7126
 106  323.3279
 107  252.57
 108  236.1687
 109  350.2189
 110  443.4349
 111  421.0052
 112  443.0844
 113  393.9706
 114  431.7777
 115  452.6473
 116  340.1772
 117  406.2119
 118  440.0292
 119  402.7147
 120  333.4293
 121  243.0912
 122  315.5107
 123  441.4129
 124  491.8678
 125  440.3449
 126  281.0146
 127  349.9978
 128  418.7333
 129  267.9305
 130  341.2486
 131  508.5323
 132  553.9454
 133  585.9142
 134  531.3652
 135  595.8328
 136  508.4066
 137  440.5251
 138  374.7973
 139  452.6284
 140  388.3994
 141  389.7891
 142  428.8343
 143  469.111
 144  445.326
 145  465.3347
 146  364.0376
 147  414.2622
 148  382.2448
 149  375.1809
 150  406.6337
 151  431.3614
 152  347.5826
 153  325.9011
 154  428.0757
 155  324.1883
 156  235.0922
 157  218.2227
 158  304.5402
 159  450.7535
 160  468.6042
 161  454.2246
 162  375.4789
 163  507.4743
 164  613.024
 165  603.0545
 166  501.0395
 167  451.8207
 168  430.4083
 169  473.6314
 170  554.2813
 171  564.7463
 172  629.6305
 173  657.9317
 174  587.5911
 175  419.7769
 176  582.56
 177  574.3835
 178  427.7772
 179  424.989
 180  469.6671
 181  548.9415
 182  443.6949
 183  366.1848
 184  380.1145
 185  492.2014
 186  538.933
 187  566.6869
 188  526.6313
 189  437.3548
 190  446.5928
 191  392.0569
 192  443.2455
 193  475.0684
 194  494.4779
 195  416.5603
 196  358.8738
 197  418.9601
 198  447.9911
 199  410.5406
 200  505.6851
 201  534.3358
 202  411.4296
 203  352.1783
 204  470.9023
 205  423.2242
 206  509.2564
 207  421.8786
 208  452.0538
 209  522.3267
 210  572.3446
 211  490.3617
 212  350.892
 213  394.5639
 214  548.9422
 215  498.4196
 216  470.7767
 217  414.7744
 218  464.6234
 219  536.1562
 220  468.0404
 221  500.8801
 222  436.804
 223  477.1512
 224  528.6844
 225  559.8817
 226  475.8093
 227  398.063
 228  324.1129
 229  482.9837
 230  492.487
 231  394.4792
 232  476.1286
 233  577.6451
 234  469.3816
 235  407.8246
 236  519.0884
 237  563.2979
 238  362.9162
 239  314.3731
 240  263.5947
 241  321.6928
 242  357.9423
 243  331.7152
 244  322.1736
 245  274.901
 246  309.0927
 247  414.0096
 248  392.1286
 249  446.6393
 250  441.4159
 251  371.5171
 252  412.7157
 253  423.9426
 254  411.4827
 255  582.9669
 256  525.59
 257  348.756
 258  362.6913
 259  531.2827
 260  428.5474
 261  512.5345
 262  596.6149
 263  535.2233
 264  589.6649
 265  407.3097
 266  327.3564
 267  413.2359
 268  435.8657
 269  348.1499
 270  442.2497
 271  486.7215
 272  475.401
 273  425.1318
 274  418.2374
 275  338.1642
 276  340.3684
 277  406.0009
 278  488.5526
 279  513.6595
 280  546.989
 281  480.8577
 282  432.6067
 283  357.2018
 284  395.7433
 285  519.0476
 286  560.3483
 287  585.0585
 288  548.197
 289  600.0042
 290  598.4791
 291  607.0764
 292  548.2268
 293  510.9113
 294  452.0802
 295  448.7921
 296  597.9283
 297  620.1908
 298  630.7223
 299  517.483
 300  590.9681
 301  590.2394
 302  721.4401
 303  802.3716
 304  905.022
 305  824.6544
 306  891.3003
 307  785.046
 308  624.3984
 309  483.6124
 310  442.2552
 311  484.5764
 312  474.9811
 313  432.8357
 314  446.513
 315  512.3771
 316  552.9542
 317  516.0302
 318  412.2278
 319  489.558
 320  404.6484
 321  380.4314
 322  350.2072
 323  289.3152
 324  322.7014
 325  425.015
 326  444.4225
 327  446.2123
 328  296.6501
 329  248.3828
 330  314.0086
 331  338.0555
 332  285.8681
 333  454.707
 334  418.6596
 335  424.5701
 336  333.8505
 337  452.0769
 338  427.6085
 339  381.4915
 340  440.2144
 341  440.9103
 342  452.8917
 343  472.2217
 344  460.8433
 345  437.9697
 346  443.32
 347  502.46
 348  583.6901
 349  459.5082
 350  495.3803
 351  540.1422
 352  469.0493
 353  431.6255
 354  400.6126
 355  538.1124
 356  475.1
 357  349.8441
 358  372.4399
 359  412.3405
 360  423.1625
 361  437.9812
 362  384.5655
 363  320.9778
 364  371.9706
 365  386.5235
 366  455.6336
 367  537.4185
 368  422.192
 369  445.8468
 370  476.784
 371  383.8734
 372  438.7376
 373  427.9755
 374  577.4897
 375  463.1678
 376  432.0715
 377  596.0601
 378  516.0799
 379  390.4276
 380  471.6536
 381  370.7906
 382  481.5206
 383  386.838
 384  300.6501
 385  351.2968
 386  465.2521
 387  539.7806
 388  444.388
 389  423.9965
 390  488.6059
 391  343.998
 392  411.507
 393  405.0223
 394  351.3295
 395  459.6963
 396  462.8974
 397  454.0435
 398  417.6215
 399  392.4437
 400  378.6797
 401  413.4735
 402  530.8905
 403  386.8956
 404  501.1005
 405  558.2231
 406  315.8317
 407  268.6064
 408  454.0794
 409  436.6686
 410  402.4169
 411  445.7892
 412  466.0853
 413  440.3848
 414  299.8665
 415  318.8189
 416  436.6093
 417  417.7294
 418  468.9169
 419  421.0257
 420  366.4359
 421  400.8814
 422  255.9067
 423  296.7349
 424  430.1704
 425  575.1467
 426  508.9965
 427  387.2253
 428  388.4498
 429  368.1995
 430  459.8017
 431  452.8164
 432  401.0294
 433  310.2589
 434  368.3406
 435  304.9188
 436  392.8577
 437  476.9571
 438  455.384
 439  471.3516
 440  446.2183
 441  440.5717
 442  341.2439
 443  387.8371
 444  539.056
 445  542.3921
 446  557.4722
 447  499.7562
 448  476.1411
 449  435.6192
 450  361.2112
 451  316.7985
 452  306.1751
 453  381.062
 454  330.5506
 455  352.7356
 456  211.3443
 457  422.0317
 458  461.9318
 459  404.621
 460  458.0248
 461  381.1364
 462  329.6465
 463  379.5187
 464  385.0683
 465  492.1915
 466  524.0489
 467  538.8123
 468  532.6019
 469  501.9323
 470  589.6346
 471  529.0353
 472  514.7028
 473  453.4768
 474  603.8824
 475  545.504
 476  539.1584
 477  538.1151
 478  664.1263
 479  589.0027
 480  506.0861
 481  504.234
 482  391.0828
 483  344.9778
 484  456.8711
 485  402.1974
 486  436.2736
 487  465.0642
 488  504.8482
 489  416.3911
 490  542.6704
 491  463.2453
 492  421.6422
 493  514.7782
 494  405.1411
 495  391.9281
 496  553.3451
 497  598.9244
 498  499.6095
 499  411.5048
 500  448.1353
 501  510.1478
 502  423.9099
 503  464.1082
 504  455.1378
 505  592.9974
 506  511.4332
 507  517.1487
 508  528.5065
 509  441.3737
 510  398.2121
 511  489.613
