# Input file       =  1205324951.116461_cleaned.dat
# Candidate        =  PSR_0332+5434
# Telescope        =  AR
# Epoch_topo       =  58194.520487459042
# Epoch_bary       =  N/A
# T_sample         =  0.002
# Data Folded      =  7340032
# Data Avg         =  0.818723191849129
# Data StdDev      =  6.86396369363336 
# Profile Bins     =  512
# Profile Avg      =  11737.3802969945 
# Profile StdDev   =  821.843214618605 
# Reduced chi-sqr  =  1.228
# Prob(Noise)      <  0.000308   (~3.4 sigma)
# P_topo (ms)      =  714.576719705649  +/- 0.000528
# P'_topo (s/s)    =  -0                +/- 2.78e-10
# P''_topo (s/s^2) =  0                 +/- 1.23e-13
# P_bary (ms)      =  N/A
# P'_bary (s/s)    =  N/A
# P''_bary (s/s^2) =  N/A
# P_orb (s)        =  N/A
# asin(i)/c (s)    =  N/A
# eccentricity     =  N/A
# w (rad)          =  N/A
# T_peri           =  N/A
######################################################
   0  12136.95
   1  12319.53
   2  11662.88
   3  11472.27
   4  11467.23
   5  11593.18
   6  11844.84
   7  11868.99
   8  11526.27
   9  11171.22
  10  11245.65
  11  11373.72
  12  11775.21
  13  11494.52
  14  11152.46
  15  11234.3
  16  11490.73
  17  11261.68
  18  11176.09
  19  11057.3
  20  11279.9
  21  11231.9
  22  11111.6
  23  11354.33
  24  11446.04
  25  11141.6
  26  11113.4
  27  11441.49
  28  11301.34
  29  11585.67
  30  11818.84
  31  11576.77
  32  11508.74
  33  11892.8
  34  12093.64
  35  12012.97
  36  12388.14
  37  12647.81
  38  12607.92
  39  12732.14
  40  12355.89
  41  12342.52
  42  12380.24
  43  12333.82
  44  12515.25
  45  12514.33
  46  12511.09
  47  12448.69
  48  12142.34
  49  11751.58
  50  11885.03
  51  11803.53
  52  11600.35
  53  12026.22
  54  12065.6
  55  11853.37
  56  11855.36
  57  11792.1
  58  11571.38
  59  11588.31
  60  11886.62
  61  12232.42
  62  12455.18
  63  12389.8
  64  12505.35
  65  12523.57
  66  12459.66
  67  12526.08
  68  12853.49
  69  13024.8
  70  13165.91
  71  13008.42
  72  12780.47
  73  12767.71
  74  12779.09
  75  12972.25
  76  13285.67
  77  13507.88
  78  13202.08
  79  13074.94
  80  13217.66
  81  12821.88
  82  12817.03
  83  12983.6
  84  12810.4
  85  12814.35
  86  12994.73
  87  12538.68
  88  12832.73
  89  12488.65
  90  12298.43
  91  12016.01
  92  11749.22
  93  11745.86
  94  11218.77
  95  11343.73
  96  11624.62
  97  11693.54
  98  11548.03
  99  11812.34
 100  11759.58
 101  11843.46
 102  12086.54
 103  12251.01
 104  12281.83
 105  12161.68
 106  12450.68
 107  12226.3
 108  11928.44
 109  11983.45
 110  11993.43
 111  11735.61
 112  12330.17
 113  12697.74
 114  12077.04
 115  12126.96
 116  12427.75
 117  12279.78
 118  12121.47
 119  12598.92
 120  13191.04
 121  12889.91
 122  12955.48
 123  12652.47
 124  12345.13
 125  12246.86
 126  12497.28
 127  12114.36
 128  12382.28
 129  12862.32
 130  12586.62
 131  12360.87
 132  12343.3
 133  12382.86
 134  11960.02
 135  12068.23
 136  11634.34
 137  12024.6
 138  12234.12
 139  12525.21
 140  11834.29
 141  11510.28
 142  11734.02
 143  11751.36
 144  11684.42
 145  11590.01
 146  11333.88
 147  11423.12
 148  11781.84
 149  11722.54
 150  11509.24
 151  11448.82
 152  11644.09
 153  11787.02
 154  11730.97
 155  11496.59
 156  11841.02
 157  11801.31
 158  11765.84
 159  11294.8
 160  11431.3
 161  11563.92
 162  11904.21
 163  11900.76
 164  11574.27
 165  11342.12
 166  11317.15
 167  11387.58
 168  11147.14
 169  11170.24
 170  11169.56
 171  11509.1
 172  11369.23
 173  11179.54
 174  11514.4
 175  11343.26
 176  11276.61
 177  11093.31
 178  11098.5
 179  11124.34
 180  10964.66
 181  10739.8
 182  10962.95
 183  10934.03
 184  10775.92
 185  10884.13
 186  11263.23
 187  11242.2
 188  10950.65
 189  11236.66
 190  11124.16
 191  11119.35
 192  11211.58
 193  10995.47
 194  10961.97
 195  11291.16
 196  11006.39
 197  11128.32
 198  11314.45
 199  11321.74
 200  11298.94
 201  11226.33
 202  10939.68
 203  11156.43
 204  10929.74
 205  11227.3
 206  10837.65
 207  10640
 208  10825.77
 209  11114.74
 210  11000.73
 211  10568.01
 212  10745.96
 213  10980.12
 214  10951.05
 215  11184.95
 216  11142.98
 217  11146.78
 218  11044.59
 219  11109.37
 220  11303.6
 221  11419.07
 222  11252.7
 223  11115.55
 224  11479.78
 225  11090.86
 226  10948.03
 227  11022.77
 228  10801.28
 229  11249.97
 230  11235.79
 231  11402.15
 232  11489.96
 233  11739.02
 234  11744.7
 235  11563.55
 236  11492.08
 237  11004.18
 238  11159.26
 239  11148.25
 240  10696.65
 241  10869.89
 242  11399.69
 243  11660.25
 244  11667.79
 245  11716.73
 246  11732.96
 247  11649.36
 248  11767.91
 249  11958.58
 250  11994.37
 251  11977.91
 252  11736.55
 253  12004.12
 254  11583.51
 255  11759.87
 256  11669.62
 257  11468.09
 258  11494.63
 259  11852.13
 260  11957.1
 261  11979.58
 262  11916.41
 263  12259.24
 264  11848.77
 265  11462.55
 266  11450.53
 267  11122.51
 268  11375.63
 269  11829.83
 270  11920.87
 271  11925.14
 272  11861.03
 273  12031.15
 274  12443.11
 275  12486.06
 276  13165.33
 277  13736.95
 278  13851.58
 279  13834.19
 280  13541.64
 281  13347.75
 282  12648.02
 283  12295.84
 284  11997.66
 285  12122.27
 286  11831.31
 287  11988.82
 288  12371.23
 289  12069.86
 290  11859.77
 291  11983.63
 292  11971.48
 293  12076.94
 294  12024.43
 295  11870.23
 296  12224.45
 297  12331.59
 298  12541.09
 299  12424.51
 300  11945.24
 301  11884.07
 302  12087.35
 303  12102.07
 304  11568.84
 305  11610.78
 306  11338.15
 307  10767.98
 308  10987.51
 309  11541.02
 310  11209.91
 311  10712.3
 312  10822.69
 313  11266.61
 314  10870.23
 315  10894.84
 316  11004.01
 317  10928.27
 318  10461.27
 319  10675.39
 320  10853.47
 321  10931.55
 322  10993.08
 323  10891.87
 324  10748.99
 325  10799.45
 326  10628.3
 327  10574.06
 328  10588.41
 329  10876.58
 330  10416.45
 331  10575.24
 332  10688.06
 333  10564.61
 334  10732.67
 335  10750.08
 336  10811.16
 337  10469.89
 338  10504.99
 339  10810.08
 340  10790.29
 341  10695.36
 342  10505.44
 343  10908.14
 344  11495.29
 345  11361.25
 346  10787.16
 347  10189.45
 348  10893.07
 349  10807.51
 350  10712.02
 351  10724.12
 352  10880.94
 353  11036.21
 354  10914.95
 355  10815.41
 356  11147
 357  10790.58
 358  10744.79
 359  11083.64
 360  11214.73
 361  10787.47
 362  11308.96
 363  11272.86
 364  11301.62
 365  11359.37
 366  11457.55
 367  11852.58
 368  11964.78
 369  12000.56
 370  11541.86
 371  11573.47
 372  11602.24
 373  11842.87
 374  12040.07
 375  12185.47
 376  12524.35
 377  12349.21
 378  12171.65
 379  12096.92
 380  11853.04
 381  12029.05
 382  12184.13
 383  11971.03
 384  11962.58
 385  11692.56
 386  11179.96
 387  11366.46
 388  11776.22
 389  11858.96
 390  11238.17
 391  11328.51
 392  11395.43
 393  11032.51
 394  11547.82
 395  11320.21
 396  11224.42
 397  11291.07
 398  11333.87
 399  11066.63
 400  10734.93
 401  10898.4
 402  11025
 403  11586.81
 404  11590.72
 405  11309.54
 406  11124.94
 407  10894.99
 408  11230.89
 409  11607.38
 410  11115.62
 411  10855.69
 412  11090
 413  11618.92
 414  11842.96
 415  11821.15
 416  12132.54
 417  12249.15
 418  12255.58
 419  12117.38
 420  12024
 421  12338.41
 422  12753
 423  12075.31
 424  12163.58
 425  11989.37
 426  12406.59
 427  12565.99
 428  12354.78
 429  12107.98
 430  11953.47
 431  12012.21
 432  11884.32
 433  11772.92
 434  12244.27
 435  11894.94
 436  11673.84
 437  11218.98
 438  11592.77
 439  12039.05
 440  12178.96
 441  12259.76
 442  12316.45
 443  11807.19
 444  11793.15
 445  12016
 446  12187.63
 447  12054.67
 448  12123.54
 449  12687.87
 450  12806.93
 451  12655.95
 452  12774.62
 453  12223.76
 454  12130.61
 455  12871.81
 456  12781.33
 457  12910.06
 458  13235.83
 459  13343.42
 460  12695.21
 461  12646.59
 462  12587.7
 463  12552.82
 464  12709.36
 465  12670.46
 466  12667.46
 467  12917.21
 468  12879.05
 469  12065.39
 470  12081.55
 471  12275.54
 472  12581.25
 473  12413.11
 474  12472.03
 475  12635.26
 476  12278.01
 477  12031.48
 478  12062.59
 479  12054.59
 480  12048.21
 481  11993.73
 482  11782.43
 483  11695.99
 484  11854.44
 485  11546.66
 486  11454.33
 487  11638.72
 488  11534.65
 489  11258.29
 490  10736.24
 491  10809.87
 492  11180.66
 493  11223.78
 494  11102.83
 495  11474.37
 496  11336.92
 497  11399.02
 498  11401.47
 499  11748.21
 500  11682.42
 501  11791.56
 502  11589.88
 503  11632.23
 504  12125.7
 505  12054.79
 506  12314.06
 507  12301.32
 508  12040.81
 509  11628.81
 510  11202.04
 511  11833.36
