# Input file       =  1205856444.106251_cleaned.dat
# Candidate        =  PSR_0332+5434
# Telescope        =  AR
# Epoch_topo       =  58200.672026692722
# Epoch_bary       =  N/A
# T_sample         =  0.002
# Data Folded      =  7340032
# Data Avg         =  0.0353115117357349
# Data StdDev      =  1.00006216162174 
# Profile Bins     =  512
# Profile Avg      =  506.253760074304 
# Profile StdDev   =  119.740479176484 
# Reduced chi-sqr  =  1.779
# Prob(Noise)      <  9.85e-25   (~10.2 sigma)
# P_topo (ms)      =  714.57443024955   +/- 0.000309
# P'_topo (s/s)    =  -0                +/- 1.63e-10
# P''_topo (s/s^2) =  0                 +/- 7.19e-14
# P_bary (ms)      =  N/A
# P'_bary (s/s)    =  N/A
# P''_bary (s/s^2) =  N/A
# P_orb (s)        =  N/A
# asin(i)/c (s)    =  N/A
# eccentricity     =  N/A
# w (rad)          =  N/A
# T_peri           =  N/A
######################################################
   0  474.0952
   1  475.4868
   2  417.9449
   3  431.0117
   4  470.1784
   5  429.636
   6  382.2186
   7  536.9456
   8  616.6972
   9  478.5893
  10  540.403
  11  597.5
  12  546.0783
  13  708.3593
  14  682.9858
  15  537.2554
  16  545.2888
  17  532.9544
  18  489.8212
  19  365.6619
  20  459.6437
  21  554.2412
  22  614.0539
  23  618.1903
  24  580.4466
  25  539.1348
  26  427.4175
  27  487.0211
  28  518.3367
  29  493.5385
  30  478.1472
  31  423.3251
  32  468.3752
  33  551.6365
  34  626.5643
  35  482.2778
  36  453.1718
  37  453.6812
  38  513.9656
  39  454.4606
  40  461.7837
  41  468.0094
  42  438.3631
  43  405.2021
  44  445.0998
  45  356.1516
  46  461.7754
  47  513.9798
  48  424.2104
  49  587.2818
  50  555.1486
  51  483.0124
  52  476.9445
  53  374.9493
  54  463.3295
  55  546.9643
  56  506.6155
  57  640.4969
  58  510.2167
  59  554.6549
  60  558.7607
  61  529.3862
  62  672.1361
  63  589.7714
  64  643.8831
  65  673.0727
  66  626.8609
  67  574.655
  68  565.975
  69  578.5064
  70  532.3984
  71  518.5154
  72  501.3595
  73  537.6794
  74  505.7487
  75  485.2647
  76  359.5014
  77  399.1635
  78  466.1107
  79  399.7044
  80  442.4989
  81  494.0627
  82  494.0204
  83  536.3182
  84  473.9474
  85  362.0437
  86  396.0351
  87  529.1225
  88  574.0881
  89  643.4615
  90  590.4117
  91  501.7381
  92  457.1646
  93  412.4753
  94  479.2751
  95  628.1576
  96  566.0903
  97  506.8787
  98  496.1721
  99  450.2119
 100  572.353
 101  546.2239
 102  566.5135
 103  474.7415
 104  556.5486
 105  564.1417
 106  431.1999
 107  539.1215
 108  522.0117
 109  544.7361
 110  533.5864
 111  544.2698
 112  495.2244
 113  408.8232
 114  495.0899
 115  488.4863
 116  534.9283
 117  419.1347
 118  443.7632
 119  401.5095
 120  356.0406
 121  309.8418
 122  373.8642
 123  538.3665
 124  467.3829
 125  464.4752
 126  460.2496
 127  503.4914
 128  352.5495
 129  368.8326
 130  474.8085
 131  521.3442
 132  495.8976
 133  393.3426
 134  455.5356
 135  473.4828
 136  500.4636
 137  434.7137
 138  459.0739
 139  569.9377
 140  569.0422
 141  574.0361
 142  423.9119
 143  356.617
 144  433.9865
 145  546.5391
 146  562.6169
 147  508.788
 148  417.6509
 149  485.2876
 150  542.7209
 151  449.9118
 152  419.7683
 153  426.7982
 154  454.0223
 155  496.529
 156  431.744
 157  373.1755
 158  474.5243
 159  442.8566
 160  503.0229
 161  343.357
 162  439.8808
 163  613.4498
 164  519.5198
 165  600.2227
 166  697.6832
 167  567.7715
 168  571.6692
 169  451.948
 170  462.3967
 171  448.0357
 172  517.4986
 173  504.9878
 174  608.1764
 175  632.0605
 176  668.7303
 177  612.1988
 178  546.6382
 179  545.3364
 180  441.0154
 181  557.8714
 182  632.0088
 183  613.6196
 184  663.1044
 185  627.3368
 186  643.7453
 187  794.8431
 188  795.3256
 189  764.1409
 190  943.2045
 191  1122.104
 192  1319.562
 193  1352.891
 194  1316.6
 195  1179.702
 196  1051.168
 197  783.5649
 198  588.6254
 199  610.9495
 200  710.4207
 201  590.1432
 202  583.1431
 203  682.2368
 204  657.757
 205  645.3558
 206  503.8716
 207  543.22
 208  592.1242
 209  589.3131
 210  552.9349
 211  618.1667
 212  494.2334
 213  474.0555
 214  454.4525
 215  593.9405
 216  584.8297
 217  512.572
 218  480.4702
 219  455.6989
 220  470.8011
 221  448.9105
 222  552.3878
 223  594.1367
 224  543.2625
 225  613.1333
 226  548.5674
 227  516.3845
 228  464.2982
 229  526.4894
 230  527.3248
 231  545.5307
 232  665.4731
 233  638.1296
 234  518.8221
 235  490.6018
 236  416.7874
 237  395.9272
 238  391.6406
 239  545.5471
 240  530.6546
 241  569.6052
 242  529.1778
 243  462.319
 244  414.6181
 245  481.2453
 246  503.9272
 247  548.0032
 248  524.5455
 249  505.8185
 250  528.1698
 251  490.7987
 252  530.9622
 253  416.8956
 254  517.0587
 255  594.6263
 256  579.9998
 257  595.3659
 258  473.2209
 259  538.1166
 260  513.7734
 261  375.3618
 262  469.0517
 263  489.7013
 264  614.6055
 265  669.3744
 266  559.226
 267  491.9063
 268  313.356
 269  294.0764
 270  360.3578
 271  411.8845
 272  418.8589
 273  448.2271
 274  460.1
 275  462.8693
 276  450.7033
 277  482.4215
 278  430.2794
 279  441.7822
 280  500.9718
 281  631.2999
 282  469.8847
 283  381.882
 284  352.745
 285  347.1209
 286  332.8677
 287  510.2507
 288  558.7341
 289  622.4579
 290  602.6898
 291  520.8371
 292  638.7043
 293  692.0246
 294  586.968
 295  499.1571
 296  493.4237
 297  538.3923
 298  547.8447
 299  435.9295
 300  350.5485
 301  447.5564
 302  471.5409
 303  497.8146
 304  490.1284
 305  465.354
 306  540.4091
 307  447.727
 308  496.2744
 309  503.4775
 310  528.3834
 311  597.8384
 312  610.703
 313  566.823
 314  455.9913
 315  503.8596
 316  528.2038
 317  439.8655
 318  469.9154
 319  603.2833
 320  390.3005
 321  410.1794
 322  489.0475
 323  434.8914
 324  517.8079
 325  584.2816
 326  458.4755
 327  416.4445
 328  422.1437
 329  392.2554
 330  476.6317
 331  478.3307
 332  495.6561
 333  441.4534
 334  477.9234
 335  500.1536
 336  472.2527
 337  502.6169
 338  550.7797
 339  496.6945
 340  406.0809
 341  355.8675
 342  449.3111
 343  513.983
 344  479.4649
 345  454.7611
 346  453.9328
 347  547.6916
 348  580.0765
 349  499.6279
 350  476.9
 351  426.677
 352  379.6943
 353  367.0104
 354  522.4615
 355  561.1273
 356  474.701
 357  495.8895
 358  643.26
 359  566.1082
 360  557.8732
 361  647.1821
 362  672.7444
 363  616.7591
 364  574.3158
 365  429.239
 366  509.8418
 367  539.577
 368  522.4936
 369  455.3148
 370  402.369
 371  493.0148
 372  420.6064
 373  405.9205
 374  454.4186
 375  488.9835
 376  560.3211
 377  476.6726
 378  460.4116
 379  471.131
 380  560.4904
 381  487.9095
 382  472.0025
 383  516.7786
 384  520.0789
 385  450.3091
 386  562.7648
 387  520.6431
 388  544.4649
 389  512.144
 390  390.7017
 391  421.6964
 392  612.2686
 393  607.9272
 394  531.1728
 395  504.8209
 396  510.4291
 397  579.9471
 398  600.6143
 399  538.9897
 400  542.5559
 401  590.2958
 402  516.467
 403  506.0769
 404  516.8246
 405  379.5534
 406  339.7369
 407  529.1674
 408  514.3454
 409  522.3227
 410  441.688
 411  485.1129
 412  457.4922
 413  387.8387
 414  516.989
 415  419.5665
 416  420.6653
 417  453.4218
 418  392.3514
 419  298.481
 420  377.0204
 421  498.7584
 422  505.9024
 423  363.2831
 424  448.4914
 425  468.6063
 426  558.3533
 427  372.5782
 428  293.8336
 429  338.9576
 430  524.2215
 431  635.1069
 432  587.9327
 433  484.5298
 434  450.9425
 435  458.5688
 436  445.6379
 437  438.1493
 438  437.7942
 439  403.4791
 440  403.3159
 441  370.7899
 442  483.3358
 443  536.9655
 444  427.4113
 445  422.8232
 446  369.8872
 447  401.8305
 448  368.231
 449  459.6472
 450  401.882
 451  433.0836
 452  492.5739
 453  525.9478
 454  387.1516
 455  344.9891
 456  334.5422
 457  431.3702
 458  371.1684
 459  454.9414
 460  459.876
 461  387.3208
 462  473.5758
 463  500.9503
 464  499.4958
 465  505.6739
 466  519.0093
 467  464.1161
 468  427.8214
 469  527.8406
 470  453.6523
 471  500.6507
 472  479.8653
 473  508.6356
 474  517.176
 475  582.0052
 476  572.4944
 477  458.3878
 478  545.0256
 479  584.428
 480  462.9222
 481  466.5156
 482  485.8414
 483  484.2172
 484  400.8495
 485  354.2555
 486  482.5675
 487  550.395
 488  379.8735
 489  531.1868
 490  496.7818
 491  349.2263
 492  343.8813
 493  337.4814
 494  473.9442
 495  480.7946
 496  365.9105
 497  384.9834
 498  413.6308
 499  377.4106
 500  441.2482
 501  460.4312
 502  493.543
 503  412.5718
 504  520.2437
 505  395.8786
 506  412.3503
 507  543.5026
 508  568.5167
 509  470.5413
 510  443.8267
 511  543.1454
