# Input file       =  1205927696.108282_cleaned.dat
# Candidate        =  PSR_0332+5434
# Telescope        =  AR
# Epoch_topo       =  58201.496702642151
# Epoch_bary       =  N/A
# T_sample         =  0.002
# Data Folded      =  7340032
# Data Avg         =  0.479405038806103
# Data StdDev      =  5.99253539648348 
# Profile Bins     =  256
# Profile Avg      =  13745.9396081774 
# Profile StdDev   =  1014.70453643822 
# Reduced chi-sqr  =  1.078
# Prob(Noise)      <  0.188   (~0.9 sigma)
# P_topo (ms)      =  714.573698283902  +/- 0.000721
# P'_topo (s/s)    =  -0                +/- 3.81e-10
# P''_topo (s/s^2) =  0                 +/- 1.68e-13
# P_bary (ms)      =  N/A
# P'_bary (s/s)    =  N/A
# P''_bary (s/s^2) =  N/A
# P_orb (s)        =  N/A
# asin(i)/c (s)    =  N/A
# eccentricity     =  N/A
# w (rad)          =  N/A
# T_peri           =  N/A
######################################################
   0  14729.7
   1  15217.56
   2  15462.62
   3  15009.26
   4  15327.41
   5  15971.42
   6  15479.23
   7  15960.47
   8  15677.74
   9  16081.56
  10  15752.13
  11  15068.04
  12  15221.52
  13  14501.17
  14  14858.97
  15  14543.38
  16  14494.17
  17  13905.72
  18  13654.85
  19  13768.62
  20  14041.11
  21  13758.64
  22  13884.92
  23  12984.33
  24  13104.12
  25  12801.16
  26  13422.37
  27  14024.5
  28  13879.76
  29  13760.1
  30  12921.31
  31  12647.57
  32  13293.43
  33  12905.8
  34  12835.43
  35  12858.51
  36  12860.97
  37  12711.93
  38  13006.9
  39  12475.82
  40  13077.28
  41  11907.39
  42  11542.93
  43  11745.87
  44  12194.75
  45  12157.15
  46  11695.76
  47  12253.43
  48  12576.07
  49  12643.68
  50  12826.18
  51  13633.58
  52  13616.45
  53  13531.96
  54  13858.18
  55  13453.56
  56  13965.62
  57  13010.43
  58  13530.99
  59  13175.33
  60  13155.01
  61  13682.61
  62  13329.81
  63  13575.98
  64  13941.7
  65  14414.78
  66  14294.23
  67  14122.81
  68  15195.1
  69  15330.73
  70  15698.06
  71  15308.16
  72  15333.97
  73  15415.52
  74  14427.57
  75  14873.64
  76  14712.83
  77  14235.06
  78  13981.93
  79  13993.88
  80  13400.47
  81  13394.66
  82  13899.22
  83  13403.24
  84  13666.66
  85  14765.38
  86  14786.54
  87  14778.27
  88  14138.63
  89  14241.05
  90  14026.6
  91  13348.2
  92  13409.12
  93  13937.79
  94  13250.6
  95  14122.91
  96  13964.99
  97  13633.37
  98  14680.27
  99  14598.11
 100  13672.37
 101  14237.51
 102  15057.39
 103  14711.09
 104  14668.5
 105  14277.07
 106  13558.59
 107  14093.9
 108  13656.32
 109  13279.72
 110  14021.15
 111  14355.67
 112  12912.79
 113  13054.5
 114  13266.47
 115  13331.23
 116  12536.64
 117  12877.58
 118  12650.19
 119  12371.57
 120  13026.6
 121  12858.91
 122  11964.53
 123  10939.74
 124  12037.37
 125  11587.65
 126  12637.21
 127  12902.47
 128  13198.19
 129  13221.12
 130  13304.18
 131  12780.65
 132  12401.9
 133  12740.9
 134  12773.3
 135  12124.14
 136  13088.8
 137  13054.94
 138  13050.2
 139  13011.02
 140  13619.78
 141  13866.16
 142  13955.51
 143  13861.06
 144  14150.72
 145  13405.56
 146  13874.85
 147  14011.82
 148  13670
 149  14543.05
 150  15540.41
 151  16970.4
 152  16231.95
 153  13394.83
 154  11945.05
 155  12239.5
 156  12447.94
 157  12792.6
 158  13125.64
 159  13587.85
 160  13809.6
 161  14275.7
 162  14971.94
 163  14261.17
 164  14352.93
 165  14735.11
 166  14153.69
 167  14022.48
 168  13626.59
 169  13661.93
 170  13236.26
 171  13711.14
 172  13690.59
 173  13896.44
 174  15069.11
 175  14811.38
 176  14597.32
 177  14123.6
 178  13986.53
 179  15199.67
 180  13948.41
 181  14285.23
 182  14430.45
 183  14170.33
 184  13516.32
 185  13640.92
 186  13982.51
 187  13107.63
 188  13054.62
 189  13875.13
 190  13569.83
 191  13082.64
 192  12613.54
 193  12860.19
 194  13868.11
 195  13943.63
 196  13846.66
 197  13354.75
 198  13967.71
 199  14723.77
 200  13641.98
 201  13809.98
 202  14073.37
 203  13509.62
 204  13382.37
 205  12916.43
 206  13461.21
 207  12900.74
 208  13124.48
 209  13585.89
 210  13024.91
 211  12907.91
 212  13403.34
 213  14316.57
 214  14069.87
 215  13703.3
 216  13852.4
 217  13097.42
 218  13118.51
 219  13507.11
 220  13960.51
 221  13404.61
 222  13120.12
 223  14017.84
 224  13880.28
 225  14357.86
 226  14584.74
 227  14657.44
 228  14171.85
 229  13959.71
 230  14048.76
 231  13939.63
 232  13535.8
 233  13306.76
 234  13426.97
 235  13381.82
 236  14162.44
 237  13384.33
 238  13714.81
 239  13858.39
 240  13538.67
 241  13679.77
 242  14460.77
 243  13747.91
 244  13161.73
 245  13193.41
 246  13833.84
 247  13720.88
 248  13117.3
 249  12981.21
 250  13756.54
 251  14455.08
 252  14644.59
 253  15035.14
 254  14623.17
 255  14433.83
