# Input file       =  1205411064.114981_cleaned.dat
# Candidate        =  PSR_0332+5434
# Telescope        =  AR
# Epoch_topo       =  58195.517165682650
# Epoch_bary       =  N/A
# T_sample         =  0.002
# Data Folded      =  7340032
# Data Avg         =  0.0521495570761292
# Data StdDev      =  6.32756025213608 
# Profile Bins     =  1024
# Profile Avg      =  373.69828600949  
# Profile StdDev   =  535.716826653735 
# Reduced chi-sqr  =  0.690
# Prob(Noise)      <  1   (~0.0 sigma)
# P_topo (ms)      =  714.576337565428  +/- 0.000736
# P'_topo (s/s)    =  -0                +/- 3.88e-10
# P''_topo (s/s^2) =  0                 +/- 1.71e-13
# P_bary (ms)      =  N/A
# P'_bary (s/s)    =  N/A
# P''_bary (s/s^2) =  N/A
# P_orb (s)        =  N/A
# asin(i)/c (s)    =  N/A
# eccentricity     =  N/A
# w (rad)          =  N/A
# T_peri           =  N/A
######################################################
   0  224.8738
   1  307.4276
   2  326.9745
   3  372.4657
   4  416.5101
   5  322.0405
   6  237.5387
   7  190.9808
   8  279.0399
   9  371.6363
  10  331.0899
  11  356.2878
  12  322.8448
  13  433.634
  14  392.2221
  15  305.4646
  16  340.7248
  17  323.9765
  18  210.1503
  19  188.1041
  20  319.1367
  21  310.6572
  22  158.5247
  23  200.1473
  24  348.111
  25  446.5218
  26  507.4117
  27  587.5588
  28  592.7531
  29  460.0496
  30  238.1148
  31  263.9502
  32  260.8943
  33  191.605
  34  166.7643
  35  192.93
  36  375.4273
  37  404.1547
  38  474.4806
  39  403.9119
  40  394.2983
  41  440.5477
  42  554.332
  43  596.012
  44  583.8823
  45  477.1064
  46  464.3141
  47  575.5899
  48  589.5957
  49  533.6198
  50  521.6161
  51  591.79
  52  572.0168
  53  709.9865
  54  776.7119
  55  806.3007
  56  686.1186
  57  617.6985
  58  534.1909
  59  488.4944
  60  314.5837
  61  389.4041
  62  462.0774
  63  475.9714
  64  603.8249
  65  669.7424
  66  697.2454
  67  584.6055
  68  341.0667
  69  324.393
  70  313.5915
  71  543.2909
  72  606.1105
  73  440.3593
  74  389.5917
  75  358.0558
  76  425.387
  77  503.3482
  78  356.9662
  79  341.1198
  80  362.3647
  81  474.9899
  82  591.7066
  83  649.2968
  84  509.5541
  85  324.4552
  86  226.8691
  87  235.5196
  88  209.05
  89  273.6559
  90  293.612
  91  306.2298
  92  292.7118
  93  300.4058
  94  405.7987
  95  497.655
  96  578.6584
  97  616.2089
  98  591.2672
  99  528.043
 100  438.5585
 101  253.7487
 102  363.6691
 103  459.7788
 104  588.5866
 105  336.7179
 106  288.7684
 107  214.2837
 108  222.7176
 109  169.4109
 110  174.0443
 111  171.2012
 112  248.9402
 113  300.4016
 114  315.3856
 115  307.7038
 116  308.3015
 117  409.3734
 118  374.8086
 119  228.4889
 120  177.6283
 121  241.194
 122  261.1173
 123  250.9433
 124  314.7135
 125  357.0471
 126  305.0045
 127  217.3311
 128  159.8272
 129  203.5503
 130  386.386
 131  510.2462
 132  401.7554
 133  182.4897
 134  154.7576
 135  26.77141
 136  20.81612
 137  66.59964
 138  196.3855
 139  225.8595
 140  268.793
 141  208.0392
 142  265.2688
 143  212.3261
 144  269.9095
 145  234.8343
 146  246.24
 147  394.7261
 148  416.6049
 149  334.3122
 150  320.5147
 151  316.4381
 152  382.8936
 153  310.114
 154  384.5216
 155  250.3613
 156  193.949
 157  95.30029
 158  150.7134
 159  136.1499
 160  174.9143
 161  277.1808
 162  253.8377
 163  239.2334
 164  288.469
 165  271.2717
 166  307.2628
 167  359.8701
 168  420.5163
 169  352.8333
 170  257.0172
 171  197.5213
 172  178.9456
 173  163.2787
 174  221.5342
 175  314.7535
 176  273.2311
 177  204.2136
 178  267.7843
 179  293.1685
 180  322.9928
 181  179.5594
 182  160.3724
 183  123.6195
 184  177.2135
 185  164.0534
 186  150.3842
 187  -81.45742
 188  -230.4622
 189  -319.7582
 190  -92.04207
 191  69.27689
 192  190.3719
 193  -31.59896
 194  -225.6204
 195  -207.4356
 196  -39.12655
 197  34.45486
 198  62.73598
 199  174.4385
 200  211.6779
 201  186.6498
 202  223.3983
 203  282.882
 204  292.1304
 205  263.6997
 206  241.7576
 207  309.025
 208  299.872
 209  343.3551
 210  404.6359
 211  305.2489
 212  346.757
 213  412.8878
 214  477.0994
 215  424.3816
 216  383.8033
 217  466.2594
 218  298.1035
 219  145.1896
 220  250.5
 221  309.1707
 222  310.0111
 223  190.7943
 224  315.3523
 225  469.3647
 226  528.6371
 227  496.379
 228  374.6824
 229  371.2932
 230  457.8313
 231  480.0045
 232  417.9781
 233  348.0583
 234  478.7859
 235  533.4738
 236  377.8267
 237  291.9365
 238  321.5991
 239  315.383
 240  240.7862
 241  75.23315
 242  197.3683
 243  277.2165
 244  246.0236
 245  222.6297
 246  219.4652
 247  356.2113
 248  386.3333
 249  277.9898
 250  259.1544
 251  153.4437
 252  174.086
 253  157.0927
 254  327.7257
 255  361.517
 256  448.0183
 257  508.3903
 258  646.7653
 259  527.689
 260  429.2565
 261  356.3286
 262  645.5685
 263  582.1443
 264  512.4737
 265  196.3371
 266  179.6791
 267  152.5015
 268  396.203
 269  463.5227
 270  602.2052
 271  553.5229
 272  534.2667
 273  483.1107
 274  522.4315
 275  484.0056
 276  498.2473
 277  475.6161
 278  400.1523
 279  275.057
 280  286.4661
 281  346.8101
 282  228.2818
 283  91.52706
 284  -112.9182
 285  -47.64491
 286  -62.22854
 287  93.65549
 288  307.1467
 289  252.9646
 290  87.41266
 291  -76.81713
 292  -143.0941
 293  -173.0205
 294  -184.1768
 295  -85.10028
 296  -76.17162
 297  -173.9982
 298  -225.4878
 299  -49.20584
 300  12.54044
 301  9.085498
 302  -158.8703
 303  -290.1848
 304  -382.2003
 305  -220.0004
 306  -4.456383
 307  21.37549
 308  -113.1171
 309  -78.89725
 310  95.38541
 311  107.835
 312  58.52096
 313  8.92019
 314  118.267
 315  164.2041
 316  103.0274
 317  -25.69068
 318  -21.76251
 319  -75.53757
 320  -6.190215
 321  -62.19782
 322  23.98847
 323  65.12805
 324  96.58899
 325  -86.92706
 326  -121.019
 327  -183.0832
 328  -27.32197
 329  -74.55962
 330  29.39848
 331  111.8615
 332  139.7992
 333  92.31382
 334  162.3984
 335  135.8644
 336  17.09028
 337  -121.9805
 338  58.8732
 339  93.352
 340  66.40986
 341  -84.17251
 342  -60.42195
 343  94.74099
 344  199.3112
 345  187.0792
 346  -12.40509
 347  -14.05643
 348  -12.51872
 349  -37.91916
 350  -65.97681
 351  18.5561
 352  65.47523
 353  47.05851
 354  166.5273
 355  322.5023
 356  282.8821
 357  240.1827
 358  307.8705
 359  325.153
 360  365.405
 361  200.9435
 362  142.8379
 363  53.86415
 364  10.83051
 365  2.166753
 366  0.4482842
 367  51.02491
 368  111.8713
 369  179.4154
 370  288.7847
 371  337.0966
 372  346.7785
 373  360.9012
 374  344.8329
 375  234.7411
 376  209.7999
 377  22.14408
 378  13.84471
 379  67.3071
 380  230.2588
 381  292.2424
 382  253.4348
 383  122.2322
 384  84.12576
 385  8.05854
 386  28.69704
 387  239.2213
 388  303.3925
 389  311.0784
 390  290.6005
 391  334.0941
 392  322.1777
 393  383.7665
 394  439.0857
 395  452.0981
 396  487.9212
 397  466.2062
 398  346.8074
 399  154.8358
 400  113.6057
 401  321.8545
 402  527.8377
 403  519.1582
 404  348.8606
 405  196.3034
 406  264.5254
 407  237.1907
 408  294.8323
 409  288.7964
 410  336.8988
 411  368.0496
 412  381.7227
 413  321.4647
 414  340.6687
 415  302.756
 416  303.3686
 417  190.6933
 418  250.805
 419  156.3609
 420  172.6711
 421  173.2016
 422  197.9798
 423  333.1246
 424  184.7928
 425  187.0434
 426  225.8584
 427  253.8984
 428  169.7958
 429  141.4233
 430  218.4795
 431  262.9037
 432  220.0853
 433  252.5578
 434  269.9263
 435  333.1099
 436  353.1922
 437  391.3392
 438  402.7797
 439  390.6832
 440  463.7762
 441  480.2047
 442  366.2362
 443  277.6483
 444  302.9718
 445  305.244
 446  196.2949
 447  203.0934
 448  234.8144
 449  352.683
 450  295.2947
 451  468.2993
 452  589.9851
 453  781.8669
 454  834.4955
 455  869.9818
 456  730.1624
 457  638.9368
 458  619.7926
 459  568.3027
 460  598.9962
 461  617.0352
 462  651.9073
 463  644.5477
 464  519.3691
 465  498.8985
 466  630.2694
 467  579.3694
 468  632.9722
 469  599.367
 470  587.1912
 471  551.3023
 472  425.5239
 473  549.6234
 474  652.255
 475  742.0309
 476  639.309
 477  537.4865
 478  538.499
 479  520.8011
 480  523.1727
 481  429.8484
 482  523.5372
 483  437.9659
 484  458.5691
 485  567.3268
 486  568.8876
 487  534.3596
 488  430.937
 489  413.4781
 490  508.5057
 491  545.5006
 492  455.8674
 493  408.507
 494  512.5958
 495  551.4724
 496  597.875
 497  595.752
 498  662.7843
 499  660.5141
 500  657.6102
 501  635.2131
 502  730.0342
 503  768.4374
 504  830.85
 505  705.211
 506  792.3515
 507  789.0851
 508  803.3874
 509  820.9995
 510  851.0335
 511  858.7938
 512  827.4922
 513  674.7345
 514  488.632
 515  463.2441
 516  638.1085
 517  585.1902
 518  514.6671
 519  445.1686
 520  509.8798
 521  576.546
 522  542.0127
 523  522.2186
 524  525.4503
 525  478.8936
 526  393.7208
 527  348.7958
 528  370.8683
 529  351.5467
 530  348.2835
 531  221.2135
 532  197.5017
 533  215.3075
 534  216.9769
 535  243.1665
 536  245.1351
 537  231.0519
 538  275.0051
 539  275.5307
 540  206.9288
 541  220.3514
 542  264.2709
 543  389.7713
 544  390.7594
 545  417.7987
 546  335.4944
 547  497.757
 548  433.3442
 549  395.8087
 550  262.3118
 551  343.0543
 552  404.046
 553  489.95
 554  581.0129
 555  606.3825
 556  567.2591
 557  493.29
 558  465.3006
 559  444.0631
 560  422.2232
 561  431.127
 562  565.8028
 563  663.535
 564  734.1033
 565  799.8815
 566  767.3006
 567  824.7455
 568  759.7975
 569  650.5621
 570  486.2298
 571  464.2325
 572  649.9908
 573  638.1658
 574  593.4819
 575  561.7356
 576  539.955
 577  567.6437
 578  394.4889
 579  352.8141
 580  333.2705
 581  380.632
 582  434.1144
 583  520.7825
 584  511.2644
 585  369.4081
 586  437.9497
 587  570.207
 588  721.7518
 589  609.7905
 590  643.8499
 591  653.1215
 592  642.3545
 593  663.4752
 594  670.7151
 595  581.9838
 596  446.9706
 597  621.3388
 598  681.1649
 599  673.9691
 600  597.4216
 601  601.5079
 602  725.117
 603  944.1542
 604  1213.309
 605  1339.574
 606  1264
 607  1245.933
 608  1353.488
 609  1409.84
 610  1325.786
 611  1253.622
 612  978.8035
 613  689.0534
 614  415.1154
 615  460.8801
 616  462.1072
 617  461.9754
 618  444.9796
 619  479.1727
 620  506.4345
 621  521.3937
 622  597.7434
 623  478.566
 624  377.989
 625  180.0724
 626  168.3037
 627  230.3526
 628  292.3449
 629  387.6667
 630  407.6364
 631  412.1591
 632  341.7484
 633  348.3907
 634  215.1593
 635  286.342
 636  219.2202
 637  276.263
 638  329.3173
 639  270.6229
 640  315.3932
 641  294.8223
 642  262.7173
 643  237.7365
 644  274.0953
 645  224.8788
 646  57.14038
 647  -59.19038
 648  -5.903943
 649  108.5943
 650  306.0787
 651  557.7963
 652  635.6586
 653  558.1682
 654  410.5785
 655  369.7842
 656  483.197
 657  503.2455
 658  417.0311
 659  248.3265
 660  237.6964
 661  323.9748
 662  447.7029
 663  461.5838
 664  385.5919
 665  332.1393
 666  387.8964
 667  407.6999
 668  328.593
 669  332.8608
 670  375.3883
 671  464.9909
 672  435.7589
 673  304.702
 674  279.2186
 675  258.0503
 676  434.3916
 677  635.3635
 678  677.8494
 679  522.3644
 680  386.4358
 681  311.0732
 682  232.9253
 683  171.907
 684  265.5411
 685  383.7762
 686  433.2486
 687  416.785
 688  389.2984
 689  363.1731
 690  197.3398
 691  172.2415
 692  222.1809
 693  183.6911
 694  148.8647
 695  112.8097
 696  176.6494
 697  215.6109
 698  283.293
 699  290.1133
 700  311.9958
 701  192.906
 702  255.5401
 703  339.574
 704  358.9328
 705  368.2163
 706  321.0218
 707  273.0262
 708  118.2169
 709  121.103
 710  109.4214
 711  142.8054
 712  113.8065
 713  321.5479
 714  492.8974
 715  280.3855
 716  38.7785
 717  21.06012
 718  168.2807
 719  233.0163
 720  226.8381
 721  317.4687
 722  338.5132
 723  410.024
 724  430.4449
 725  468.5842
 726  506.9278
 727  547.2911
 728  466.5898
 729  403.5409
 730  217.6373
 731  144.636
 732  43.42096
 733  22.99634
 734  -21.74105
 735  4.250017
 736  151.8294
 737  219.8123
 738  375.015
 739  322.3806
 740  289.3904
 741  265.9247
 742  337.0278
 743  369.4065
 744  404.1253
 745  506.2187
 746  462.8018
 747  358.3301
 748  347.8566
 749  356.9486
 750  316.5532
 751  308.0468
 752  424.2106
 753  458.57
 754  511.561
 755  447.1685
 756  440.97
 757  492.1768
 758  575.3873
 759  815.2878
 760  737.2604
 761  608.3846
 762  349.7623
 763  272.9156
 764  307.0973
 765  328.0457
 766  343.3645
 767  391.593
 768  425.928
 769  427.5218
 770  496.4282
 771  524.991
 772  667.7092
 773  646.4227
 774  672.6978
 775  609.4916
 776  515.7961
 777  451.723
 778  372.3526
 779  427.2607
 780  509.1533
 781  632.9133
 782  660.5831
 783  689.6627
 784  667.5791
 785  557.6857
 786  520.4282
 787  524.3842
 788  628.9237
 789  556.7316
 790  569.342
 791  615.7733
 792  587.8
 793  582.4181
 794  617.3763
 795  766.6935
 796  823.4774
 797  907.5635
 798  969.9388
 799  1026.295
 800  948.9069
 801  804.545
 802  735.287
 803  837.6194
 804  846.4687
 805  730.5812
 806  668.0256
 807  592.5522
 808  590.7648
 809  620.6285
 810  702.1497
 811  779.6915
 812  741.2009
 813  838.7346
 814  730.4802
 815  645.2627
 816  740.0777
 817  870.6566
 818  872.1548
 819  761.1705
 820  749.8362
 821  709.6691
 822  600.9653
 823  557.6562
 824  558.6816
 825  658.3021
 826  639.9471
 827  699.465
 828  634.3183
 829  620.6647
 830  499.8304
 831  544.1846
 832  745.3937
 833  794.9052
 834  828.8962
 835  801.7363
 836  803.6387
 837  674.5678
 838  718.487
 839  810.4169
 840  857.6802
 841  841.1357
 842  768.4297
 843  837.2364
 844  710.3355
 845  614.8362
 846  577.038
 847  660.8294
 848  792.6006
 849  855.0018
 850  890.2237
 851  734.5908
 852  675.691
 853  672.6147
 854  790.5018
 855  777.8309
 856  622.8498
 857  499.7887
 858  535.5082
 859  698.0465
 860  641.21
 861  510.0786
 862  382.5807
 863  301.0799
 864  503.998
 865  604.118
 866  563.7123
 867  476.4701
 868  441.599
 869  397.0761
 870  503.0014
 871  575.1878
 872  679.6219
 873  673.3104
 874  639.9746
 875  541.5762
 876  436.2325
 877  371.3876
 878  315.1412
 879  270.4901
 880  316.7242
 881  442.8409
 882  377.9928
 883  276.0432
 884  212.1031
 885  345.8783
 886  283.8362
 887  207.4651
 888  210.3627
 889  177.2777
 890  98.29801
 891  188.6482
 892  126.5437
 893  143.2812
 894  -51.82129
 895  -16.33175
 896  -89.96175
 897  48.68328
 898  -29.9267
 899  -82.09338
 900  -185.3404
 901  -120.1538
 902  -84.23893
 903  -86.15766
 904  -126.4589
 905  -54.50331
 906  -24.80222
 907  57.8701
 908  -95.86386
 909  -52.46935
 910  -120.6537
 911  26.76865
 912  89.81911
 913  193.7595
 914  265.5232
 915  316.1731
 916  298.9664
 917  207.0269
 918  235.5178
 919  177.7791
 920  243.2194
 921  341.5272
 922  518.9974
 923  425.1495
 924  284.2564
 925  231.4874
 926  219.9927
 927  276.1899
 928  158.593
 929  239.4755
 930  326.7438
 931  489.1942
 932  666.8914
 933  740.8372
 934  799.375
 935  785.5357
 936  749.91
 937  811.1852
 938  752.5478
 939  715.6855
 940  673.9928
 941  562.4269
 942  451.9313
 943  505.1497
 944  595.2706
 945  752.4913
 946  739.2546
 947  749.5683
 948  729.9211
 949  776.8334
 950  740.9479
 951  576.8702
 952  547.2756
 953  578.3831
 954  624.912
 955  535.2645
 956  570.3323
 957  608.77
 958  642.7677
 959  757.8396
 960  814.7286
 961  814.6781
 962  665.597
 963  623.6288
 964  692.5374
 965  598.7769
 966  476.2183
 967  360.3419
 968  354.1329
 969  387.7253
 970  445.6992
 971  493.9832
 972  452.0087
 973  409.915
 974  329.3702
 975  266.7482
 976  207.3369
 977  177.2946
 978  244.8025
 979  375.5269
 980  502.1419
 981  398.5359
 982  289.9739
 983  282.8192
 984  377.0178
 985  440.0588
 986  294.8448
 987  236.2083
 988  227.7458
 989  136.1148
 990  130.361
 991  180.2822
 992  407.6805
 993  369.5668
 994  300.8035
 995  79.99132
 996  30.19967
 997  46.68118
 998  147.5114
 999  180.9319
1000  178.1048
1001  82.90167
1002  -67.92232
1003  -134.6918
1004  -64.80756
1005  41.59562
1006  129.1182
1007  193.6271
1008  238.0443
1009  238.5841
1010  223.5508
1011  150.8522
1012  289.4474
1013  287.9641
1014  237.4636
1015  208.3569
1016  132.1302
1017  167.7289
1018  201.1535
1019  299.3121
1020  357.7468
1021  237.6517
1022  233.3263
1023  284.9481
