# Input file       =  1205080843.115398_cleaned.dat
# Candidate        =  PSR_0332+5434
# Telescope        =  AR
# Epoch_topo       =  58191.695163372664
# Epoch_bary       =  N/A
# T_sample         =  0.002
# Data Folded      =  7340032
# Data Avg         =  0.0308709098847577
# Data StdDev      =  1.00006285134942 
# Profile Bins     =  512
# Profile Avg      =  442.568913919002 
# Profile StdDev   =  119.740561759672 
# Reduced chi-sqr  =  1.742
# Prob(Noise)      <  6.26e-23   (~9.8 sigma)
# P_topo (ms)      =  714.578032086114  +/- 0.000476
# P'_topo (s/s)    =  -0                +/- 2.51e-10
# P''_topo (s/s^2) =  0                 +/- 1.11e-13
# P_bary (ms)      =  N/A
# P'_bary (s/s)    =  N/A
# P''_bary (s/s^2) =  N/A
# P_orb (s)        =  N/A
# asin(i)/c (s)    =  N/A
# eccentricity     =  N/A
# w (rad)          =  N/A
# T_peri           =  N/A
######################################################
   0  436.064
   1  432.0229
   2  393.7128
   3  324.9195
   4  359.4932
   5  358.1133
   6  372.3684
   7  353.5205
   8  428.2037
   9  417.7808
  10  399.5281
  11  488.4393
  12  421.1345
  13  428.6427
  14  397.6877
  15  363.6294
  16  325.0431
  17  428.8062
  18  336.7416
  19  326.5679
  20  325.0146
  21  381.4038
  22  300.5789
  23  490.241
  24  420.1335
  25  412.8506
  26  343.1817
  27  330.9151
  28  355.1961
  29  216.456
  30  394.479
  31  503.0845
  32  567.0157
  33  506.9132
  34  499.8709
  35  428.2461
  36  348.208
  37  426.2108
  38  441.7386
  39  480.4862
  40  474.0957
  41  535.28
  42  580.0231
  43  489.5455
  44  472.0688
  45  426.9159
  46  470.7393
  47  494.1885
  48  562.5123
  49  457.3202
  50  464.93
  51  484.3424
  52  514.0883
  53  478.9516
  54  465.9619
  55  494.2634
  56  533.4213
  57  559.1971
  58  576.2665
  59  578.4346
  60  474.0079
  61  391.098
  62  515.9594
  63  483.9867
  64  374.3641
  65  470.2916
  66  578.9154
  67  500.4716
  68  498.7098
  69  566.7652
  70  547.0071
  71  538.2057
  72  537.8959
  73  461.3758
  74  534.8002
  75  566.7737
  76  520.3862
  77  450.038
  78  461.2925
  79  495.4685
  80  538.4669
  81  434.7058
  82  436.6179
  83  405.2778
  84  553.8769
  85  659.3757
  86  609.7422
  87  649.6241
  88  803.2267
  89  723.7999
  90  931.7384
  91  1113.612
  92  1102.89
  93  1253.813
  94  1105.375
  95  908.3452
  96  754.9739
  97  590.5676
  98  538.7171
  99  416.2762
 100  396.5699
 101  425.8168
 102  490.0894
 103  689.192
 104  587.9033
 105  609.6964
 106  601.9537
 107  575.486
 108  553.1499
 109  464.5891
 110  401.2565
 111  387.6423
 112  391.7531
 113  426.1713
 114  636.5505
 115  520.2912
 116  442.739
 117  548.0956
 118  509.8741
 119  542.9042
 120  545.3235
 121  476.6617
 122  331.18
 123  330.4644
 124  413.7002
 125  382.7415
 126  473.9777
 127  455.6458
 128  564.7866
 129  440.4562
 130  342.1837
 131  400.0512
 132  421.317
 133  508.4029
 134  507.7177
 135  508.1054
 136  493.09
 137  501.9936
 138  450.6054
 139  452.211
 140  466.2146
 141  493.6682
 142  463.4298
 143  393.3791
 144  409.4189
 145  534.6908
 146  580.6326
 147  500.3847
 148  511.8475
 149  511.9476
 150  486.2427
 151  585.8906
 152  523.4835
 153  553.1995
 154  508.4924
 155  511.7496
 156  582.1109
 157  494.7292
 158  534.9631
 159  525.6141
 160  518.7333
 161  616.4594
 162  644.9209
 163  522.3869
 164  510.5485
 165  494.9467
 166  470.5956
 167  493.0867
 168  550.8633
 169  569.9046
 170  508.6213
 171  464.3201
 172  458.8459
 173  451.3995
 174  440.2774
 175  561.3768
 176  551.7253
 177  486.1059
 178  490.6828
 179  589.8125
 180  517.9587
 181  499.3541
 182  540.7357
 183  457.5245
 184  448.4067
 185  480.6683
 186  451.2034
 187  444.8768
 188  465.6025
 189  485.364
 190  517.9953
 191  461.5445
 192  468.5967
 193  427.4243
 194  406.0592
 195  473.7946
 196  443.6535
 197  454.5352
 198  526.8863
 199  527.3701
 200  487.8701
 201  462.1916
 202  477.7412
 203  433.0622
 204  503.7619
 205  587.9164
 206  419.7121
 207  440.3365
 208  451.823
 209  436.6125
 210  487.3552
 211  447.2995
 212  399.6317
 213  504.2245
 214  510.3062
 215  432.7625
 216  401.6286
 217  522.3438
 218  530.9469
 219  516.8243
 220  459.3229
 221  433.6399
 222  377.9922
 223  406.4919
 224  429.5065
 225  441.8605
 226  461.6314
 227  484.0412
 228  499.1707
 229  388.3484
 230  325.6916
 231  295.3348
 232  354.7357
 233  319.5654
 234  370.5454
 235  404.716
 236  501.1693
 237  610.2631
 238  537.9558
 239  429.2978
 240  327.7199
 241  344.5557
 242  389.6814
 243  438.3787
 244  544.046
 245  457.6773
 246  400.9069
 247  462.2935
 248  458.5949
 249  419.9872
 250  351.6135
 251  382.3651
 252  412.9885
 253  486.1138
 254  496.7489
 255  399.6355
 256  461.1837
 257  440.9906
 258  348.0163
 259  451.9901
 260  426.5046
 261  549.0525
 262  526.6883
 263  569.9603
 264  555.1801
 265  486.5142
 266  668.9807
 267  660.5754
 268  585.978
 269  520.3688
 270  567.069
 271  435.754
 272  403.5283
 273  481.6181
 274  553.7822
 275  553.6628
 276  404.8611
 277  385.8724
 278  322.6105
 279  294.7463
 280  312.0571
 281  423.2048
 282  451.8877
 283  459.6934
 284  422.0046
 285  360.9594
 286  419.7279
 287  620.681
 288  543.8394
 289  448.2879
 290  468.2549
 291  547.476
 292  529.7869
 293  506.7735
 294  451.9036
 295  503.3235
 296  498.1977
 297  524.408
 298  480.8078
 299  491.0315
 300  501.6394
 301  520.9152
 302  444.7749
 303  503.9986
 304  517.7553
 305  493.0479
 306  360.979
 307  382.9182
 308  427.7646
 309  443.784
 310  369.7081
 311  272.6887
 312  450.8513
 313  451.8042
 314  369.5143
 315  400.9685
 316  336.4214
 317  405.5245
 318  486.466
 319  395.2379
 320  212.2803
 321  271.1861
 322  265.5219
 323  440.578
 324  394.4326
 325  463.3005
 326  454.6629
 327  416.812
 328  429.2564
 329  436.8197
 330  530.765
 331  478.106
 332  450.7863
 333  452.4075
 334  521.5408
 335  478.6096
 336  390.736
 337  387.6824
 338  488.1647
 339  461.5927
 340  493.2179
 341  482.4945
 342  484.1956
 343  533.3187
 344  512.191
 345  373.8529
 346  313.4541
 347  379.3999
 348  397.5705
 349  396.4739
 350  533.5519
 351  447.6357
 352  400.3461
 353  528.7172
 354  448.7829
 355  487.6358
 356  461.2481
 357  383.5961
 358  349.8249
 359  314.6963
 360  373.5943
 361  331.7863
 362  404.825
 363  502.2214
 364  347.0248
 365  351.1335
 366  438.9131
 367  356.369
 368  400.538
 369  417.6998
 370  392.929
 371  403.9044
 372  389.1703
 373  326.6775
 374  261.6147
 375  298.0952
 376  326.2972
 377  433.7078
 378  354.8763
 379  400.337
 380  416.256
 381  436.3737
 382  454.9198
 383  382.2021
 384  355.3916
 385  367.1476
 386  345.9348
 387  367.7187
 388  336.7306
 389  373.3601
 390  337.8656
 391  361.4951
 392  401.7443
 393  372.3944
 394  353.0172
 395  397.4698
 396  345.5821
 397  343.9592
 398  318.3295
 399  271.1078
 400  265.6823
 401  234.1425
 402  202.1562
 403  259.4791
 404  435.1529
 405  464.7325
 406  337.8169
 407  294.5126
 408  283.5599
 409  216.8063
 410  204.9183
 411  390.1059
 412  334.832
 413  467.6851
 414  391.4559
 415  296.3493
 416  398.9464
 417  459.8618
 418  405.9646
 419  331.5129
 420  376.9883
 421  526.2775
 422  425.7042
 423  362.2803
 424  466.2628
 425  341.0808
 426  395.2
 427  294.9643
 428  361.0546
 429  522.6235
 430  381.4672
 431  293.152
 432  442.1601
 433  286.2349
 434  277.5584
 435  379.0725
 436  410.4485
 437  377.9489
 438  360.9312
 439  463.3712
 440  516.3297
 441  447.5027
 442  445.1646
 443  441.8958
 444  470.1371
 445  442.0763
 446  419.7295
 447  379.4534
 448  504.2134
 449  425.9975
 450  420.8792
 451  366.381
 452  300.0173
 453  354.2096
 454  413.3763
 455  325.5606
 456  365.1974
 457  359.9379
 458  334.0796
 459  436.6305
 460  327.7081
 461  329.0803
 462  375.0204
 463  333.4115
 464  428.487
 465  466.9829
 466  321.8563
 467  210.9933
 468  238.7876
 469  335.3488
 470  456.9901
 471  354.4156
 472  221.4085
 473  244.4093
 474  381.5515
 475  253.0393
 476  335.812
 477  389.1055
 478  488.2285
 479  425.2374
 480  435.0854
 481  280.0706
 482  323.3431
 483  336.4065
 484  344.3727
 485  348.4036
 486  410.9711
 487  396.4924
 488  406.4718
 489  376.3954
 490  351.7888
 491  322.3177
 492  440.9161
 493  371.5386
 494  345.1141
 495  452.3751
 496  439.1951
 497  350.6468
 498  266.7345
 499  289.3494
 500  265.1981
 501  339.7979
 502  323.3669
 503  281.5508
 504  274.4236
 505  295.2054
 506  418.0114
 507  295.2756
 508  294.9933
 509  242.5108
 510  232.7377
 511  277.8488
