# Input file       =  1205669230.121051-PSRB0329-2ms-sampling-dd.dat
# Candidate        =  PSR_0332+5434
# Telescope        =  AR
# Epoch_topo       =  58198.505198160310
# Epoch_bary       =  N/A
# T_sample         =  0.002
# Data Folded      =  7340032
# Data Avg         =  -9.88496934266512e-10
# Data StdDev      =  7.39153389794202 
# Profile Bins     =  512
# Profile Avg      =  -0.523399825220512
# Profile StdDev   =  885.010797082392 
# Reduced chi-sqr  =  0.698
# Prob(Noise)      <  1   (~0.0 sigma)
# P_topo (ms)      =  714.575088419446  +/- 0.000664
# P'_topo (s/s)    =  -0                +/- 3.5e-10
# P''_topo (s/s^2) =  0                 +/- 1.55e-13
# P_bary (ms)      =  N/A
# P'_bary (s/s)    =  N/A
# P''_bary (s/s^2) =  N/A
# P_orb (s)        =  N/A
# asin(i)/c (s)    =  N/A
# eccentricity     =  N/A
# w (rad)          =  N/A
# T_peri           =  N/A
######################################################
   0  -223.5816
   1  -447.0429
   2  -524.6783
   3  -447.8062
   4  -582.323
   5  -389.0656
   6  -852.7855
   7  -902.7214
   8  -511.9985
   9  -208.734
  10  239.433
  11  -488.9275
  12  -339.2263
  13  -390.4745
  14  -262.4609
  15  -484.299
  16  -689.3308
  17  -476.0916
  18  -770.0735
  19  -851.9795
  20  -883.0427
  21  -651.8128
  22  -957.7715
  23  -1242.318
  24  -1032.879
  25  -1042.797
  26  -1133.574
  27  -835.4728
  28  -949.3241
  29  -875.8394
  30  -823.0822
  31  -1081.853
  32  -1067.984
  33  -870.0464
  34  -715.2466
  35  -560.8972
  36  -648.3772
  37  15.95576
  38  -44.80132
  39  24.90259
  40  -238.924
  41  -275.1073
  42  -230.166
  43  29.97004
  44  -94.61929
  45  -42.26663
  46  414.4724
  47  531.9568
  48  212.9402
  49  285.1166
  50  216.1872
  51  137.8879
  52  111.7293
  53  412.7215
  54  561.837
  55  354.4131
  56  505.2464
  57  91.11773
  58  -54.01989
  59  -491.7511
  60  -479.739
  61  -91.19757
  62  40.29556
  63  144.3225
  64  -111.459
  65  -209.086
  66  138.9994
  67  184.3772
  68  242.4937
  69  258.6612
  70  527.6053
  71  495.2558
  72  560.4911
  73  449.2656
  74  263.2279
  75  143.1407
  76  163.7589
  77  266.0734
  78  351.7138
  79  415.2403
  80  90.85328
  81  283.9381
  82  116.8346
  83  -384.8424
  84  -579.5288
  85  -200.2549
  86  595.2026
  87  444.2536
  88  232.7031
  89  196.6396
  90  -141.3736
  91  -327.5581
  92  -319.8605
  93  265.6602
  94  46.37897
  95  -202.3469
  96  -279.2598
  97  -602.6979
  98  -749.8745
  99  -473.9549
 100  -636.3871
 101  -282.3794
 102  -19.76523
 103  -231.6015
 104  -707.6446
 105  -893.0414
 106  -690.4551
 107  -624.8155
 108  -236.5104
 109  66.04117
 110  5.5621
 111  -401.9732
 112  -553.2926
 113  -628.4528
 114  -733.8184
 115  -422.0485
 116  -159.5648
 117  -433.9794
 118  -387.2109
 119  -402.5313
 120  -21.72841
 121  -297.6024
 122  -473.8524
 123  -231.5599
 124  -72.18385
 125  44.89094
 126  134.7306
 127  186.3634
 128  155.9924
 129  270.2487
 130  179.3758
 131  257.2124
 132  -160.9585
 133  -242.9238
 134  -46.53859
 135  135.0372
 136  -99.00004
 137  -100.829
 138  -343.2458
 139  -312.1115
 140  -123.9677
 141  -15.56126
 142  316.8607
 143  65.46078
 144  178.0851
 145  573.3937
 146  553.5622
 147  229.089
 148  445.5461
 149  602.9488
 150  714.8607
 151  722.1514
 152  573.6298
 153  542.7802
 154  633.7047
 155  367.5102
 156  427.0751
 157  456.2424
 158  448.4005
 159  333.9561
 160  445.0024
 161  330.0454
 162  244.2075
 163  46.32703
 164  249.1928
 165  -107.0275
 166  -118.136
 167  -85.57774
 168  -364.0598
 169  -237.4184
 170  -252.4931
 171  -210.2065
 172  -435.0438
 173  -391.1702
 174  -475.8758
 175  -175.2328
 176  55.33237
 177  -101.7726
 178  36.60548
 179  -30.32302
 180  -42.59808
 181  257.6239
 182  416.6847
 183  425.6392
 184  436.6468
 185  475.3373
 186  690.4011
 187  127.0353
 188  97.10797
 189  -17.96155
 190  187.9648
 191  422.1523
 192  216.148
 193  285.8473
 194  690.8004
 195  801.233
 196  639.1251
 197  668.3929
 198  353.4244
 199  -206.9862
 200  -158.6315
 201  469.674
 202  701.8066
 203  388.4586
 204  457.3739
 205  525.6432
 206  115.9757
 207  -234.4989
 208  -295.3223
 209  424.118
 210  239.2816
 211  322.3344
 212  284.4162
 213  449.5298
 214  306.1182
 215  434.5222
 216  451.2187
 217  420.5092
 218  511.3604
 219  548.8239
 220  1018.427
 221  961.0466
 222  594.6342
 223  706.7415
 224  480.4328
 225  407.0607
 226  137.1152
 227  126.6781
 228  503.3039
 229  555.2846
 230  202.2279
 231  108.2864
 232  -105.9564
 233  -86.03915
 234  161.3647
 235  544.3353
 236  562.0847
 237  400.7068
 238  501.7889
 239  561.4154
 240  255.7264
 241  62.37009
 242  236.015
 243  327.5772
 244  565.7095
 245  272.44
 246  -4.281397
 247  115.1975
 248  272.7952
 249  148.7402
 250  445.2395
 251  420.0473
 252  569.7943
 253  625.9752
 254  525.9805
 255  340.5244
 256  -17.0781
 257  489.2852
 258  790.9901
 259  1179.661
 260  1236.347
 261  789.3765
 262  -185.7981
 263  112.2796
 264  98.53035
 265  262.7258
 266  63.43643
 267  -92.76318
 268  -212.1545
 269  -349.0721
 270  -264.844
 271  -207.7558
 272  -82.00566
 273  -116.0043
 274  -536.2559
 275  -334.059
 276  -286.562
 277  -306.0251
 278  -50.76887
 279  -47.53938
 280  -204.5803
 281  -139.5617
 282  -115.1438
 283  -302.7934
 284  -375.2636
 285  -113.4925
 286  -282.2936
 287  -192.3843
 288  309.082
 289  -106.0057
 290  -444.132
 291  -578.33
 292  -29.31949
 293  -303.0152
 294  -192.0626
 295  -187.3916
 296  -333.6952
 297  -119.9357
 298  -126.6998
 299  190.2427
 300  71.23876
 301  -325.1898
 302  -625.8109
 303  -1054.602
 304  -1396.843
 305  -1137.851
 306  -907.1231
 307  -1155.594
 308  -1085.132
 309  -820.759
 310  -202.6275
 311  -346.4164
 312  -820.7808
 313  -698.4453
 314  -868.053
 315  -518.5451
 316  -470.3015
 317  -818.0827
 318  -592.0517
 319  -642.4167
 320  -644.9333
 321  -697.8251
 322  -781.8474
 323  -561.233
 324  -528.1001
 325  -781.9375
 326  -725.9304
 327  -852.0993
 328  -1024.927
 329  -812.0954
 330  -604.2251
 331  -685.5281
 332  -401.5252
 333  -491.5507
 334  -790.7865
 335  -1028.704
 336  -1341.492
 337  -757.9037
 338  -886.5284
 339  -925.8111
 340  -874.8901
 341  -1126.295
 342  -1000.153
 343  -1047.796
 344  -1007.201
 345  -685.4411
 346  -498.3593
 347  -982.3461
 348  -1240.599
 349  -1195.596
 350  -814.1534
 351  -179.492
 352  -80.43243
 353  -73.38455
 354  -97.78742
 355  -57.51818
 356  -368.2224
 357  -140.8401
 358  184.5703
 359  83.52106
 360  594.4277
 361  331.9717
 362  33.87105
 363  -10.85122
 364  194.9754
 365  271.9004
 366  389.6986
 367  288.3659
 368  101.481
 369  168.1796
 370  141.8912
 371  403.5761
 372  294.532
 373  365.0457
 374  586.29
 375  171.0591
 376  412.2314
 377  495.5988
 378  81.44068
 379  321.0284
 380  267.3916
 381  226.5298
 382  262.5924
 383  205.3173
 384  115.8611
 385  416.3418
 386  441.8467
 387  362.9048
 388  360.1111
 389  547.2913
 390  577.6588
 391  464.6963
 392  559.9877
 393  315.516
 394  430.4767
 395  437.2523
 396  545.6209
 397  255.9649
 398  85.47515
 399  91.39257
 400  175.6808
 401  266.25
 402  -60.72882
 403  -281.2143
 404  8.700919
 405  -55.16002
 406  -303.1084
 407  -318.0933
 408  182.6648
 409  434.8631
 410  266.5683
 411  -2.629427
 412  8.871451
 413  90.52819
 414  -261.413
 415  -65.68462
 416  -26.02328
 417  -332.0717
 418  94.37861
 419  99.36396
 420  79.41295
 421  53.21854
 422  -315.3782
 423  -400.0564
 424  -254.6083
 425  136.5272
 426  324.4706
 427  398.2416
 428  10.90422
 429  -101.2907
 430  -116.1795
 431  -186.087
 432  -417.3591
 433  -366.0839
 434  155.6029
 435  537.4817
 436  457.7785
 437  285.3937
 438  206.9207
 439  -61.02025
 440  -307.991
 441  -216.3946
 442  -287.9223
 443  265.3842
 444  482.6689
 445  244.1774
 446  232.0313
 447  266.5604
 448  399.7589
 449  123.9876
 450  756.6678
 451  923.0424
 452  1185.929
 453  1709.119
 454  2307.441
 455  2539.58
 456  2121.738
 457  2117.143
 458  1770.445
 459  1013.253
 460  861.6005
 461  816.566
 462  755.6039
 463  745.2489
 464  821.0853
 465  802.7889
 466  788.1437
 467  925.8029
 468  1188.376
 469  889.0934
 470  348.7653
 471  558.9576
 472  308.6408
 473  298.3089
 474  385.4138
 475  247.8869
 476  332.5047
 477  86.53075
 478  40.79613
 479  -627.4666
 480  -631.9527
 481  -422.0966
 482  -179.062
 483  265.3667
 484  593.3598
 485  306.4039
 486  235.8602
 487  -42.47724
 488  -336.9568
 489  -214.5948
 490  393.9939
 491  217.8816
 492  192.7314
 493  318.3234
 494  185.2608
 495  -259.4033
 496  -43.10562
 497  -42.98937
 498  -124.6861
 499  18.0447
 500  315.6371
 501  304.3702
 502  60.57378
 503  138.1859
 504  -260.4567
 505  91.75256
 506  -146.2706
 507  -540.2177
 508  -361.3712
 509  -346.7288
 510  -806.6367
 511  -754.6869
