# Input file       =  1205051296.112978_cleaned.dat
# Candidate        =  PSR_0332+5434
# Telescope        =  AR
# Epoch_topo       =  58191.353184177984
# Epoch_bary       =  N/A
# T_sample         =  0.002
# Data Folded      =  7208960
# Data Avg         =  -0.110576970479451
# Data StdDev      =  6.63609581353486 
# Profile Bins     =  512
# Profile Avg      =  -1556.98545324289
# Profile StdDev   =  787.433659720946 
# Reduced chi-sqr  =  0.592
# Prob(Noise)      <  1   (~0.0 sigma)
# P_topo (ms)      =  714.577797061201  +/- 5.74e-05
# P'_topo (s/s)    =  -0                +/- 3.08e-11
# P''_topo (s/s^2) =  0                 +/- 1.39e-14
# P_bary (ms)      =  N/A
# P'_bary (s/s)    =  N/A
# P''_bary (s/s^2) =  N/A
# P_orb (s)        =  N/A
# asin(i)/c (s)    =  N/A
# eccentricity     =  N/A
# w (rad)          =  N/A
# T_peri           =  N/A
######################################################
   0  -1361.513
   1  -1513.907
   2  -1487.177
   3  -1747.922
   4  -2065.53
   5  -1626.587
   6  -1837.914
   7  -2069.539
   8  -2629.177
   9  -2111.21
  10  -1615.587
  11  -1315.646
  12  -1301.989
  13  -1421.912
  14  -1551.202
  15  -2549.23
  16  -2534.265
  17  -1925.005
  18  -983.0201
  19  -1203.036
  20  -1745.69
  21  -1944.894
  22  -2539.355
  23  -2077.525
  24  -2425.98
  25  -2022.793
  26  -1794.872
  27  -1715.961
  28  -1785.443
  29  -1457.807
  30  -1233.315
  31  -1677.956
  32  -2200.764
  33  -1857.354
  34  -1435.381
  35  -1310.386
  36  -1602.092
  37  -1629.252
  38  -1579.653
  39  -1899.682
  40  -1780.293
  41  -1799.792
  42  -1964.707
  43  -2084.435
  44  -1922.194
  45  -1963.681
  46  -1303.371
  47  -1067.961
  48  -1652.546
  49  -2187.378
  50  -2049.226
  51  -1965.851
  52  -1832.251
  53  -1810.274
  54  -1788.795
  55  -1482.644
  56  -1906.715
  57  -2090.844
  58  -2194.895
  59  -2231.697
  60  -2293.909
  61  -2264.714
  62  -2153.839
  63  -1370.645
  64  -1148.323
  65  -1555.101
  66  -1933.641
  67  -1605.447
  68  -2063.672
  69  -2130.665
  70  -1732.175
  71  -1513.971
  72  -1868.074
  73  -1866.887
  74  -2285.487
  75  -2283.442
  76  -1863.216
  77  -2305.91
  78  -2341.932
  79  -2041.743
  80  -1282.808
  81  -1443.782
  82  -1838.3
  83  -1715.572
  84  -1464.404
  85  -1728.524
  86  -2229.852
  87  -2007.205
  88  -1659.259
  89  -1894.827
  90  -2316.067
  91  -2521.721
  92  -1719.012
  93  -1697.648
  94  -1680.304
  95  -1911.186
  96  -1723.962
  97  -1553.765
  98  -1737.662
  99  -1400.424
 100  -1377.291
 101  -1497.655
 102  -1422.139
 103  -1913.458
 104  -1751.695
 105  -1631.245
 106  -2291.815
 107  -2465.814
 108  -2240.483
 109  -1536.82
 110  -1246.594
 111  -1173.417
 112  -1223.061
 113  -1568.142
 114  -1876.187
 115  -1987.922
 116  -1744.704
 117  -1017.032
 118  -938.711
 119  -1360.777
 120  -1326.091
 121  -1731.14
 122  -1608.696
 123  -1947.479
 124  -1775.684
 125  -1991.205
 126  -1614.595
 127  -1403.988
 128  -1585.416
 129  -932.3134
 130  -895.3877
 131  -1490.837
 132  -2026.332
 133  -1487.416
 134  -1426.968
 135  -1308.797
 136  -1150.987
 137  -1306.038
 138  -1184.26
 139  -1503.007
 140  -2079.125
 141  -1727.725
 142  -1659.654
 143  -1356.804
 144  -1398.398
 145  -634.7343
 146  -798.3311
 147  -1433.49
 148  -1899.809
 149  -1847.284
 150  -1170.122
 151  -1996.902
 152  -2033.379
 153  -1383.122
 154  -1292.292
 155  -1256.538
 156  -1678.129
 157  -1800.121
 158  -1432.726
 159  -1374.227
 160  -2006.345
 161  -1964.848
 162  -1386.047
 163  -1423.067
 164  -1441.052
 165  -1761.489
 166  -1284.977
 167  -1395.974
 168  -1836.01
 169  -2313.147
 170  -2178.256
 171  -1918.438
 172  -1799.816
 173  -1741.273
 174  -1371.3
 175  -1349.765
 176  -1840.754
 177  -1874.306
 178  -1691.46
 179  -1330.971
 180  -1278.752
 181  -1684.194
 182  -1415.446
 183  -1516.02
 184  -1880.466
 185  -2066.624
 186  -1717.694
 187  -1663.577
 188  -2014.853
 189  -2253.375
 190  -2149.838
 191  -1466.963
 192  -1520.078
 193  -1740.04
 194  -1493.122
 195  -1320.892
 196  -1362.619
 197  -1799.995
 198  -1884.628
 199  -1640.387
 200  -1162.324
 201  -1502.661
 202  -1993.46
 203  -1546.781
 204  -1857.747
 205  -2261.94
 206  -2361.336
 207  -2277.961
 208  -2227.657
 209  -1669.391
 210  -1392.336
 211  -1298.3
 212  -1105.351
 213  -1259.869
 214  -1902.622
 215  -1850.896
 216  -1492.788
 217  -1526.666
 218  -1679.297
 219  -1473.6
 220  -1184.211
 221  -1345.622
 222  -1620.295
 223  -1718.109
 224  -1712.6
 225  -1858.405
 226  -1718.805
 227  -1312.163
 228  -768.2689
 229  -506.209
 230  -766.3051
 231  -966.7745
 232  -1095.492
 233  -1574.348
 234  -2059.339
 235  -2058.972
 236  -1362.874
 237  -931.4089
 238  -1340.106
 239  -2120.655
 240  -1514.147
 241  -1525.52
 242  -1888.55
 243  -1251.702
 244  -1029.269
 245  -567.5529
 246  -839.0483
 247  -983.385
 248  -1064.505
 249  -1203.322
 250  -1328.406
 251  -1531.113
 252  -1784.462
 253  -1339.399
 254  -1318.219
 255  -1348.281
 256  -1977.386
 257  -1676.475
 258  -1188.294
 259  -1192.509
 260  -1164.651
 261  -1371.08
 262  -1254.496
 263  -1493.999
 264  -1460.801
 265  -628.7388
 266  -778.5796
 267  -1268.025
 268  -1527.089
 269  -1557.259
 270  -1429.778
 271  -1906.701
 272  -1725.447
 273  -1682.268
 274  -1536.851
 275  -1503.835
 276  -1440.152
 277  -1575.439
 278  -1405.212
 279  -1381.093
 280  -1718.322
 281  -1339.192
 282  -1036.075
 283  -1178.476
 284  -1528.199
 285  -1357.688
 286  -1218.621
 287  -1700.425
 288  -1875.057
 289  -2182.058
 290  -1688.595
 291  -1514.85
 292  -1668.207
 293  -1328.856
 294  -763.9332
 295  -1125.417
 296  -1636.429
 297  -1448.415
 298  -1467.539
 299  -922.1866
 300  -1144.01
 301  -1082.414
 302  44.66372
 303  677.0815
 304  52.0262
 305  -937.2643
 306  -1207.532
 307  -1818.301
 308  -1805.407
 309  -1508.232
 310  -1300.878
 311  -1374.498
 312  -949.0342
 313  -983.1605
 314  -1652.354
 315  -1591.011
 316  -1710.683
 317  -1409.097
 318  -975.7858
 319  -1070.87
 320  -1221.288
 321  -1695.632
 322  -1956.099
 323  -1778.158
 324  -1818.9
 325  -1743.576
 326  -1410.053
 327  -846.5436
 328  -1363.976
 329  -1735.347
 330  -1585.142
 331  -1459.47
 332  -1129.903
 333  -1622.262
 334  -2037.255
 335  -2132.102
 336  -1710.202
 337  -1752.707
 338  -1767.029
 339  -1342.203
 340  -951.6321
 341  -1037.544
 342  -1355.305
 343  -1177.105
 344  -1021.381
 345  -1139.98
 346  -1044.797
 347  -671.192
 348  -511.9936
 349  -1436.831
 350  -2169.353
 351  -2044.911
 352  -1407.465
 353  -1293.364
 354  -1935.512
 355  -1909.012
 356  -1619.088
 357  -1375.602
 358  -1383.765
 359  -1227.333
 360  -863.1591
 361  -960.4033
 362  -1174.634
 363  -1594.379
 364  -1351
 365  -1140.49
 366  -1083.443
 367  -1140.238
 368  -996.6163
 369  -787.0209
 370  -1549.162
 371  -2154.869
 372  -2073.895
 373  -1232.04
 374  -1159.755
 375  -1313.183
 376  -1034.644
 377  -789.4465
 378  -1415.561
 379  -1943.506
 380  -1454.499
 381  -1534.594
 382  -1047.03
 383  -1102.199
 384  -1519.708
 385  -1216.45
 386  -1451.602
 387  -1859.895
 388  -1981.593
 389  -2044.066
 390  -1649.688
 391  -1753.826
 392  -1425.747
 393  -1048.07
 394  -163.0538
 395  -1123.123
 396  -1601.79
 397  -1667.092
 398  -1497.807
 399  -1307.048
 400  -1270.345
 401  -956.7007
 402  -898.8738
 403  -823.7399
 404  -1386.438
 405  -1855.744
 406  -1627.034
 407  -1883.738
 408  -1712.7
 409  -1307.629
 410  -699.175
 411  -862.8551
 412  -1293.166
 413  -935.5673
 414  -730.6909
 415  -1186.483
 416  -1403.995
 417  -1574.992
 418  -1172.448
 419  -1162.972
 420  -1257.247
 421  -1281.633
 422  -1418.428
 423  -1564.3
 424  -1981.394
 425  -1735.619
 426  -1440.233
 427  -1742.492
 428  -1605.228
 429  -1402.708
 430  -1241.512
 431  -799.856
 432  -1471.593
 433  -2129.236
 434  -2187.918
 435  -2392.471
 436  -1881.315
 437  -2382.961
 438  -2205.316
 439  -1994.744
 440  -2001.657
 441  -1368.357
 442  -1774.153
 443  -1131.757
 444  -1686.372
 445  -1888.54
 446  -2014.068
 447  -1695.266
 448  -1668.534
 449  -1477.982
 450  -1209.38
 451  -1485.408
 452  -1881.146
 453  -2590.909
 454  -2536.611
 455  -2241.567
 456  -1487.281
 457  -1058.803
 458  -945.6351
 459  -743.6497
 460  -1154.186
 461  -1930.872
 462  -2158.006
 463  -1764.849
 464  -955.7288
 465  -772.2885
 466  -1191.165
 467  -1263.209
 468  -1020.32
 469  -2189.523
 470  -2412.125
 471  -2164.052
 472  -2054.161
 473  -1864.193
 474  -1858.593
 475  -1171.59
 476  -317.1425
 477  -853.2968
 478  -1830.347
 479  -1956.753
 480  -1813.16
 481  -1689.774
 482  -1770.305
 483  -1355.247
 484  -879.2043
 485  -1215.455
 486  -1541.941
 487  -2270.153
 488  -2014.041
 489  -1582.917
 490  -1485.144
 491  -1598.538
 492  -1136.767
 493  -937.3318
 494  -1359.486
 495  -1746.26
 496  -1591.411
 497  -1493.755
 498  -2017.201
 499  -2523.139
 500  -2126.346
 501  -1843.959
 502  -1828.97
 503  -1929.164
 504  -2273.1
 505  -1494.362
 506  -1365.323
 507  -1792.545
 508  -1424.756
 509  -1165.081
 510  -1622.186
 511  -1669.428
