# Input file       =  1205310301.106354_cleaned.dat
# Candidate        =  PSR_0332+5434
# Telescope        =  AR
# Epoch_topo       =  58194.350927156876
# Epoch_bary       =  N/A
# T_sample         =  0.002
# Data Folded      =  7274496
# Data Avg         =  0.112759702494419
# Data StdDev      =  1.00015776809696 
# Profile Bins     =  512
# Profile Avg      =  1602.14126339    
# Profile StdDev   =  119.216120939625 
# Reduced chi-sqr  =  1.742
# Prob(Noise)      <  6.05e-23   (~9.8 sigma)
# P_topo (ms)      =  714.576757754983  +/- 5.87e-05
# P'_topo (s/s)    =  -0                +/- 3.12e-11
# P''_topo (s/s^2) =  0                 +/- 1.39e-14
# P_bary (ms)      =  N/A
# P'_bary (s/s)    =  N/A
# P''_bary (s/s^2) =  N/A
# P_orb (s)        =  N/A
# asin(i)/c (s)    =  N/A
# eccentricity     =  N/A
# w (rad)          =  N/A
# T_peri           =  N/A
######################################################
   0  1542.941
   1  1549.305
   2  1618.059
   3  1686.469
   4  1706.71
   5  1749.157
   6  1750.224
   7  1683.376
   8  1625.581
   9  1548.497
  10  1591.554
  11  1619.295
  12  1725.016
  13  1701.424
  14  1654.864
  15  1654.368
  16  1462.953
  17  1551.637
  18  1627.024
  19  1649.299
  20  1597.478
  21  1636.895
  22  1653.966
  23  1524.003
  24  1543.275
  25  1511.298
  26  1510.742
  27  1530.756
  28  1648.714
  29  1676.581
  30  1656.129
  31  1626.051
  32  1602.12
  33  1601.659
  34  1525.437
  35  1659.52
  36  1675.7
  37  1633.692
  38  1640.306
  39  1593.64
  40  1669.885
  41  1689.466
  42  1632.577
  43  1566.434
  44  1590.148
  45  1579.414
  46  1577.371
  47  1630.962
  48  1565.271
  49  1487.55
  50  1590.818
  51  1738.076
  52  1681.726
  53  1579.966
  54  1622.071
  55  1587.081
  56  1666.901
  57  1646.403
  58  1577.769
  59  1619.706
  60  1646.57
  61  1699.348
  62  1767.294
  63  1721.752
  64  1602.431
  65  1578.891
  66  1568.869
  67  1603.345
  68  1642.262
  69  1669.667
  70  1687.589
  71  1735.399
  72  1681.286
  73  1648.952
  74  1560.096
  75  1581.402
  76  1680.456
  77  1734.26
  78  1728.887
  79  1631.853
  80  1689.189
  81  1739.175
  82  1786.409
  83  1743.148
  84  1670.366
  85  1756.876
  86  1655.916
  87  1778.137
  88  1817.84
  89  1790.642
  90  1702.24
  91  1647.108
  92  1720.02
  93  1737.104
  94  1679.095
  95  1768.082
  96  1749.523
  97  1630.233
  98  1636.52
  99  1656.811
 100  1693.057
 101  1803.093
 102  2020.656
 103  2120.431
 104  2302.143
 105  2319.693
 106  2131.898
 107  1874.898
 108  1712.566
 109  1574.945
 110  1526.865
 111  1622.585
 112  1681.191
 113  1633.571
 114  1664.325
 115  1543.995
 116  1512.654
 117  1568.641
 118  1614.957
 119  1664.026
 120  1695.145
 121  1678.003
 122  1587.22
 123  1532.1
 124  1564.316
 125  1619.097
 126  1673.279
 127  1639.556
 128  1761.823
 129  1756.902
 130  1759.137
 131  1527.11
 132  1491.345
 133  1563.372
 134  1545.735
 135  1620.821
 136  1682.588
 137  1635.702
 138  1582.215
 139  1547.382
 140  1424.959
 141  1464.511
 142  1628.043
 143  1617.498
 144  1618.238
 145  1657.681
 146  1538.797
 147  1553.439
 148  1538.287
 149  1511.826
 150  1570.534
 151  1618.064
 152  1712.044
 153  1762.626
 154  1718.931
 155  1607.267
 156  1538.148
 157  1468.775
 158  1537.109
 159  1634.271
 160  1723.373
 161  1696.192
 162  1617.562
 163  1524.728
 164  1635.779
 165  1596.727
 166  1594.53
 167  1616.973
 168  1552.248
 169  1602.39
 170  1679.203
 171  1716.8
 172  1719.889
 173  1666.859
 174  1622.431
 175  1673.269
 176  1582.737
 177  1587.348
 178  1541.381
 179  1536.681
 180  1542.21
 181  1544.956
 182  1449.322
 183  1648.538
 184  1619.349
 185  1704.816
 186  1691.747
 187  1703.019
 188  1678.754
 189  1570.328
 190  1514.662
 191  1486.351
 192  1630.083
 193  1666.946
 194  1738.954
 195  1607.009
 196  1575.012
 197  1721.698
 198  1679.366
 199  1525.249
 200  1614.705
 201  1613.442
 202  1754.564
 203  1804.076
 204  1681.304
 205  1580.689
 206  1561.365
 207  1430.325
 208  1479.411
 209  1575.995
 210  1517.31
 211  1549.624
 212  1620.43
 213  1668.837
 214  1634.548
 215  1638.122
 216  1706.687
 217  1638.057
 218  1542.965
 219  1646.952
 220  1665.901
 221  1684.929
 222  1637.184
 223  1508.303
 224  1628.644
 225  1557.866
 226  1658.438
 227  1620.154
 228  1529.654
 229  1520.339
 230  1626.014
 231  1571.307
 232  1635.431
 233  1660.387
 234  1752.675
 235  1719.389
 236  1719.477
 237  1771.25
 238  1732.742
 239  1706.063
 240  1755.633
 241  1720.301
 242  1610.844
 243  1592.997
 244  1517.193
 245  1535.536
 246  1597.577
 247  1619.125
 248  1593.988
 249  1650.322
 250  1573.982
 251  1554.357
 252  1615.664
 253  1711.037
 254  1612.673
 255  1530.016
 256  1610.134
 257  1592.75
 258  1654.832
 259  1667.048
 260  1710.17
 261  1644.734
 262  1625.152
 263  1556.095
 264  1506.177
 265  1529.541
 266  1570.853
 267  1568.758
 268  1650.16
 269  1669.715
 270  1696.203
 271  1674.748
 272  1607.015
 273  1575.886
 274  1559.5
 275  1454.066
 276  1502.683
 277  1700.701
 278  1635.791
 279  1600.74
 280  1513.852
 281  1458.965
 282  1558.425
 283  1674.418
 284  1692.212
 285  1647.759
 286  1654.416
 287  1551.184
 288  1505.124
 289  1498.391
 290  1548.908
 291  1545.52
 292  1628.745
 293  1662.782
 294  1568.964
 295  1650.625
 296  1588.356
 297  1439.813
 298  1506.781
 299  1564.582
 300  1607.821
 301  1549.498
 302  1490.644
 303  1481.064
 304  1524.537
 305  1454.742
 306  1478.557
 307  1566.456
 308  1521.99
 309  1442.656
 310  1451.24
 311  1527.279
 312  1532.213
 313  1517.15
 314  1505.144
 315  1558.737
 316  1621.668
 317  1560.387
 318  1596.195
 319  1725.38
 320  1631.125
 321  1567.095
 322  1551.641
 323  1578.992
 324  1577.422
 325  1526.769
 326  1560.528
 327  1580.791
 328  1558.107
 329  1446.125
 330  1434.349
 331  1516.069
 332  1543.933
 333  1536.202
 334  1555.982
 335  1581.902
 336  1521.681
 337  1552.048
 338  1421.799
 339  1359.277
 340  1444.213
 341  1457.185
 342  1530.241
 343  1509.619
 344  1525.774
 345  1498.218
 346  1453.709
 347  1454.62
 348  1483.705
 349  1586.641
 350  1567.527
 351  1581.606
 352  1541.474
 353  1481.836
 354  1491.585
 355  1437.999
 356  1354.531
 357  1456.38
 358  1577.969
 359  1477.804
 360  1431.879
 361  1541.114
 362  1556.348
 363  1501.167
 364  1583.435
 365  1620.918
 366  1576.916
 367  1616.821
 368  1645.154
 369  1620.872
 370  1527.709
 371  1587.205
 372  1583.854
 373  1431.314
 374  1466.78
 375  1518.448
 376  1476.451
 377  1512.885
 378  1506.761
 379  1446.326
 380  1411.081
 381  1545.057
 382  1479.472
 383  1472.801
 384  1523.359
 385  1552.11
 386  1492.776
 387  1503.079
 388  1453.005
 389  1436.983
 390  1382.469
 391  1511.638
 392  1521.195
 393  1485.561
 394  1481.34
 395  1495.447
 396  1418.459
 397  1440.812
 398  1620.538
 399  1597.719
 400  1553.434
 401  1471.691
 402  1462.426
 403  1457.338
 404  1397.422
 405  1321.236
 406  1356.711
 407  1452.343
 408  1481.369
 409  1434.575
 410  1429.628
 411  1479.956
 412  1422.572
 413  1376.499
 414  1512.174
 415  1594.147
 416  1551.962
 417  1587.779
 418  1586.262
 419  1498.797
 420  1343.971
 421  1464.621
 422  1493.473
 423  1525.023
 424  1542.468
 425  1559.894
 426  1536.14
 427  1495.307
 428  1346.367
 429  1340.913
 430  1347.821
 431  1447.231
 432  1465.815
 433  1472.492
 434  1574.805
 435  1569.205
 436  1544.24
 437  1347.966
 438  1365.193
 439  1538.547
 440  1632.298
 441  1597.713
 442  1696.18
 443  1664.042
 444  1509.3
 445  1423.391
 446  1489.488
 447  1590.426
 448  1564.531
 449  1601.701
 450  1562.442
 451  1646.668
 452  1565.558
 453  1534.822
 454  1579.931
 455  1492.404
 456  1486.866
 457  1511.802
 458  1724.117
 459  1720.044
 460  1705.92
 461  1628.738
 462  1653.767
 463  1578.277
 464  1588.233
 465  1610.657
 466  1622.849
 467  1737.686
 468  1698.639
 469  1669.181
 470  1602.613
 471  1528.382
 472  1650.212
 473  1622.356
 474  1621.065
 475  1663.93
 476  1633.701
 477  1698.535
 478  1662.991
 479  1630.572
 480  1663.257
 481  1613.703
 482  1721.203
 483  1802.24
 484  1691.826
 485  1604.496
 486  1741.526
 487  1748.649
 488  1660.566
 489  1735.27
 490  1727.646
 491  1768.644
 492  1880.591
 493  1868.505
 494  1733.089
 495  1764.387
 496  1617.612
 497  1716.819
 498  1730.902
 499  1723.235
 500  1885.162
 501  1808.119
 502  1663.988
 503  1671.01
 504  1679.301
 505  1731.251
 506  1655.832
 507  1722.632
 508  1811.43
 509  1704.823
 510  1732.514
 511  1653.186
