# Input file       =  1205684143.112546-PSRB0329-2ms-sampling-dd.dat
# Candidate        =  PSR_0332+5434
# Telescope        =  AR
# Epoch_topo       =  58198.677802228543
# Epoch_bary       =  N/A
# T_sample         =  0.002
# Data Folded      =  7340032
# Data Avg         =  -3.03640319368512e-10
# Data StdDev      =  12.3582729489334 
# Profile Bins     =  512
# Profile Avg      =  0.0515169065927093
# Profile StdDev   =  1479.69354454864 
# Reduced chi-sqr  =  1.057
# Prob(Noise)      <  0.182   (~0.9 sigma)
# P_topo (ms)      =  714.57534761716   +/- 0.000872
# P'_topo (s/s)    =  -0                +/- 4.6e-10
# P''_topo (s/s^2) =  0                 +/- 2.03e-13
# P_bary (ms)      =  N/A
# P'_bary (s/s)    =  N/A
# P''_bary (s/s^2) =  N/A
# P_orb (s)        =  N/A
# asin(i)/c (s)    =  N/A
# eccentricity     =  N/A
# w (rad)          =  N/A
# T_peri           =  N/A
######################################################
   0  -2026.65
   1  -2146.364
   2  -2084.881
   3  -1957.059
   4  -1884.2
   5  -1484.312
   6  -1506.362
   7  -1450.226
   8  -1747.585
   9  -1200.808
  10  -1163.395
  11  -1082.759
  12  -159.8868
  13  -112.3711
  14  -351.3593
  15  -1014.653
  16  -834.278
  17  103.2559
  18  -125.7112
  19  -51.90288
  20  131.5186
  21  118.406
  22  338.0473
  23  195.4303
  24  -6.875181
  25  11.88299
  26  86.07159
  27  406.5137
  28  975.5525
  29  916.355
  30  574.9969
  31  239.9501
  32  322.6515
  33  458.5313
  34  405.8648
  35  479.6392
  36  301.473
  37  488.7291
  38  31.39688
  39  -224.9649
  40  -233.397
  41  154.659
  42  619.292
  43  742.6052
  44  506.5813
  45  105.3293
  46  436.9847
  47  1286.995
  48  1179.53
  49  1242.814
  50  1531.416
  51  1760.688
  52  1556.06
  53  1845.713
  54  2087.258
  55  1715.28
  56  1696.825
  57  1454.402
  58  1643.765
  59  1578.123
  60  1463.423
  61  1522.523
  62  2184.144
  63  2069.213
  64  1532.934
  65  1389.029
  66  1422.261
  67  1022.234
  68  1332.184
  69  1611.671
  70  1469.227
  71  1247.162
  72  1235.337
  73  1089.343
  74  1021.243
  75  1159.178
  76  1174.286
  77  1409.383
  78  1327.244
  79  1944.609
  80  2729.995
  81  2884.109
  82  2844.287
  83  2799.172
  84  2108.017
  85  1513.42
  86  969.1049
  87  1153.999
  88  1089.327
  89  1195.509
  90  986.3361
  91  1465.087
  92  1226.107
  93  1170.168
  94  1000.567
  95  774.1314
  96  868.1088
  97  833.1607
  98  913.8364
  99  1099.723
 100  1812.225
 101  1265.868
 102  751.4996
 103  882.5249
 104  785.4573
 105  1047.627
 106  1112.574
 107  1901.594
 108  2178.117
 109  1739.453
 110  1460.742
 111  1226.815
 112  1147.153
 113  1331.374
 114  1526.736
 115  1248.045
 116  1197.305
 117  914.6385
 118  983.4446
 119  919.4442
 120  921.5499
 121  1170.678
 122  1606.561
 123  1685.283
 124  1512.242
 125  1305.854
 126  779.9811
 127  1152.165
 128  827.6068
 129  883.8571
 130  954.3657
 131  1174.86
 132  1339.846
 133  1070.78
 134  651.4328
 135  1024.101
 136  851.7052
 137  1139.556
 138  985.5881
 139  1235.598
 140  1517.907
 141  1463.254
 142  1578.777
 143  1039.427
 144  661.7624
 145  1097.812
 146  638.4147
 147  921.1176
 148  1295.82
 149  1130.561
 150  767.3422
 151  292.7935
 152  170.8614
 153  361.3484
 154  302.1986
 155  79.27913
 156  598.0621
 157  89.09685
 158  -284.5951
 159  -377.7371
 160  -44.12293
 161  19.50382
 162  -25.7767
 163  573.0145
 164  312.3516
 165  -685.3564
 166  -377.6589
 167  130.229
 168  271.9484
 169  19.48501
 170  488.2665
 171  106.4701
 172  -104.9883
 173  -18.02036
 174  773.1168
 175  800.2864
 176  815.7296
 177  1122.474
 178  509.3468
 179  321.5873
 180  449.0266
 181  1083.518
 182  1647.47
 183  1464.649
 184  941.4102
 185  264.0853
 186  540.5576
 187  716.7072
 188  216.0303
 189  -203.2613
 190  -265.0372
 191  -162.2842
 192  118.8821
 193  520.0189
 194  294.2077
 195  142.7304
 196  -380.3159
 197  -888.975
 198  -778.9802
 199  -483.1815
 200  -144.4652
 201  -383.0546
 202  -284.5753
 203  -570.3394
 204  -1150.067
 205  -832.7429
 206  -1218.042
 207  -1052.031
 208  -1341.922
 209  -959.438
 210  -1101.41
 211  -693.8145
 212  -662.0519
 213  -1039.018
 214  -982.4769
 215  -940.6458
 216  -944.8516
 217  -1390.825
 218  -1508.294
 219  -1417.461
 220  -643.3038
 221  -294.9434
 222  -262.7881
 223  -123.6549
 224  -743.3912
 225  -1521.927
 226  -887.2339
 227  -1155.484
 228  -968.2947
 229  -549.4197
 230  -404.8075
 231  -293.2075
 232  -235.1717
 233  -505.5672
 234  -994.6762
 235  -709.2678
 236  -723.8452
 237  -1022.285
 238  -518.4688
 239  40.31036
 240  -434.1969
 241  -784.5156
 242  -1202.122
 243  -1005.075
 244  -627.8535
 245  -418.1442
 246  -129.2925
 247  -239.2891
 248  -562.2097
 249  -691.8621
 250  -638.6929
 251  -294.3632
 252  -311.0461
 253  555.2372
 254  265.7404
 255  69.26859
 256  718.1584
 257  592.3032
 258  296.7231
 259  115.266
 260  495.2109
 261  906.8792
 262  641.6117
 263  999.8741
 264  1219.805
 265  654.1526
 266  209.738
 267  80.40127
 268  612.3083
 269  1182.852
 270  1035.041
 271  684.0508
 272  1000.408
 273  507.0474
 274  242.1633
 275  130.1025
 276  446.6153
 277  111.9972
 278  479.1008
 279  797.1509
 280  573.6222
 281  572.3144
 282  938.2448
 283  1135.382
 284  740.0236
 285  1176.586
 286  709.8864
 287  295.0331
 288  647.4684
 289  888.5463
 290  862.2687
 291  502.123
 292  790.4882
 293  664.4305
 294  376.4486
 295  247.8851
 296  102.3381
 297  -4.195923
 298  172.5371
 299  474.9298
 300  186.7403
 301  -178.1975
 302  384.9839
 303  737.0609
 304  667.3198
 305  735.5484
 306  609.4225
 307  -434.0844
 308  -335.8068
 309  -355.3453
 310  -214.3866
 311  392.7159
 312  289.5523
 313  -230.158
 314  -187.7023
 315  180.2518
 316  -282.1444
 317  -679.4894
 318  118.4826
 319  275.8484
 320  43.80897
 321  -313.6509
 322  311.3154
 323  232.2801
 324  194.7612
 325  374.8061
 326  699.5004
 327  1142.335
 328  1069.551
 329  896.7587
 330  845.7792
 331  877.1397
 332  741.9023
 333  484.5646
 334  -63.45097
 335  188.6309
 336  597.2199
 337  544.1129
 338  340.0394
 339  322.1233
 340  429.669
 341  569.1729
 342  167.114
 343  248.9714
 344  580.9733
 345  1064.075
 346  802.5506
 347  569.4191
 348  330.5757
 349  -588.238
 350  -468.3777
 351  77.37714
 352  421.1891
 353  679.326
 354  702.7196
 355  544.9724
 356  418.5233
 357  429.6802
 358  216.2849
 359  1086.075
 360  1490.773
 361  1426.836
 362  1445.791
 363  1520
 364  1312.47
 365  860.0884
 366  758.6763
 367  546.9835
 368  576.8134
 369  395.7812
 370  150.759
 371  403.6112
 372  721.8928
 373  862.9714
 374  400.5696
 375  345.6234
 376  272.79
 377  781.2205
 378  1017.545
 379  611.7698
 380  167.2095
 381  195.0071
 382  438.5856
 383  227.8908
 384  268.7478
 385  352.0753
 386  49.76741
 387  -65.71024
 388  284.0232
 389  370.1269
 390  429.0534
 391  8.087079
 392  -449.6785
 393  -563.5276
 394  -1366.546
 395  -1289.175
 396  -296.0978
 397  -105.1879
 398  -414.2441
 399  -374.3918
 400  -689.5486
 401  -1000.169
 402  -1328.871
 403  -818.532
 404  -388.6711
 405  -335.0916
 406  -91.77428
 407  -812.2029
 408  -1356.597
 409  -1501.75
 410  -1227.239
 411  -553.2093
 412  -619.0289
 413  -198.2075
 414  -220.9588
 415  -773.1623
 416  -1038.945
 417  -1042.219
 418  -720.2056
 419  -567.0482
 420  -772.6345
 421  -1145.169
 422  -894.9246
 423  -871.3615
 424  -1286.084
 425  -679.6377
 426  -141.5292
 427  -942.0553
 428  -1426.841
 429  -1322.391
 430  -1232.638
 431  -1668.663
 432  -1346.7
 433  -728.4478
 434  -494.3006
 435  -1070.664
 436  -1990.865
 437  -2241.995
 438  -1748.97
 439  -1796.837
 440  -1238.27
 441  -1239.968
 442  -1557.873
 443  -1105.573
 444  -1173.149
 445  -1050.97
 446  -1099.477
 447  -1453.581
 448  -1586.749
 449  -1933.325
 450  -1453.724
 451  -1479.691
 452  -1465.055
 453  -1811.338
 454  -1758.105
 455  -1495.012
 456  -1399.444
 457  -1244.235
 458  -1653.59
 459  -1218.909
 460  -960.1512
 461  -1153.576
 462  -922.551
 463  -624.058
 464  -545.4434
 465  -587.1129
 466  -1117.132
 467  -1136.624
 468  -1547.387
 469  -1375.769
 470  -1201.269
 471  -1196.5
 472  -1630.874
 473  -1779.609
 474  -1959.669
 475  -2257.177
 476  -1972.042
 477  -1751.836
 478  -1804.705
 479  -1690.992
 480  -1181.185
 481  -1182.546
 482  -1486.535
 483  -1699.309
 484  -1794.351
 485  -1685.31
 486  -1856.751
 487  -1309.65
 488  -1000.334
 489  -1081.782
 490  -1383.641
 491  -1684.196
 492  -1649.675
 493  -1737.856
 494  -2038.6
 495  -2060.331
 496  -2097.977
 497  -1903.96
 498  -1975.759
 499  -2323.328
 500  -2382.778
 501  -2749.857
 502  -2706.671
 503  -2507.096
 504  -1992.566
 505  -2324.991
 506  -3201.701
 507  -3371.022
 508  -2591.722
 509  -2001.31
 510  -2095.098
 511  -2326.483
