# Input file       =  1205913080.105604-PSRB0329-2ms-sampling-dd.dat
# Candidate        =  PSR_0332+5434
# Telescope        =  AR
# Epoch_topo       =  58201.327535944489
# Epoch_bary       =  N/A
# T_sample         =  0.002
# Data Folded      =  7208960
# Data Avg         =  -3.19121017705669e-10
# Data StdDev      =  7.86086873004764 
# Profile Bins     =  512
# Profile Avg      =  0.320238861676605
# Profile StdDev   =  932.76420452859  
# Reduced chi-sqr  =  1.452
# Prob(Noise)      <  8.8e-11   (~6.4 sigma)
# P_topo (ms)      =  714.573765699249  +/- 2.64e-05
# P'_topo (s/s)    =  -0                +/- 1.42e-11
# P''_topo (s/s^2) =  0                 +/- 6.37e-15
# P_bary (ms)      =  N/A
# P'_bary (s/s)    =  N/A
# P''_bary (s/s^2) =  N/A
# P_orb (s)        =  N/A
# asin(i)/c (s)    =  N/A
# eccentricity     =  N/A
# w (rad)          =  N/A
# T_peri           =  N/A
######################################################
   0  1495.472
   1  1524.191
   2  919.2704
   3  1181.759
   4  2133.486
   5  2488.705
   6  2301.558
   7  953.6693
   8  157.7983
   9  -252.7742
  10  -901.315
  11  -903.1361
  12  -105.474
  13  1215.625
  14  1398.65
  15  1570.407
  16  1326.641
  17  382.6211
  18  67.20272
  19  -270.7883
  20  175.1993
  21  1067.883
  22  1514.711
  23  948.2377
  24  5.543733
  25  104.8983
  26  -182.4837
  27  -239.6029
  28  -221.3524
  29  904.4617
  30  1511.703
  31  1687.208
  32  1303.401
  33  661.6089
  34  389.8083
  35  -456.1007
  36  -328.237
  37  -324.7528
  38  254.093
  39  698.8369
  40  57.15375
  41  -133.3085
  42  -166.5407
  43  76.91305
  44  -158.7255
  45  326.802
  46  1042.405
  47  1361.387
  48  1205.33
  49  913.6335
  50  935.78
  51  2.757414
  52  -227.7207
  53  -11.67031
  54  349.7961
  55  1218.884
  56  632.8379
  57  364.4427
  58  -11.70614
  59  -223.0379
  60  -781.8822
  61  -579.1931
  62  623.0286
  63  1363.318
  64  1646.971
  65  1229.763
  66  1107.291
  67  409.3926
  68  -448.4324
  69  -757.1449
  70  -242.176
  71  915.3015
  72  1084.118
  73  830.8677
  74  -77.36493
  75  -399.9398
  76  -1037.217
  77  -1395.208
  78  -202.4605
  79  1129.642
  80  2046.215
  81  1238.004
  82  651.3363
  83  239.7697
  84  -391.7015
  85  -665.7714
  86  -683.0836
  87  887.8273
  88  1032.369
  89  987.8479
  90  707.9524
  91  204.8422
  92  302.6647
  93  -661.2717
  94  -313.0061
  95  899.5223
  96  1690.5
  97  1948.78
  98  1482.514
  99  1019.012
 100  322.759
 101  55.93509
 102  -545.3397
 103  -81.0756
 104  484.7472
 105  672.8585
 106  372.9173
 107  -242.938
 108  132.2539
 109  -612.6139
 110  -706.9924
 111  -0.4923895
 112  1213.035
 113  1521.365
 114  1130.223
 115  1165.662
 116  467.9764
 117  359.4901
 118  -190.3347
 119  -341.7041
 120  168.7886
 121  919.1372
 122  456.1268
 123  -5.859556
 124  69.73221
 125  -23.23619
 126  -148.7528
 127  -125.3592
 128  758.9525
 129  1677.95
 130  1407.52
 131  1148.37
 132  298.28
 133  -251.9709
 134  -520.0316
 135  -868.7928
 136  -2.499296
 137  779.4187
 138  1079.547
 139  301.8822
 140  9.093497
 141  -63.33746
 142  -341.8809
 143  -485.5048
 144  -333.5417
 145  1067.561
 146  1695.34
 147  1115.145
 148  482.9097
 149  321.7342
 150  259.8381
 151  -330.2951
 152  -332.3674
 153  -78.01112
 154  623.96
 155  525.6813
 156  -77.38461
 157  -415.2187
 158  -834.4707
 159  -1036.95
 160  -956.7715
 161  207.6134
 162  1341.249
 163  1239.297
 164  503.7149
 165  117.4462
 166  -331.762
 167  -982.905
 168  -831.944
 169  -580.3315
 170  -1.939227
 171  260.9355
 172  -488.9767
 173  -973.3851
 174  -1072.876
 175  -1014.818
 176  -890.1118
 177  -509.7569
 178  653.4636
 179  883.7626
 180  624.0285
 181  -4.189894
 182  3.801601
 183  -352.0375
 184  -617.2587
 185  -711.2149
 186  -258.9499
 187  307.097
 188  146.8172
 189  -316.9311
 190  -727.3494
 191  -192.4502
 192  -796.386
 193  -346.7308
 194  314.7875
 195  812.5347
 196  742.6711
 197  296.8142
 198  -130.9097
 199  -328.7531
 200  -673.3395
 201  -879.1168
 202  -939.7932
 203  -215.5957
 204  -136.9461
 205  -613.738
 206  -950.2077
 207  -1485.997
 208  -1158.775
 209  -1189.509
 210  -608.1771
 211  516.1888
 212  1322.91
 213  539.9927
 214  -1.173556
 215  -260.9388
 216  -776.3836
 217  -632.3273
 218  -856.703
 219  -74.75875
 220  328.2829
 221  269.45
 222  -735.3152
 223  -843.1845
 224  -886.784
 225  -800.1484
 226  -773.6249
 227  529.6391
 228  1518.081
 229  1065.43
 230  737.1542
 231  313.1434
 232  -169.6854
 233  -774.6063
 234  -946.0606
 235  -700.9716
 236  -296.3896
 237  -357.7247
 238  -116.5371
 239  -469.8657
 240  -997.8333
 241  -1289.977
 242  -1575.931
 243  -890.244
 244  751.9387
 245  1238.477
 246  1139.888
 247  867.5638
 248  22.43412
 249  -251.7192
 250  -936.2521
 251  -531.2023
 252  -659.2513
 253  -68.28966
 254  95.04073
 255  -258.6248
 256  -766.5095
 257  -1006.212
 258  -1205.431
 259  -1082.558
 260  -78.86323
 261  491.5717
 262  696.4572
 263  372.4106
 264  59.9872
 265  -285.1688
 266  -917.175
 267  -513.8539
 268  -593.3818
 269  -385.3329
 270  27.00999
 271  -132.5895
 272  -479.5211
 273  -430.6535
 274  -469.2544
 275  -700.6901
 276  -453.0493
 277  553.3353
 278  1200.974
 279  864.8092
 280  541.4595
 281  514.2176
 282  -107.5981
 283  -368.2025
 284  -526.5056
 285  -374.2285
 286  -185.5601
 287  -142.263
 288  -85.70753
 289  -353.4404
 290  248.1822
 291  -540.7233
 292  -618.8154
 293  388.0175
 294  1128.82
 295  1302.677
 296  392.4348
 297  641.7735
 298  287.8903
 299  88.31615
 300  -406.4148
 301  -660.821
 302  9.827344
 303  540.2915
 304  -16.54696
 305  -244.8325
 306  -622.9305
 307  -1023.636
 308  -656.6842
 309  477.0282
 310  1418.087
 311  1577.589
 312  1016.968
 313  582.1323
 314  -23.98028
 315  29.32219
 316  -294.7879
 317  -201.6432
 318  62.31456
 319  447.3928
 320  552.1504
 321  -279.4267
 322  -443.3654
 323  -556.8757
 324  -414.9426
 325  -451.834
 326  654.6536
 327  1756.452
 328  1109.254
 329  478.8231
 330  67.04523
 331  -56.14749
 332  -537.5368
 333  -1074.314
 334  -230.3555
 335  258.808
 336  346.8376
 337  218.4914
 338  -637.6149
 339  -696.6273
 340  -1083.447
 341  -1151.526
 342  -656.4578
 343  228.7892
 344  797.5419
 345  836.0682
 346  519.1513
 347  -233.5357
 348  -651.4318
 349  -1027.063
 350  -1419.829
 351  -952.7826
 352  -16.31029
 353  -194.2178
 354  -544.989
 355  -634.39
 356  -876.0381
 357  -1045.388
 358  -1317.438
 359  -947.069
 360  336.6837
 361  830.7103
 362  527.7377
 363  398.7914
 364  321.2603
 365  51.11809
 366  -592.5339
 367  -822.5477
 368  1.939682
 369  363.3913
 370  54.57917
 371  -186.5913
 372  -620.9717
 373  -724.6002
 374  -1019.778
 375  -718.7112
 376  120.1227
 377  825.6212
 378  651.5346
 379  5.868217
 380  165.1258
 381  -199.0936
 382  -324.5655
 383  -565.8668
 384  -117.4293
 385  490.4213
 386  79.20919
 387  -545.6832
 388  -776.2438
 389  -446.3116
 390  -164.2575
 391  -66.48666
 392  954.2723
 393  1286.543
 394  1220.807
 395  687.489
 396  242.3708
 397  -120.6842
 398  -577.0786
 399  -659.3866
 400  -213.6303
 401  346.1339
 402  564.2922
 403  206.9644
 404  -237.7254
 405  -953.7919
 406  -807.9083
 407  -606.5971
 408  167.6341
 409  699.0472
 410  1312.317
 411  887.2288
 412  145.7732
 413  -135.4076
 414  -364.3053
 415  -801.4185
 416  -1179.626
 417  -577.838
 418  196.3759
 419  298.1037
 420  -576.5815
 421  -1030.277
 422  -1427.54
 423  -1910.246
 424  -2049.812
 425  -1077.649
 426  124.9768
 427  1107.307
 428  752.1572
 429  257.5893
 430  -548.0656
 431  -1577.303
 432  -2021.719
 433  -1911.42
 434  -597.2742
 435  162.2434
 436  256.8398
 437  -509.7048
 438  -1319.992
 439  -1575.12
 440  -2103.729
 441  -1435.158
 442  -477.3666
 443  379.4707
 444  752.5161
 445  224.5772
 446  -569.9673
 447  -999.6788
 448  -1863.506
 449  -1815.331
 450  -1093.414
 451  -412.9777
 452  -244.3586
 453  -901.9562
 454  -1031.331
 455  -1192.257
 456  -1219.767
 457  -1311.733
 458  -581.0649
 459  337.2472
 460  418.7784
 461  216.2034
 462  -336.6452
 463  -440.7495
 464  -735.3979
 465  -892.7722
 466  -648.3577
 467  -404.7403
 468  -264.4595
 469  -287.0501
 470  -971.5828
 471  -1104.297
 472  -804.2085
 473  -1054.747
 474  -498.0105
 475  -123.6609
 476  537.7701
 477  378.0564
 478  -8.489583
 479  306.6347
 480  -404.8723
 481  -562.3569
 482  -1087.688
 483  -895.0735
 484  -409.1836
 485  -257.3897
 486  208.1414
 487  -776.7451
 488  -1062.694
 489  -1403.27
 490  -1702.341
 491  -193.5313
 492  1064.705
 493  1652.938
 494  719.1325
 495  866.291
 496  27.16755
 497  -484.4366
 498  -735.4498
 499  -126.1443
 500  551.37
 501  1574.326
 502  1404.351
 503  753.3671
 504  573.561
 505  -361.7251
 506  -482.2562
 507  -250.6302
 508  971.965
 509  1992.364
 510  2110.994
 511  2291.451
