# Input file       =  1205669230.121051_cleaned.dat
# Candidate        =  PSR_0332+5434
# Telescope        =  AR
# Epoch_topo       =  58198.505198160310
# Epoch_bary       =  N/A
# T_sample         =  0.002
# Data Folded      =  7340032
# Data Avg         =  0.249083744559486
# Data StdDev      =  5.76624677403949 
# Profile Bins     =  512
# Profile Avg      =  3570.3094473591  
# Profile StdDev   =  690.41023475348  
# Reduced chi-sqr  =  1.452
# Prob(Noise)      <  9.32e-11   (~6.4 sigma)
# P_topo (ms)      =  714.575088456813  +/- 0.000234
# P'_topo (s/s)    =  -0                +/- 1.24e-10
# P''_topo (s/s^2) =  0                 +/- 5.46e-14
# P_bary (ms)      =  N/A
# P'_bary (s/s)    =  N/A
# P''_bary (s/s^2) =  N/A
# P_orb (s)        =  N/A
# asin(i)/c (s)    =  N/A
# eccentricity     =  N/A
# w (rad)          =  N/A
# T_peri           =  N/A
######################################################
   0  4280.516
   1  4234.774
   2  4490.578
   3  4196.363
   4  3926.586
   5  3944.548
   6  3866.602
   7  3655.434
   8  3633.213
   9  3631.001
  10  3709.684
  11  3672.483
  12  3787.542
  13  3271.376
  14  3232.965
  15  3277.094
  16  2852.996
  17  2982.259
  18  3063.206
  19  3070.973
  20  2898.367
  21  2892.326
  22  2961.513
  23  2961.042
  24  3116.409
  25  3145.22
  26  3136.441
  27  3163.006
  28  3265.686
  29  3593.127
  30  3754.563
  31  3823.094
  32  3791.073
  33  3684.241
  34  3966.799
  35  3537.517
  36  3438.746
  37  3364.237
  38  3496.24
  39  3667.126
  40  3531.513
  41  3597.678
  42  3985.023
  43  4197.602
  44  3904.155
  45  4065.035
  46  3978.863
  47  3502.1
  48  3343.071
  49  3968.097
  50  4252.958
  51  4099.335
  52  4133.954
  53  4208.373
  54  3876.696
  55  3432.021
  56  3189.53
  57  3798.874
  58  3912.769
  59  4083.268
  60  3987.622
  61  4043.493
  62  3812.019
  63  3991.974
  64  4032.479
  65  4125.713
  66  4152.245
  67  3942.731
  68  4293.83
  69  4318.747
  70  4050.443
  71  4336.042
  72  4183.371
  73  3964.426
  74  3572.088
  75  3663.598
  76  4027.656
  77  4238.094
  78  3873.38
  79  3661.933
  80  3311.893
  81  3235.03
  82  3368.403
  83  3661.772
  84  3723.584
  85  3511.617
  86  3339.742
  87  3381.471
  88  3144.388
  89  3015.756
  90  3101.125
  91  3172.154
  92  3287.028
  93  3023.023
  94  2544.499
  95  2570.065
  96  2590.306
  97  2627.369
  98  2802.815
  99  2892.097
 100  2758.242
 101  2803.973
 102  2730.536
 103  2956.055
 104  2804.706
 105  3155.827
 106  3021.872
 107  2979.215
 108  3038.267
 109  2951.568
 110  2572.54
 111  3180.964
 112  3268.236
 113  3387.378
 114  3273.242
 115  3118.574
 116  2953.416
 117  2843.886
 118  2927.208
 119  3032.928
 120  3119.048
 121  3136.011
 122  2743.818
 123  2892.532
 124  3026.581
 125  3094.944
 126  3452.203
 127  3435.565
 128  3246.245
 129  3420.207
 130  3505.339
 131  3303.549
 132  3300.342
 133  3730.141
 134  3791.048
 135  3796.424
 136  4330.925
 137  4029.729
 138  3601.24
 139  3532.367
 140  4174.712
 141  3897.014
 142  4039.74
 143  4022.311
 144  3882.52
 145  3945.524
 146  4016.24
 147  4359.268
 148  4126.048
 149  3736.702
 150  3602.75
 151  3133.403
 152  2551.596
 153  2606.272
 154  2943.85
 155  2399.582
 156  2400.241
 157  2616.393
 158  2975.561
 159  3022.987
 160  2498.716
 161  2550.336
 162  2424.487
 163  2504.923
 164  2623.173
 165  2263.2
 166  2541.958
 167  2693.68
 168  2650.168
 169  2614.431
 170  2613.357
 171  2878.254
 172  2887.182
 173  2523.247
 174  2552.881
 175  2653.84
 176  2441.028
 177  2618.901
 178  2746.251
 179  2742.617
 180  3092.031
 181  3208.209
 182  2949.175
 183  2858.067
 184  2306.664
 185  2909.201
 186  2903.735
 187  2756.815
 188  2882.546
 189  2819.701
 190  2926.43
 191  2959.346
 192  2898.196
 193  3167.009
 194  3447.312
 195  3050.003
 196  2826.17
 197  2895.474
 198  3291.265
 199  3937.968
 200  4126.504
 201  3973.746
 202  3840.287
 203  3968.651
 204  3843.21
 205  4013.241
 206  4441.072
 207  4325.432
 208  4791.808
 209  4522.693
 210  4135.772
 211  4197.704
 212  4518.93
 213  4504.15
 214  4626.069
 215  4538.609
 216  4394.919
 217  4164.992
 218  4233.449
 219  4586.779
 220  4509.197
 221  4485.409
 222  4726.253
 223  4410.396
 224  4583.822
 225  4545.077
 226  3862.486
 227  4086.596
 228  4193.334
 229  3908.196
 230  3992.55
 231  3920.577
 232  3628.087
 233  3799.344
 234  3722.075
 235  3625.093
 236  3751.348
 237  3965.337
 238  4130.703
 239  3960.11
 240  3928.139
 241  3699.446
 242  3608.681
 243  3627.599
 244  3725.211
 245  3503.923
 246  3613.836
 247  3574.882
 248  3672.769
 249  3826.656
 250  3510.888
 251  3215.82
 252  3407.924
 253  3626.137
 254  3304.061
 255  3243.027
 256  3747.228
 257  4057.474
 258  4010.412
 259  3676.216
 260  3630.396
 261  3871.363
 262  3607.791
 263  3681.695
 264  3905.741
 265  3582.574
 266  3950.85
 267  3956.193
 268  3694.413
 269  3576.717
 270  3309.638
 271  3214.434
 272  3453.946
 273  3792.459
 274  3931.986
 275  4094.162
 276  3806.234
 277  3868.356
 278  3957.431
 279  3987.965
 280  3593.096
 281  3698.794
 282  4291.823
 283  4739.502
 284  4681.703
 285  4564.823
 286  4594.374
 287  4447.95
 288  4058.057
 289  4081.421
 290  4172.716
 291  4430.206
 292  4520.908
 293  4303.197
 294  4099.082
 295  4143.445
 296  4075.058
 297  3895.114
 298  4165.8
 299  4379.099
 300  4316.606
 301  4823.936
 302  5308.395
 303  5470.186
 304  5108.579
 305  4991.71
 306  4690.649
 307  3761.133
 308  3497.87
 309  3574.005
 310  3560.791
 311  3635.106
 312  3741.228
 313  3789.204
 314  3723.139
 315  3850.207
 316  4233.544
 317  3886.988
 318  3413.977
 319  3415.62
 320  3084.762
 321  2989.371
 322  3318.728
 323  3234.382
 324  3194.5
 325  3061.474
 326  3191.201
 327  2804.302
 328  2855.896
 329  3144.104
 330  3331.035
 331  3645.742
 332  3806.308
 333  3629.042
 334  3585.878
 335  3424.789
 336  3097.408
 337  3187.242
 338  3728.942
 339  3791.504
 340  3727.365
 341  3868.307
 342  3565.734
 343  3271.784
 344  3688.116
 345  3616.712
 346  3511.78
 347  3693.807
 348  3993.077
 349  3816.429
 350  3742.767
 351  3847.742
 352  3589.573
 353  3983.576
 354  3704.46
 355  3400.745
 356  3641.249
 357  3857.674
 358  3398.734
 359  3179.937
 360  3780.864
 361  3809.475
 362  3950.507
 363  4104.783
 364  3895.502
 365  4095.075
 366  3671.289
 367  3448.709
 368  3571.642
 369  3748.514
 370  4114.592
 371  3418.327
 372  3581.635
 373  3571.761
 374  3383.334
 375  3059.68
 376  2765.316
 377  2903.759
 378  2939.803
 379  2885.444
 380  2746.678
 381  2909.192
 382  2674.774
 383  2316.526
 384  2534.242
 385  2527.427
 386  2503.404
 387  2869.65
 388  2620.754
 389  2641.19
 390  2812.933
 391  2494.623
 392  2683.121
 393  2826.96
 394  2967.836
 395  2970.961
 396  2889.541
 397  3271.39
 398  3367.825
 399  3451.334
 400  3170.443
 401  3298.344
 402  3473.322
 403  3749.718
 404  3544.313
 405  3328.385
 406  3611.171
 407  3891.77
 408  3651.18
 409  3684.704
 410  3776.552
 411  3799.304
 412  3688.958
 413  3900.185
 414  4050.434
 415  4067.789
 416  4297.438
 417  4109.5
 418  3929.753
 419  3519.89
 420  3706.187
 421  3992.198
 422  4279.351
 423  4453.009
 424  4318.644
 425  4122.523
 426  4450.304
 427  4452.105
 428  4402.596
 429  4347.378
 430  4511.515
 431  4520.642
 432  4601.364
 433  4701.476
 434  4539.302
 435  4240.875
 436  4225.102
 437  4249.67
 438  4066.011
 439  4157.729
 440  4124.687
 441  4314.499
 442  3830.267
 443  3381.858
 444  3104.193
 445  3550.258
 446  4165.681
 447  3911.66
 448  3601.97
 449  3416.943
 450  3169.897
 451  2879.279
 452  2837.387
 453  3118.245
 454  2835.45
 455  2505.067
 456  2517.922
 457  2262.598
 458  2282.688
 459  2684.358
 460  2604.321
 461  2964.005
 462  3164.166
 463  3060.44
 464  2637.386
 465  2466.408
 466  2790.598
 467  2756.653
 468  2811.343
 469  3003.053
 470  3144.338
 471  2784.712
 472  2568.987
 473  2518.802
 474  2477.493
 475  2805.849
 476  3139.106
 477  2998.852
 478  3038.403
 479  3010.949
 480  3340.054
 481  3161.282
 482  3078.005
 483  3363.155
 484  3628.723
 485  3819.186
 486  3891.438
 487  3806.032
 488  3750.565
 489  3873.453
 490  3886.843
 491  4178.007
 492  4110.93
 493  3883.881
 494  3925.833
 495  3901.004
 496  3669.674
 497  3833.321
 498  3669.735
 499  3756.429
 500  4234.961
 501  4259.892
 502  4477.92
 503  4100.721
 504  4213.559
 505  4670.025
 506  4687.221
 507  4461.715
 508  4652.175
 509  4800.396
 510  4747.81
 511  4436.862
