# Input file       =  1205223715.118029_cleaned.dat
# Candidate        =  PSR_0332+5434
# Telescope        =  AR
# Epoch_topo       =  58193.348774514227
# Epoch_bary       =  N/A
# T_sample         =  0.002
# Data Folded      =  7471104
# Data Avg         =  0.263691815449611
# Data StdDev      =  5.62708535532723 
# Profile Bins     =  512
# Profile Avg      =  3847.85725808692 
# Profile StdDev   =  679.737004573717 
# Reduced chi-sqr  =  2.964
# Prob(Noise)      <  5.68e-100   (~21.2 sigma)
# P_topo (ms)      =  714.577125799984  +/- 1.22e-05
# P'_topo (s/s)    =  -0                +/- 6.32e-12
# P''_topo (s/s^2) =  0                 +/- 2.74e-15
# P_bary (ms)      =  N/A
# P'_bary (s/s)    =  N/A
# P''_bary (s/s^2) =  N/A
# P_orb (s)        =  N/A
# asin(i)/c (s)    =  N/A
# eccentricity     =  N/A
# w (rad)          =  N/A
# T_peri           =  N/A
######################################################
   0  3353.791
   1  3867.152
   2  4218.316
   3  4448.51
   4  4238.472
   5  3568.084
   6  2614.307
   7  2389.703
   8  2432.031
   9  3451.427
  10  4388.819
  11  5042.618
  12  5175.656
  13  4322.87
  14  3544.851
  15  2770.1
  16  3123.77
  17  3653.699
  18  4311.604
  19  4527.748
  20  4184.33
  21  3785.206
  22  3037.103
  23  2637.07
  24  2438.452
  25  3031.304
  26  3523.92
  27  4064.55
  28  4388.759
  29  4351.279
  30  3873.479
  31  3381.699
  32  3587.778
  33  3722.914
  34  3907.34
  35  4537.602
  36  4927.971
  37  4531.244
  38  3560.346
  39  3023.666
  40  2685.895
  41  2526.135
  42  3314.55
  43  4101.741
  44  4766.449
  45  5142.217
  46  4534.121
  47  3642.33
  48  3240.947
  49  3665.969
  50  3980.314
  51  4458.912
  52  5046.806
  53  5027.122
  54  4792.527
  55  3729.629
  56  2781.094
  57  2166.372
  58  2481.24
  59  3499.4
  60  4081.271
  61  5131.394
  62  5460.116
  63  4052.122
  64  3220.552
  65  2925.432
  66  3265.622
  67  4297.847
  68  4488.912
  69  4932.19
  70  4645.729
  71  3732.275
  72  3293.293
  73  2565.899
  74  2387.311
  75  3050.644
  76  4032.219
  77  4615.859
  78  5077.093
  79  5015.185
  80  3944.734
  81  2976.264
  82  2974.348
  83  3636.954
  84  4252.785
  85  4789.104
  86  4966.585
  87  4033.942
  88  3501.168
  89  2914.184
  90  2274.878
  91  2721.635
  92  3452.819
  93  4308.29
  94  4587.628
  95  4769.562
  96  4288.631
  97  3155.42
  98  2989.625
  99  3069.775
 100  3728.769
 101  3973.31
 102  4606.757
 103  4250.098
 104  3628.718
 105  3333.271
 106  2719.771
 107  2653.278
 108  3085.548
 109  3983.555
 110  4550.895
 111  4689.964
 112  4354.602
 113  3379.557
 114  3229.97
 115  3579.237
 116  4018.759
 117  4282.911
 118  4731.374
 119  4605.425
 120  4072.034
 121  3565.389
 122  2779.852
 123  2341.409
 124  2724.21
 125  3754.644
 126  4611.75
 127  4961.327
 128  4976.214
 129  4151.312
 130  3087.253
 131  2998.959
 132  3391.705
 133  3571.025
 134  4801.907
 135  5146.4
 136  4694.002
 137  3827.327
 138  2897.981
 139  2411.534
 140  2269.667
 141  2872.71
 142  3842.633
 143  4860.387
 144  5396.924
 145  4819.052
 146  3561.433
 147  2646.21
 148  2877.824
 149  3706.158
 150  4199.325
 151  4534.608
 152  4896.196
 153  4408.328
 154  3559.595
 155  2534.226
 156  2026.305
 157  2694.379
 158  3839.46
 159  4799.798
 160  5328.204
 161  5201.207
 162  4168.716
 163  3412.497
 164  3112.128
 165  3362.183
 166  3937.143
 167  4699.125
 168  4804.177
 169  4473.784
 170  4110.253
 171  2778.143
 172  2161.089
 173  2542.772
 174  3563.22
 175  4010.307
 176  4698.312
 177  4909.02
 178  4790.275
 179  3770.583
 180  2888.572
 181  3275.62
 182  3564.204
 183  3807.281
 184  4827.067
 185  5121.34
 186  4363.12
 187  3358.128
 188  2576.106
 189  2502.277
 190  2825.946
 191  3958.999
 192  4653.559
 193  5326.039
 194  5125.776
 195  4342.616
 196  3259.177
 197  2751.915
 198  3227.558
 199  4026.918
 200  4663.047
 201  4834.164
 202  4431.484
 203  3837.538
 204  3037.635
 205  2299.197
 206  2442.542
 207  3384.655
 208  4305.228
 209  4950.553
 210  4981.236
 211  4652.287
 212  3892.031
 213  3179.1
 214  3368.454
 215  3522.32
 216  4404.434
 217  4886.683
 218  4826.021
 219  4732.795
 220  4009.285
 221  2895.281
 222  2215.457
 223  2524.99
 224  3670.978
 225  4348.28
 226  4890.267
 227  5195.152
 228  4532.57
 229  3293.126
 230  2941.322
 231  3338.167
 232  3535.941
 233  4543.167
 234  4926.023
 235  4870.462
 236  4222.253
 237  3282.014
 238  2393.176
 239  2117.326
 240  2898.092
 241  3303.445
 242  4101.035
 243  4747.257
 244  4627.976
 245  4231.545
 246  3585.777
 247  3638.045
 248  3904.087
 249  4457.116
 250  4471.078
 251  4780.898
 252  4433.575
 253  3652.492
 254  3056.97
 255  2621.856
 256  2703.269
 257  3453.112
 258  4543.644
 259  5179.499
 260  5071.748
 261  4339.004
 262  3129.902
 263  2811.309
 264  3259.163
 265  3633.939
 266  4458.329
 267  5124.236
 268  4867.256
 269  3939.664
 270  3181.04
 271  2184.123
 272  2247.229
 273  3437.712
 274  4028.052
 275  5096.518
 276  5218.559
 277  4470.309
 278  3671.614
 279  3200.365
 280  3075.051
 281  3453.718
 282  3832.667
 283  4666.118
 284  5100.803
 285  4537.984
 286  3732.357
 287  2831.687
 288  2178.904
 289  2904.826
 290  4080.021
 291  4887.571
 292  5163.673
 293  4926.527
 294  4218.176
 295  3589.271
 296  3680.347
 297  3598.086
 298  4405.912
 299  4871.134
 300  5358.371
 301  5467.925
 302  5292.173
 303  4998.801
 304  4307.668
 305  4149.263
 306  3929.004
 307  4698.977
 308  4633.875
 309  4640.47
 310  4720.527
 311  4346.697
 312  3610.955
 313  3335.893
 314  3783.832
 315  4098.445
 316  4468.963
 317  5008.771
 318  4576.686
 319  3641.6
 320  2661.969
 321  2490.776
 322  2992.223
 323  3733.227
 324  4391.468
 325  4909.263
 326  4906.212
 327  4488.209
 328  3700.79
 329  3013.587
 330  3442.628
 331  4151.336
 332  4588.543
 333  4932.391
 334  4645.947
 335  4027.885
 336  3122.448
 337  2392.236
 338  2462.876
 339  3104.951
 340  4292.437
 341  5061.07
 342  5357.463
 343  5112.156
 344  3953.281
 345  2841.727
 346  3042.938
 347  3403.813
 348  4060.617
 349  4495.128
 350  4601.765
 351  4468.561
 352  3375.737
 353  2702.472
 354  2119.027
 355  2416.401
 356  3509.97
 357  4258.629
 358  5071.262
 359  4724.958
 360  4079.365
 361  3390.987
 362  2609.852
 363  3349.758
 364  4070.783
 365  4186.125
 366  4547.099
 367  4442.496
 368  4057.924
 369  3152.744
 370  2499.838
 371  2529.521
 372  3259.566
 373  3735.29
 374  4502.196
 375  5003.07
 376  5013.293
 377  3796.317
 378  3249.611
 379  3095.355
 380  3530.301
 381  3800.79
 382  4206.922
 383  4520.361
 384  3941.868
 385  3516.953
 386  2988.782
 387  2421.289
 388  2510.589
 389  3621.951
 390  4615.881
 391  4929.102
 392  4835.083
 393  4701.852
 394  3923.445
 395  3245.277
 396  3462.042
 397  3963.708
 398  5118.803
 399  4827.462
 400  4093.013
 401  3545.891
 402  3030.223
 403  2372.37
 404  2492.664
 405  2754.694
 406  3562.429
 407  4439.781
 408  4924.289
 409  5130.525
 410  4350.467
 411  3635.906
 412  3180.473
 413  3605.394
 414  4039.591
 415  4292.792
 416  4608.731
 417  4464.709
 418  4073.041
 419  2877.375
 420  2033.732
 421  2156.577
 422  3423.813
 423  4421.67
 424  4636.771
 425  5099.662
 426  4501.129
 427  3427.574
 428  2745.188
 429  3225.151
 430  4140.178
 431  4326.913
 432  4425.465
 433  4195.229
 434  3718.029
 435  3189.541
 436  2451.031
 437  2164.249
 438  2948.454
 439  3994.268
 440  4522.165
 441  4808.254
 442  4525.459
 443  3677.183
 444  3091.306
 445  3158.956
 446  3421.332
 447  3752.397
 448  4215.603
 449  4745.753
 450  4622.412
 451  3717.782
 452  2668.834
 453  1877.783
 454  2375.282
 455  3455.12
 456  4278.318
 457  5109.292
 458  4768.648
 459  4453.577
 460  3872.583
 461  3537.094
 462  3392.509
 463  3760.948
 464  3928.224
 465  4516.129
 466  5029.822
 467  4589.938
 468  3586.832
 469  2501.866
 470  2308.831
 471  2681.061
 472  4029.909
 473  4678.539
 474  4794.1
 475  4809.718
 476  3934.963
 477  3406.788
 478  3051.055
 479  3452.729
 480  4107.837
 481  4756
 482  4861.016
 483  4460.328
 484  3713.838
 485  3036.457
 486  2306.866
 487  2433.781
 488  3383.587
 489  4369.834
 490  5152.612
 491  5169.014
 492  4852.914
 493  4094.232
 494  3187.984
 495  2969.146
 496  3483.912
 497  4452.972
 498  5077.82
 499  4910.797
 500  4218.363
 501  3493.872
 502  2572.329
 503  2298.628
 504  2591.795
 505  3543.856
 506  4171.995
 507  4640.208
 508  4735.533
 509  4223.318
 510  3372.181
 511  2913.39
