# Input file       =  1205568517.108477-PSRB0329-2ms-sampling-dd.dat
# Candidate        =  PSR_0332+5434
# Telescope        =  AR
# Epoch_topo       =  58197.339538292559
# Epoch_bary       =  N/A
# T_sample         =  0.002
# Data Folded      =  7471104
# Data Avg         =  1.03500701901062e-09
# Data StdDev      =  9.33577104038293 
# Profile Bins     =  512
# Profile Avg      =  0.318897176916725
# Profile StdDev   =  1127.73641088778 
# Reduced chi-sqr  =  1.258
# Prob(Noise)      <  6.25e-05   (~3.8 sigma)
# P_topo (ms)      =  714.575575426386  +/- 2.74e-05
# P'_topo (s/s)    =  -0                +/- 1.42e-11
# P''_topo (s/s^2) =  0                 +/- 6.17e-15
# P_bary (ms)      =  N/A
# P'_bary (s/s)    =  N/A
# P''_bary (s/s^2) =  N/A
# P_orb (s)        =  N/A
# asin(i)/c (s)    =  N/A
# eccentricity     =  N/A
# w (rad)          =  N/A
# T_peri           =  N/A
######################################################
   0  -404.7066
   1  -606.5771
   2  396.588
   3  473.253
   4  238.447
   5  -795.1443
   6  -824.09
   7  -716.924
   8  -681.6459
   9  576.3354
  10  1114.075
  11  1502.506
  12  625.1396
  13  -630.4614
  14  -482.8048
  15  -885.8945
  16  -907.0579
  17  -714.7201
  18  -450.8531
  19  -290.1641
  20  -421.2327
  21  -1063.053
  22  -1088.308
  23  -845.3652
  24  -535.7037
  25  -581.744
  26  167.1982
  27  1341.889
  28  1698.061
  29  517.9885
  30  -600.456
  31  -964.3676
  32  -1144.214
  33  -1080.2
  34  -423.5201
  35  -510.6705
  36  -84.72162
  37  -323.3376
  38  -820.4031
  39  -718.7238
  40  -775.5297
  41  -843.6567
  42  -669.8937
  43  532.8724
  44  1521.53
  45  981.6805
  46  560.2016
  47  11.11611
  48  144.9868
  49  -220.889
  50  -918.8627
  51  1281.316
  52  1994.785
  53  1558.578
  54  674.8387
  55  -611.0793
  56  -969.843
  57  -1044.224
  58  -87.20198
  59  672.4517
  60  1557.496
  61  1728.685
  62  314.016
  63  -489.7655
  64  -740.3597
  65  -910.8839
  66  -925.7168
  67  -221.361
  68  630.8842
  69  225.9313
  70  -570.0753
  71  -1143.84
  72  -1261.915
  73  -886.4932
  74  -523.6161
  75  527.1343
  76  1464.522
  77  1375.756
  78  1023.169
  79  -508.6887
  80  -1025.627
  81  -1322.754
  82  -1322.346
  83  -1079.671
  84  -610.432
  85  -184.5441
  86  -209.7557
  87  -951.8318
  88  -1425.264
  89  -1428.462
  90  -1415.287
  91  -877.3522
  92  -318.6833
  93  748.5319
  94  919.5401
  95  312.524
  96  -493.4108
  97  -1218.645
  98  -1328.898
  99  -1465.009
 100  -1170.932
 101  -278.0424
 102  -40.23627
 103  -510.4135
 104  -1339.824
 105  -1488.997
 106  -1269.591
 107  -1537.121
 108  -1310.154
 109  -613.4963
 110  674.7312
 111  522.127
 112  -122.3552
 113  -972.697
 114  -1355.99
 115  -2059.34
 116  -2442.306
 117  -1493.169
 118  -1061.899
 119  -325.4227
 120  -833.813
 121  -956.6242
 122  -1237.12
 123  -1732.932
 124  -1411.928
 125  -668.1259
 126  645.0544
 127  988.987
 128  218.0308
 129  -726.7954
 130  -820.9697
 131  -903.7274
 132  -1337.659
 133  -1206.194
 134  -335.2703
 135  -15.18002
 136  -976.6161
 137  -1359.812
 138  -1306.515
 139  -1229.581
 140  -632.9546
 141  -537.7964
 142  643.1786
 143  622.5625
 144  234.3274
 145  -493.2179
 146  -778.9143
 147  -891.1178
 148  -1141.376
 149  -1364.484
 150  -1320.332
 151  -423.8951
 152  -652.2237
 153  -1055.95
 154  -1200.518
 155  -922.0826
 156  -537.1159
 157  -326.165
 158  294.041
 159  880.1207
 160  1304.282
 161  1008.601
 162  680.084
 163  128.9196
 164  -612.8472
 165  -918.6337
 166  -446.9245
 167  259.0877
 168  432.3642
 169  472.7077
 170  -121.2126
 171  -350.1949
 172  -182.0906
 173  -637.0989
 174  -171.9096
 175  743.6689
 176  1877.525
 177  1650.104
 178  710.6575
 179  -430.2527
 180  -736.032
 181  -1054.201
 182  -1133.151
 183  -643.9177
 184  -82.9912
 185  355.986
 186  -26.58644
 187  -576.7914
 188  -1134.877
 189  -1035.714
 190  -1091.183
 191  87.48608
 192  1398.226
 193  1830.866
 194  1104.588
 195  -47.91584
 196  -336.5998
 197  -663.1296
 198  -1063.111
 199  -1088.016
 200  -24.00769
 201  429.5632
 202  -391.0027
 203  -735.5184
 204  -994.5414
 205  -649.8032
 206  -568.863
 207  -296.7867
 208  1122.674
 209  1461.581
 210  1352.001
 211  843.6239
 212  517.0043
 213  339.872
 214  -48.56147
 215  648.9006
 216  1427.98
 217  1936.93
 218  1872.646
 219  -301.6441
 220  -903.4897
 221  -830.2441
 222  -194.143
 223  164.3179
 224  595.2305
 225  1778.692
 226  1771.621
 227  996.644
 228  518.643
 229  288.8811
 230  -97.50828
 231  94.61742
 232  334.1307
 233  638.8928
 234  1323.34
 235  1026.108
 236  261.2314
 237  1.154671
 238  -23.28304
 239  22.04329
 240  693.7946
 241  1053.288
 242  1877.293
 243  2236.04
 244  1011.13
 245  301.6892
 246  -134.4918
 247  -778.169
 248  -629.4968
 249  120.8049
 250  966.0577
 251  978.711
 252  288.9266
 253  -690.5628
 254  -627.7911
 255  -689.4887
 256  -285.6412
 257  773.7166
 258  2364.474
 259  3008.762
 260  1630.51
 261  453.2841
 262  -410.7545
 263  -468.7085
 264  -479.4424
 265  -15.31299
 266  1049.465
 267  1292.148
 268  531.3939
 269  -385.3881
 270  -442.8649
 271  -260.0241
 272  -243.5474
 273  444.8667
 274  1225.079
 275  2131.824
 276  1519.925
 277  484.0295
 278  -8.947821
 279  -380.9458
 280  -546.4097
 281  -902.7077
 282  -224.0443
 283  233.6749
 284  749.6028
 285  -263.4501
 286  -1294.64
 287  -832.1466
 288  -482.7009
 289  -286.0085
 290  126.4724
 291  1079.543
 292  1556.763
 293  811.338
 294  277.6461
 295  665.038
 296  108.6992
 297  -264.5426
 298  291.2251
 299  2226.374
 300  2416.511
 301  1534.943
 302  677.9785
 303  299.4908
 304  154.0407
 305  567.3835
 306  546.3824
 307  1337.112
 308  2397.656
 309  2105.765
 310  1072.146
 311  126.933
 312  92.96525
 313  -314.2115
 314  -196.0734
 315  -260.3262
 316  929.3955
 317  1364.341
 318  52.31098
 319  -7.531902
 320  115.1541
 321  170.0806
 322  120.5455
 323  560.6501
 324  1378.6
 325  2108.254
 326  1894.508
 327  491.1246
 328  11.07118
 329  -303.1935
 330  -537.139
 331  23.39787
 332  752.0933
 333  1421.177
 334  1368.241
 335  285.5186
 336  -151.4341
 337  55.84174
 338  278.5078
 339  69.70126
 340  1672.641
 341  1954.181
 342  1777.898
 343  625.5801
 344  -161.2327
 345  -433.0978
 346  -653.2045
 347  -301.8831
 348  -269.8509
 349  364.0435
 350  -194.1186
 351  -578.0755
 352  -764.2056
 353  -1246.272
 354  -1240.575
 355  -974.6297
 356  63.30248
 357  695.1616
 358  945.4293
 359  433.2203
 360  -672.8848
 361  -684.3376
 362  -677.8907
 363  -706.8751
 364  -790.4782
 365  -233.0897
 366  170.6535
 367  -26.52907
 368  -501.4149
 369  -818.5958
 370  -399.442
 371  -584.9828
 372  -422.5287
 373  228.9871
 374  1002.24
 375  787.3214
 376  -221.3261
 377  -903.5376
 378  -1179.162
 379  -698.9127
 380  -1285.16
 381  -711.3676
 382  -530.7925
 383  -858.66
 384  -1182.741
 385  -1448.996
 386  -1448.898
 387  -1309.155
 388  -498.543
 389  -104.4406
 390  893.1746
 391  1066.24
 392  31.70638
 393  -464.322
 394  -682.1016
 395  -676.1216
 396  -582.0253
 397  -647.2481
 398  -365.9591
 399  273.9365
 400  -145.2664
 401  -1152.578
 402  -1104.506
 403  -56.60068
 404  293.706
 405  706.8592
 406  1783.785
 407  1948.32
 408  1727.196
 409  460.7229
 410  -335.9525
 411  -546.4291
 412  -503.0161
 413  -237.9604
 414  -96.06802
 415  756.0609
 416  654.5312
 417  -330.2435
 418  -899.2916
 419  -955.3105
 420  -580.6173
 421  -103.3453
 422  448.0813
 423  867.2003
 424  1396.699
 425  408.6913
 426  -993.7992
 427  -1524.336
 428  -1153.122
 429  -780.1862
 430  -573.2225
 431  163.3471
 432  244.5631
 433  219.5022
 434  -198.175
 435  -242.3477
 436  -287.3052
 437  -122.2249
 438  529.067
 439  736.6465
 440  2100.603
 441  1981.712
 442  639.5135
 443  -110.8606
 444  -402.9612
 445  -398.6756
 446  -747.3511
 447  -292.6896
 448  -233.7684
 449  169.6458
 450  -20.08463
 451  -995.8947
 452  -883.4445
 453  -624.8365
 454  -439.0962
 455  301.5765
 456  933.6928
 457  1437.964
 458  233.8654
 459  87.92728
 460  -462.5043
 461  -677.9247
 462  -154.7997
 463  162.2216
 464  1578.925
 465  1825.334
 466  1226.666
 467  541.2518
 468  285.044
 469  -55.6223
 470  574.3534
 471  690.2709
 472  1114.183
 473  1861.727
 474  1164.438
 475  557.8488
 476  -96.03606
 477  299.3006
 478  63.30213
 479  -405.4522
 480  -344.7469
 481  -11.19053
 482  430.629
 483  -47.89522
 484  -448.2705
 485  -1012.727
 486  -872.7989
 487  -462.6595
 488  350.9154
 489  1885.128
 490  1560.189
 491  950.2518
 492  -545.2962
 493  -889.7496
 494  -719.1021
 495  -563.9504
 496  -48.11008
 497  18.13882
 498  620.8893
 499  780.9869
 500  -323.2982
 501  -1171.234
 502  -585.5978
 503  438.8955
 504  626.6614
 505  1484.751
 506  1828.559
 507  1771.132
 508  786.251
 509  -27.60426
 510  -435.9835
 511  -485.6127
