# Input file       =  1205826898.111558_cleaned.dat
# Candidate        =  PSR_0332+5434
# Telescope        =  AR
# Epoch_topo       =  58200.330059161548
# Epoch_bary       =  N/A
# T_sample         =  0.002
# Data Folded      =  7143424
# Data Avg         =  0.219854627362102
# Data StdDev      =  6.10501547022817 
# Profile Bins     =  256
# Profile Avg      =  6134.60555826342 
# Profile StdDev   =  1019.81172401316 
# Reduced chi-sqr  =  4.458
# Prob(Noise)      <  1.93e-111   (~22.4 sigma)
# P_topo (ms)      =  714.574242049414  +/- 1.71e-05
# P'_topo (s/s)    =  -0                +/- 9.25e-12
# P''_topo (s/s^2) =  0                 +/- 4.2e-15
# P_bary (ms)      =  N/A
# P'_bary (s/s)    =  N/A
# P''_bary (s/s^2) =  N/A
# P_orb (s)        =  N/A
# asin(i)/c (s)    =  N/A
# eccentricity     =  N/A
# w (rad)          =  N/A
# T_peri           =  N/A
######################################################
   0  9032.932
   1  7728.55
   2  5383.582
   3  5848.037
   4  5836.659
   5  5806.771
   6  3554.816
   7  5267.479
   8  8679.333
   9  8604.607
  10  5282.304
  11  4018.843
  12  5733.16
  13  6119.581
  14  3372.909
  15  4543.681
  16  7922.989
  17  9376.713
  18  6627.376
  19  4255.468
  20  5679.769
  21  6678.946
  22  4309.059
  23  3445.369
  24  6610.884
  25  9677.948
  26  8366.108
  27  4800.836
  28  5252.632
  29  6206.437
  30  4379.815
  31  3239.051
  32  6433.785
  33  8998.998
  34  7859.674
  35  5144.107
  36  5199.146
  37  6243.69
  38  5831.809
  39  4368.485
  40  5553.21
  41  9688.771
  42  9102.973
  43  5476.37
  44  4112.914
  45  6292.762
  46  6448.327
  47  3949.254
  48  4343.213
  49  8362.726
  50  10624.83
  51  6387.741
  52  4634.17
  53  5668.121
  54  6476.662
  55  4622.024
  56  3882.859
  57  7164.358
  58  10545.31
  59  7508.097
  60  4298.263
  61  5042.284
  62  6571.528
  63  5345.452
  64  3845.918
  65  5729.294
  66  8090.285
  67  8919.616
  68  5654.926
  69  5727.958
  70  5920.195
  71  5206.352
  72  3659.949
  73  5339.951
  74  8848.113
  75  9567.831
  76  5352.955
  77  5537.019
  78  6038.062
  79  6410.709
  80  3625.47
  81  4350.448
  82  8581.218
  83  10079.86
  84  6183.549
  85  4317.757
  86  5311.521
  87  6963.256
  88  4888.616
  89  3807.033
  90  7023.087
  91  10012.24
  92  8131.912
  93  5257.438
  94  6554.495
  95  6653.859
  96  5509.585
  97  4015.744
  98  6331.219
  99  9653.518
 100  9037.561
 101  5061.006
 102  4687.527
 103  6408.348
 104  5529.511
 105  3751.084
 106  5262.734
 107  8151.9
 108  7830.688
 109  5996.429
 110  5738.074
 111  5794.206
 112  6018.974
 113  4077.059
 114  4292.766
 115  7968.283
 116  10143.21
 117  6373.133
 118  3320.529
 119  5653.96
 120  7009.221
 121  4853.292
 122  3115.238
 123  6779.42
 124  9871.162
 125  7754.034
 126  3739.089
 127  4856.498
 128  6021.461
 129  5735.54
 130  3172.023
 131  5388.718
 132  9027.495
 133  9296.665
 134  5436.253
 135  4696.215
 136  5690.783
 137  6524.332
 138  4159.788
 139  4757.478
 140  7643.422
 141  8770.154
 142  6295.338
 143  4576.385
 144  4662.213
 145  5838.325
 146  3485.584
 147  4495.229
 148  8653.563
 149  10158.4
 150  8101.386
 151  7711.597
 152  9632.714
 153  8144.986
 154  4274.691
 155  2772.599
 156  7439.939
 157  9472.606
 158  7728.083
 159  4514.745
 160  4749.811
 161  7030.804
 162  5062.677
 163  2877.442
 164  5704.315
 165  10063.71
 166  8121.902
 167  4736.83
 168  3750.681
 169  5552.461
 170  6777.908
 171  3516.777
 172  4409.517
 173  8270.307
 174  10143.51
 175  6333.51
 176  4549.644
 177  4711.712
 178  6118.923
 179  4454.82
 180  4533.353
 181  7474.336
 182  9464.339
 183  6587.963
 184  5146.499
 185  5358.05
 186  5294.071
 187  4732.198
 188  4464.476
 189  6845.033
 190  9233.609
 191  8163.287
 192  4206.258
 193  5425.512
 194  7112.114
 195  5097.903
 196  4220.574
 197  5764.594
 198  8944.632
 199  8390.197
 200  5426.268
 201  4881.606
 202  6341.194
 203  5837.022
 204  4295.126
 205  4334.382
 206  8489.407
 207  10269.78
 208  6058.953
 209  3772.177
 210  5487.754
 211  6932.07
 212  4712.168
 213  3853.998
 214  7072.78
 215  9377.036
 216  7419.179
 217  5275.804
 218  4660.392
 219  5878.403
 220  5515.4
 221  3571.064
 222  6554.704
 223  9584.301
 224  7860.478
 225  5358.966
 226  4984.552
 227  5740.354
 228  5582.244
 229  3593.244
 230  5413.632
 231  8638.849
 232  8327.076
 233  5458.417
 234  4027.923
 235  5933.348
 236  5999.803
 237  3764.67
 238  5213.133
 239  8775.416
 240  8839.72
 241  5864.238
 242  4443.296
 243  5759.495
 244  6920.675
 245  3862.267
 246  4020.096
 247  6918.93
 248  9291.333
 249  6604.323
 250  4414.332
 251  4700.651
 252  6461.89
 253  4919.646
 254  3299.282
 255  6190.354
