# Input file       =  1205051296.112978_cleaned.dat
# Candidate        =  PSR_0332+5434
# Telescope        =  AR
# Epoch_topo       =  58191.353184177984
# Epoch_bary       =  N/A
# T_sample         =  0.002
# Data Folded      =  7208960
# Data Avg         =  -0.0175396874266747
# Data StdDev      =  1.0000807890251  
# Profile Bins     =  512
# Profile Avg      =  -246.980612107329
# Profile StdDev   =  118.668762152662 
# Reduced chi-sqr  =  1.398
# Prob(Noise)      <  6.17e-09   (~5.7 sigma)
# P_topo (ms)      =  714.577796242037  +/- 0.000227
# P'_topo (s/s)    =  -0                +/- 1.22e-10
# P''_topo (s/s^2) =  0                 +/- 5.49e-14
# P_bary (ms)      =  N/A
# P'_bary (s/s)    =  N/A
# P''_bary (s/s^2) =  N/A
# P_orb (s)        =  N/A
# asin(i)/c (s)    =  N/A
# eccentricity     =  N/A
# w (rad)          =  N/A
# T_peri           =  N/A
######################################################
   0  225.8104
   1  128.617
   2  -20.42241
   3  -238.5121
   4  -176.3981
   5  -164.2723
   6  -218.639
   7  -269.7398
   8  -90.75547
   9  -112.2452
  10  -171.047
  11  -215.3087
  12  -183.7209
  13  -66.3035
  14  -46.27213
  15  -131.2641
  16  -198.5033
  17  -219.4954
  18  -215.3202
  19  -237.4581
  20  -176.8793
  21  -100.1147
  22  -82.24346
  23  -156.0074
  24  -297.0763
  25  -221.0464
  26  -212.6699
  27  -147.678
  28  -131.2171
  29  -215.618
  30  -224.0087
  31  -247.2177
  32  -210.9736
  33  -239.7574
  34  -222.7173
  35  -185.0031
  36  -149.4072
  37  -156.9655
  38  -153.9078
  39  -134.7155
  40  -156.8141
  41  -104.5323
  42  -95.89698
  43  -108.2314
  44  -139.4224
  45  -244.9981
  46  -353.3087
  47  -270.5998
  48  -172.2084
  49  -211.2064
  50  -241.9562
  51  -242.1997
  52  -217.1698
  53  -251.0284
  54  -240.3194
  55  -156.4353
  56  -154.411
  57  -152.9412
  58  -154.8567
  59  -169.0691
  60  -143.2751
  61  -197.6774
  62  -122.6954
  63  -141.0314
  64  -108.2158
  65  -126.9772
  66  -169.6235
  67  -282.3913
  68  -215.9647
  69  -148.6325
  70  -143.8095
  71  -213.4899
  72  -216.185
  73  -237.9981
  74  -325.2676
  75  -266.3077
  76  -173.2655
  77  -210.2021
  78  -156.6869
  79  -235.6817
  80  -266.0127
  81  -224.8569
  82  -253.6476
  83  -220.3502
  84  -315.6869
  85  -329.6585
  86  -221.5945
  87  -250.0195
  88  -284.1657
  89  -173.221
  90  -98.69877
  91  -223.3543
  92  -237.3729
  93  -208.2779
  94  -203.3941
  95  -196.7735
  96  -193.8188
  97  -132.9068
  98  -121.2429
  99  -104.0401
 100  -169.7845
 101  -249.1434
 102  -283.2963
 103  -284.2117
 104  -220.0126
 105  -156.6756
 106  -128.3599
 107  -149.9821
 108  -163.1395
 109  -104.3476
 110  -155.0125
 111  -173.644
 112  -157.7155
 113  -118.0968
 114  -95.21838
 115  -185.9904
 116  -130.1026
 117  -167.9843
 118  -249.743
 119  -299.5547
 120  -291.8235
 121  -234.8176
 122  -276.3817
 123  -309.8622
 124  -208.1232
 125  -240.6309
 126  -224.7892
 127  -242.9628
 128  -289.0943
 129  -315.2598
 130  -409.7738
 131  -415.5608
 132  -257.19
 133  -339.778
 134  -366.0275
 135  -346.4807
 136  -314.2159
 137  -241.9636
 138  -325.1074
 139  -268.8718
 140  -394.6982
 141  -365.0588
 142  -350.7601
 143  -334.3706
 144  -308.9659
 145  -204.7497
 146  -209.9132
 147  -281.114
 148  -370.3473
 149  -364.4301
 150  -352.5328
 151  -338.9402
 152  -226.1979
 153  -166.8032
 154  -171.5368
 155  -155.2352
 156  -256.9781
 157  -319.7649
 158  -318.3477
 159  -265.7291
 160  -163.0662
 161  -191.6395
 162  -150.729
 163  -176.8482
 164  -204.6814
 165  -370.9565
 166  -339.8201
 167  -358.8329
 168  -358.7516
 169  -350.2943
 170  -356.6647
 171  -189.4369
 172  -128.8111
 173  -270.9381
 174  -326.9636
 175  -278.7992
 176  -269.0526
 177  -275.0446
 178  -284.5732
 179  -197.9556
 180  -241.2701
 181  -267.5329
 182  -258.4518
 183  -354.451
 184  -216.2127
 185  -181.984
 186  -235.0414
 187  -269.4058
 188  -266.096
 189  -260.5284
 190  -285.4324
 191  -288.6225
 192  -316.7901
 193  -298.2478
 194  -336.6215
 195  -371.4505
 196  -350.7014
 197  -363.4323
 198  -343.2786
 199  -416.7307
 200  -361.1471
 201  -282.0245
 202  -290.2334
 203  -346.0964
 204  -250.3667
 205  -348.6701
 206  -334.7828
 207  -259.0565
 208  -299.1056
 209  -328.2363
 210  -284.4544
 211  -358.1365
 212  -328.7641
 213  -314.6072
 214  -346.3641
 215  -372.0136
 216  -430.9774
 217  -397.6752
 218  -290.9742
 219  -201.6945
 220  -275.5638
 221  -266.2205
 222  -391.2296
 223  -535.7355
 224  -465.1227
 225  -343.5321
 226  -246.8827
 227  -271.4273
 228  -271.7643
 229  -374.1228
 230  -416.0358
 231  -277.3749
 232  -334.3646
 233  -307.96
 234  -333.7768
 235  -351.0561
 236  -316.7665
 237  -299.7063
 238  -326.0105
 239  -399.3441
 240  -455.0771
 241  -297.7307
 242  -265.4271
 243  -299.8531
 244  -365.2195
 245  -353.06
 246  -378.5105
 247  -364.0796
 248  -232.3782
 249  -257.5334
 250  -357.3542
 251  -363.1637
 252  -354.3923
 253  -347.9185
 254  -256.9443
 255  -295.7469
 256  -392.8708
 257  -382.0276
 258  -406.5616
 259  -350.613
 260  -298.4278
 261  -335.4454
 262  -330.375
 263  -382.1826
 264  -417.5897
 265  -377.8154
 266  -428.3261
 267  -418.5663
 268  -467.4495
 269  -463.1749
 270  -441.7788
 271  -361.007
 272  -314.1706
 273  -415.0197
 274  -420.0362
 275  -402.2425
 276  -446.9673
 277  -353.2065
 278  -321.9694
 279  -378.2948
 280  -377.6227
 281  -318.6015
 282  -430.2288
 283  -382.2617
 284  -349.3477
 285  -422.6816
 286  -445.1076
 287  -386.2743
 288  -301.5863
 289  -301.759
 290  -366.6038
 291  -344.214
 292  -287.1602
 293  -369.0733
 294  -389.2166
 295  -347.6128
 296  -323.7351
 297  -373.7489
 298  -441.9517
 299  -375.9722
 300  -338.4593
 301  -336.2669
 302  -345.8364
 303  -371.2182
 304  -353.6245
 305  -330.7729
 306  -292.5009
 307  -276.038
 308  -293.7532
 309  -262.0121
 310  -249.626
 311  -331.3989
 312  -313.5755
 313  -281.3568
 314  -334.1837
 315  -332.0613
 316  -398.6631
 317  -289.7242
 318  -240.1784
 319  -262.6488
 320  -291.0329
 321  -401.419
 322  -335.4174
 323  -313.4432
 324  -265.3715
 325  -163.5251
 326  -172.6449
 327  -194.5639
 328  -269.7382
 329  -308.0604
 330  -230.4568
 331  -221.2791
 332  -249.2339
 333  -279.2385
 334  -146.915
 335  -226.8909
 336  -301.6525
 337  -248.3782
 338  -148.6543
 339  -204.8033
 340  -247.8206
 341  -166.1207
 342  -166.6605
 343  -116.6104
 344  -123.076
 345  -209.1846
 346  -164.6374
 347  -244.7414
 348  -312.4431
 349  -277.1763
 350  -214.4885
 351  -141.3792
 352  -199.1548
 353  -129.1918
 354  -255.3725
 355  -318.6588
 356  -294.7295
 357  -258.246
 358  -229.9627
 359  -365.1032
 360  -260.5563
 361  -191.4593
 362  -209.8704
 363  -197.1485
 364  -266.5142
 365  -267.3305
 366  -200.2519
 367  -210.8501
 368  -313.5576
 369  -280.9425
 370  -284.3699
 371  -285.4122
 372  -275.6046
 373  -244.0598
 374  -169.0636
 375  -184.1474
 376  -210.5057
 377  -333.3897
 378  -376.954
 379  -306.7655
 380  -232.9377
 381  -266.1816
 382  -204.1284
 383  -213.2343
 384  -273.5432
 385  -316.8933
 386  -321.2017
 387  -237.9125
 388  -218.9499
 389  -237.0484
 390  -241.0777
 391  -285.6196
 392  -316.01
 393  -266.5332
 394  -296.5293
 395  -338.0381
 396  -348.3694
 397  -281.6347
 398  -261.6012
 399  -226.3178
 400  -272.5055
 401  -274.7483
 402  -269.0409
 403  -282.6921
 404  -251.7576
 405  -301.3532
 406  -294.4639
 407  -257.7309
 408  -215.6911
 409  -330.8517
 410  -301.1256
 411  -225.3726
 412  -335.4724
 413  -432.5417
 414  -358.2502
 415  -361.5082
 416  -326.3498
 417  -185.0882
 418  -193.5164
 419  -317.7941
 420  -277.7236
 421  -275.5525
 422  -267.7462
 423  -235.59
 424  -295.7722
 425  -291.709
 426  -289.9007
 427  -247.829
 428  -198.3502
 429  -182.0074
 430  -202.7049
 431  -269.8493
 432  -267.0407
 433  -276.4041
 434  -264.446
 435  -147.1449
 436  -90.69064
 437  -88.83715
 438  -23.42142
 439  -106.1884
 440  -173.6157
 441  -259.3114
 442  -254.6388
 443  -303.6199
 444  -180.9844
 445  -181.1131
 446  -241.4027
 447  -306.5471
 448  -217.3313
 449  -320.3625
 450  -261.8541
 451  -106.3394
 452  -122.6408
 453  -56.05508
 454  -144.2671
 455  -88.38852
 456  -170.5932
 457  -114.5358
 458  -100.6122
 459  -163.8753
 460  -201.0602
 461  -138.1312
 462  -111.5117
 463  -90.20081
 464  -293.9229
 465  -174.1549
 466  -96.07654
 467  -46.09883
 468  -74.02331
 469  -154.7669
 470  -188.9692
 471  -229.3771
 472  -129.6772
 473  25.78663
 474  -21.57276
 475  -72.15357
 476  -155.2987
 477  -169.1174
 478  -229.7806
 479  -245.2113
 480  -132.4583
 481  -178.9331
 482  -164.8991
 483  -128.6833
 484  -167.1912
 485  -204.9894
 486  -202.6734
 487  -138.7744
 488  -207.295
 489  -96.55021
 490  -172.5641
 491  -161.3177
 492  -97.5281
 493  -127.9209
 494  -135.373
 495  -156.6479
 496  -190.2866
 497  -269.6774
 498  -217.5092
 499  -194.9411
 500  -204.1674
 501  -145.7546
 502  -130.1302
 503  -141.9528
 504  -121.3876
 505  -111.5999
 506  -100.793
 507  -44.655
 508  -112.4335
 509  -6.595184
 510  231.9096
 511  340.3013
