# Input file       =  1205598593.103592_cleaned.dat
# Candidate        =  PSR_0332+5434
# Telescope        =  AR
# Epoch_topo       =  58197.687640087868
# Epoch_bary       =  N/A
# T_sample         =  0.002
# Data Folded      =  7340032
# Data Avg         =  0.199511561780777
# Data StdDev      =  5.07152094718967 
# Profile Bins     =  256
# Profile Avg      =  5720.3913484714  
# Profile StdDev   =  858.75092448759  
# Reduced chi-sqr  =  0.859
# Prob(Noise)      <  0.95   (~0.0 sigma)
# P_topo (ms)      =  714.575795214277  +/- 0.000481
# P'_topo (s/s)    =  -0                +/- 2.54e-10
# P''_topo (s/s^2) =  0                 +/- 1.12e-13
# P_bary (ms)      =  N/A
# P'_bary (s/s)    =  N/A
# P''_bary (s/s^2) =  N/A
# P_orb (s)        =  N/A
# asin(i)/c (s)    =  N/A
# eccentricity     =  N/A
# w (rad)          =  N/A
# T_peri           =  N/A
######################################################
   0  5979.233
   1  6126.948
   2  5439.55
   3  6087.215
   4  5587.158
   5  5623.273
   6  6087.825
   7  6176.024
   8  5659.232
   9  5720.566
  10  5483.296
  11  5479.731
  12  5481.605
  13  5514.943
  14  5445.402
  15  5107.363
  16  5749.481
  17  5085.655
  18  5157.484
  19  5244.919
  20  5215.007
  21  5371.613
  22  5191.519
  23  5651.592
  24  5228.522
  25  5450.409
  26  5585.405
  27  5375.272
  28  5608.036
  29  4473.122
  30  5629.459
  31  4879.688
  32  5886.756
  33  6434.942
  34  5908.896
  35  6257.803
  36  7098.268
  37  6692.676
  38  6792.317
  39  6589.425
  40  6824.393
  41  6589.641
  42  6222.232
  43  6503.038
  44  6224.08
  45  6490.741
  46  6459.086
  47  6471.57
  48  6390.136
  49  5932.755
  50  5344.014
  51  5523.369
  52  4697.652
  53  4476.254
  54  5201.258
  55  5512.14
  56  5586.735
  57  5337.387
  58  5587.487
  59  5084.661
  60  5150.999
  61  6050.715
  62  5247.022
  63  5776.781
  64  5818.087
  65  6915.326
  66  6555.337
  67  6342.362
  68  5883.393
  69  5942.336
  70  6327.973
  71  5905.241
  72  5651.338
  73  5578.064
  74  5807.842
  75  5293.71
  76  4962.952
  77  4345.063
  78  4951.432
  79  5976.22
  80  5933.032
  81  7366.523
  82  6702.448
  83  6011.321
  84  6816.175
  85  7715.362
  86  7132.518
  87  6330.016
  88  5607.991
  89  6032.079
  90  5727.363
  91  5414.112
  92  5942.313
  93  5675.444
  94  5498.035
  95  5775.404
  96  5968.292
  97  5119.025
  98  5306.644
  99  5705.536
 100  5790.29
 101  5376.494
 102  5232.307
 103  5370.927
 104  5945.769
 105  4867.938
 106  5972.611
 107  5488.646
 108  5855.72
 109  5737.896
 110  5490.941
 111  5832.127
 112  5808.345
 113  5122.759
 114  5727.392
 115  5750.897
 116  5323.591
 117  5585.933
 118  4670.184
 119  4121.69
 120  4438.713
 121  4016.297
 122  4136.162
 123  4584.116
 124  4647.316
 125  4588.582
 126  5036.672
 127  5378.203
 128  5309.64
 129  5694.498
 130  6176.023
 131  6518.499
 132  4884.839
 133  5057.87
 134  5478.882
 135  5674.883
 136  5047.85
 137  4827.354
 138  5899.996
 139  6000.31
 140  5625.512
 141  5837.891
 142  6627.678
 143  7096.695
 144  7130.976
 145  6976.965
 146  6255.532
 147  6541.717
 148  6925.239
 149  6217.091
 150  6944.442
 151  8297.898
 152  8393.377
 153  6239.629
 154  5316.617
 155  5641.394
 156  5693.51
 157  6323.328
 158  5350.917
 159  4989.755
 160  4343.457
 161  5125.485
 162  5871.588
 163  4586.168
 164  4541.308
 165  4802.467
 166  5089.541
 167  4792.045
 168  5304.724
 169  5209.536
 170  5117.721
 171  5506.758
 172  5482.432
 173  6036.663
 174  6157.079
 175  5950.24
 176  5600.936
 177  5825.074
 178  5178.748
 179  5405.298
 180  5115.067
 181  5287.723
 182  5758.239
 183  5505.388
 184  5680.724
 185  5354.182
 186  5948.918
 187  5857.383
 188  5673.589
 189  5578.291
 190  5347.82
 191  4524.131
 192  6050.027
 193  5771.605
 194  5697.99
 195  5473.638
 196  5650.564
 197  5774.131
 198  5561.958
 199  5602.41
 200  5764.488
 201  5812.118
 202  5300.869
 203  6240.638
 204  5853.079
 205  5529.666
 206  4934.047
 207  5484.882
 208  5625.485
 209  5004.138
 210  4383.264
 211  5410.704
 212  6004.867
 213  5354.845
 214  5441.108
 215  5109.949
 216  4808.374
 217  5035.224
 218  6003.334
 219  6115.888
 220  5446.364
 221  6239.188
 222  6621.116
 223  5988.68
 224  5587.858
 225  4992.447
 226  5102.407
 227  4748.15
 228  5677.206
 229  5644.395
 230  5288.014
 231  6123.379
 232  7120.289
 233  7171.703
 234  7308.86
 235  6666.464
 236  7189.272
 237  6769.208
 238  7152.255
 239  6205.13
 240  5276.648
 241  5684.261
 242  5382.827
 243  5830.888
 244  5797.272
 245  5511.031
 246  5609.569
 247  6352.015
 248  5903.458
 249  5584.968
 250  5878.039
 251  6085.675
 252  6263.943
 253  6288.583
 254  6020.379
 255  6376.823
