# Input file       =  1205324951.116461_cleaned.dat
# Candidate        =  PSR_0332+5434
# Telescope        =  AR
# Epoch_topo       =  58194.520487459042
# Epoch_bary       =  N/A
# T_sample         =  0.002
# Data Folded      =  7340032
# Data Avg         =  0.115049420866177
# Data StdDev      =  1.00019692582733 
# Profile Bins     =  512
# Profile Avg      =  1649.40201790734 
# Profile StdDev   =  119.756614904013 
# Reduced chi-sqr  =  1.235
# Prob(Noise)      <  0.000216   (~3.5 sigma)
# P_topo (ms)      =  714.576719705649  +/- 0.000603
# P'_topo (s/s)    =  -0                +/- 3.18e-10
# P''_topo (s/s^2) =  0                 +/- 1.4e-13
# P_bary (ms)      =  N/A
# P'_bary (s/s)    =  N/A
# P''_bary (s/s^2) =  N/A
# P_orb (s)        =  N/A
# asin(i)/c (s)    =  N/A
# eccentricity     =  N/A
# w (rad)          =  N/A
# T_peri           =  N/A
######################################################
   0  1673.375
   1  1727.319
   2  1618.379
   3  1568.645
   4  1568.546
   5  1545.489
   6  1523.742
   7  1579.85
   8  1571.597
   9  1479.648
  10  1543.166
  11  1600.674
  12  1613.876
  13  1578.154
  14  1502.961
  15  1504.731
  16  1580.745
  17  1524.025
  18  1491.532
  19  1521.504
  20  1558.208
  21  1545.514
  22  1498.483
  23  1517.05
  24  1519.682
  25  1486.843
  26  1503.918
  27  1581.2
  28  1544.583
  29  1577.451
  30  1608.258
  31  1539.572
  32  1558.713
  33  1605.981
  34  1643.762
  35  1687.387
  36  1706.719
  37  1727.256
  38  1711.931
  39  1709.282
  40  1708.712
  41  1746.677
  42  1770.537
  43  1747.283
  44  1752.076
  45  1744.18
  46  1705.8
  47  1712.701
  48  1677.794
  49  1623.695
  50  1705.834
  51  1695.979
  52  1630.588
  53  1705.639
  54  1685.837
  55  1583.607
  56  1609.545
  57  1598.932
  58  1546.543
  59  1602.12
  60  1624.77
  61  1681.128
  62  1711.448
  63  1710.573
  64  1732.049
  65  1727.676
  66  1673.932
  67  1700.171
  68  1816.224
  69  1801.444
  70  1819.245
  71  1821.743
  72  1751.272
  73  1732.166
  74  1754.075
  75  1793.674
  76  1841.569
  77  1896.328
  78  1832.923
  79  1806.171
  80  1823.668
  81  1716.937
  82  1703.709
  83  1711.672
  84  1704.908
  85  1761.811
  86  1748.493
  87  1679.94
  88  1782.706
  89  1755.451
  90  1712.939
  91  1675.437
  92  1671.876
  93  1597.391
  94  1508.853
  95  1582.424
  96  1690.406
  97  1663.299
  98  1586.479
  99  1659.72
 100  1661.567
 101  1670.173
 102  1690.449
 103  1694.261
 104  1698.024
 105  1678.971
 106  1792.51
 107  1774.507
 108  1640.353
 109  1614.026
 110  1684.049
 111  1671.959
 112  1737.448
 113  1740.839
 114  1637.658
 115  1654.54
 116  1687.678
 117  1704.583
 118  1659.348
 119  1722.472
 120  1790.767
 121  1740.518
 122  1789.744
 123  1793.57
 124  1759.759
 125  1739.676
 126  1829.001
 127  1706.227
 128  1771.754
 129  1856.001
 130  1808.253
 131  1763.642
 132  1768.281
 133  1759.871
 134  1723.736
 135  1749.053
 136  1675.762
 137  1722.482
 138  1753.638
 139  1843.872
 140  1717.335
 141  1634.427
 142  1674.421
 143  1685.089
 144  1691.04
 145  1675.187
 146  1637.334
 147  1660.688
 148  1741.755
 149  1704.751
 150  1649.004
 151  1652.061
 152  1707.108
 153  1727.909
 154  1677.136
 155  1651.423
 156  1721.979
 157  1752.557
 158  1718.363
 159  1566.846
 160  1627.6
 161  1655.415
 162  1668.658
 163  1684.779
 164  1612.941
 165  1557.947
 166  1584.948
 167  1601.064
 168  1543.065
 169  1582.839
 170  1587.24
 171  1632.521
 172  1636.012
 173  1570.632
 174  1614.535
 175  1591.081
 176  1636.637
 177  1612.056
 178  1611.843
 179  1574.715
 180  1565.229
 181  1517.648
 182  1584.718
 183  1589.901
 184  1526.844
 185  1568.908
 186  1639.819
 187  1635.247
 188  1584.275
 189  1681.107
 190  1614.124
 191  1592.068
 192  1659.661
 193  1618.843
 194  1565
 195  1632.968
 196  1619.86
 197  1579.46
 198  1622.272
 199  1621.798
 200  1648.035
 201  1663.428
 202  1639.44
 203  1621.43
 204  1554.321
 205  1626.622
 206  1570.161
 207  1558.498
 208  1562.681
 209  1616.436
 210  1572.061
 211  1533.908
 212  1556.694
 213  1551.556
 214  1605.511
 215  1626.6
 216  1604.292
 217  1616.867
 218  1602.895
 219  1640.676
 220  1668.068
 221  1676.788
 222  1623.434
 223  1620.068
 224  1670.071
 225  1623.259
 226  1641.799
 227  1655.971
 228  1614.64
 229  1645.735
 230  1616.932
 231  1679.972
 232  1740.4
 233  1772.438
 234  1764.111
 235  1713.208
 236  1707.329
 237  1620.075
 238  1729.79
 239  1653.402
 240  1575.543
 241  1611.881
 242  1723.718
 243  1788.325
 244  1743.259
 245  1731.306
 246  1727.123
 247  1692.496
 248  1715.109
 249  1719.072
 250  1718.128
 251  1732.41
 252  1697.971
 253  1783.577
 254  1692.721
 255  1715.141
 256  1663.36
 257  1640.427
 258  1641.295
 259  1744.694
 260  1765.613
 261  1743.424
 262  1699.097
 263  1761.559
 264  1662.179
 265  1616.803
 266  1644.069
 267  1581.004
 268  1653.938
 269  1715.575
 270  1737.635
 271  1729.749
 272  1710.7
 273  1734.797
 274  1870.348
 275  1898.916
 276  1990.964
 277  2117.131
 278  2117.216
 279  2113.941
 280  2034.173
 281  1982.972
 282  1819.757
 283  1761.638
 284  1710.155
 285  1705.072
 286  1637.899
 287  1676.571
 288  1740.702
 289  1670.092
 290  1640.615
 291  1648.923
 292  1664.679
 293  1648.7
 294  1671.08
 295  1657.608
 296  1686.438
 297  1727.276
 298  1718.343
 299  1781.634
 300  1703.307
 301  1664.73
 302  1644.475
 303  1662.035
 304  1606.237
 305  1589.134
 306  1540.115
 307  1505.405
 308  1572.07
 309  1639.121
 310  1592.155
 311  1507.827
 312  1524.966
 313  1608.564
 314  1572.876
 315  1564.677
 316  1556.432
 317  1493.544
 318  1412.737
 319  1545.552
 320  1550.159
 321  1551.58
 322  1573.698
 323  1570.652
 324  1517.688
 325  1537.625
 326  1479.39
 327  1490.947
 328  1506.115
 329  1564.338
 330  1477.35
 331  1506.898
 332  1514.207
 333  1509.387
 334  1534.631
 335  1574.873
 336  1542.829
 337  1496.047
 338  1457.491
 339  1522.745
 340  1532.035
 341  1537.869
 342  1481.982
 343  1551.956
 344  1664.329
 345  1632.455
 346  1590.233
 347  1422.953
 348  1560.152
 349  1527.846
 350  1512.734
 351  1552.439
 352  1574.739
 353  1630.258
 354  1583.124
 355  1587.994
 356  1654.217
 357  1513.471
 358  1486.677
 359  1596.112
 360  1638.899
 361  1516.445
 362  1568.596
 363  1562.464
 364  1572.4
 365  1576.344
 366  1596.131
 367  1651.5
 368  1680.502
 369  1696.037
 370  1583.461
 371  1560.852
 372  1583.746
 373  1604.91
 374  1671.43
 375  1708.086
 376  1747.119
 377  1687.348
 378  1637.667
 379  1625.049
 380  1608.942
 381  1653.461
 382  1686.601
 383  1642.908
 384  1654.997
 385  1631.673
 386  1495.98
 387  1529.803
 388  1659.891
 389  1622.781
 390  1522.558
 391  1568.988
 392  1570.538
 393  1518.807
 394  1609.135
 395  1552.533
 396  1504.98
 397  1552.583
 398  1603.039
 399  1522.003
 400  1475.512
 401  1517.34
 402  1509.296
 403  1589.303
 404  1601.148
 405  1583.702
 406  1576.737
 407  1525.373
 408  1550.867
 409  1569.89
 410  1506.2
 411  1478.213
 412  1533.256
 413  1606.7
 414  1634.325
 415  1594.159
 416  1650.007
 417  1716.476
 418  1677.379
 419  1628.782
 420  1610.853
 421  1667.925
 422  1794.879
 423  1645.422
 424  1660.319
 425  1628.104
 426  1748.022
 427  1772.647
 428  1710.001
 429  1673.01
 430  1640.997
 431  1667.717
 432  1695.244
 433  1677.713
 434  1773.137
 435  1661.526
 436  1646.036
 437  1578.964
 438  1618.126
 439  1677.767
 440  1695.739
 441  1680.768
 442  1714.458
 443  1647.319
 444  1659.063
 445  1703.798
 446  1682.11
 447  1582.586
 448  1632.695
 449  1743.598
 450  1762.334
 451  1729.011
 452  1752.147
 453  1667.377
 454  1686.123
 455  1782.966
 456  1753.86
 457  1756.252
 458  1816.934
 459  1815.526
 460  1697.461
 461  1722.304
 462  1700.995
 463  1685.897
 464  1713.068
 465  1691.604
 466  1710.971
 467  1807.547
 468  1801.396
 469  1663.397
 470  1646.227
 471  1679.74
 472  1763.484
 473  1718.433
 474  1719.088
 475  1761.432
 476  1662.729
 477  1650.149
 478  1662.717
 479  1653.828
 480  1678.655
 481  1626.685
 482  1585.37
 483  1565.907
 484  1595.282
 485  1568.775
 486  1652.08
 487  1648.836
 488  1588.73
 489  1516.495
 490  1449.132
 491  1522.512
 492  1619.71
 493  1596.771
 494  1552.819
 495  1649.237
 496  1596.497
 497  1585.356
 498  1568.178
 499  1633.746
 500  1593.109
 501  1623.391
 502  1568.316
 503  1577.675
 504  1645.95
 505  1618.305
 506  1662.751
 507  1676.8
 508  1603.508
 509  1553.218
 510  1517.607
 511  1642.47
