# Input file       =  1205740786.108979_cleaned.dat
# Candidate        =  PSR_0332+5434
# Telescope        =  AR
# Epoch_topo       =  58199.333392465036
# Epoch_bary       =  N/A
# T_sample         =  0.002
# Data Folded      =  7143424
# Data Avg         =  0.0160635826392576
# Data StdDev      =  1.00002373209845 
# Profile Bins     =  512
# Profile Avg      =  224.036813765656 
# Profile StdDev   =  118.121387683743 
# Reduced chi-sqr  =  2.592
# Prob(Noise)      <  1.57e-73   (~18.1 sigma)
# P_topo (ms)      =  714.574701234232  +/- 2.45e-05
# P'_topo (s/s)    =  -0                +/- 1.33e-11
# P''_topo (s/s^2) =  0                 +/- 6.03e-15
# P_bary (ms)      =  N/A
# P'_bary (s/s)    =  N/A
# P''_bary (s/s^2) =  N/A
# P_orb (s)        =  N/A
# asin(i)/c (s)    =  N/A
# eccentricity     =  N/A
# w (rad)          =  N/A
# T_peri           =  N/A
######################################################
   0  784.7838
   1  834.348
   2  665.09
   3  322.3472
   4  180.3215
   5  240.3001
   6  108.1464
   7  97.52046
   8  157.3553
   9  230.4399
  10  292.4081
  11  421.7822
  12  315.2096
  13  203.8071
  14  171.3745
  15  213.7466
  16  193.8242
  17  240.7335
  18  310.7593
  19  259.287
  20  145.758
  21  70.15485
  22  145.2402
  23  150.3655
  24  110.5778
  25  224.4672
  26  259.4578
  27  297.7641
  28  225.5071
  29  316.0923
  30  213.746
  31  111.5485
  32  164.8382
  33  340.8973
  34  393.5126
  35  359.1255
  36  360.8212
  37  131.059
  38  107.809
  39  183.8548
  40  275.0745
  41  367.0427
  42  398.854
  43  302.3534
  44  188.261
  45  87.59928
  46  164.2683
  47  191.9433
  48  166.0421
  49  175.0919
  50  130.1536
  51  178.5832
  52  231.5497
  53  112.9685
  54  -4.478001
  55  -33.72292
  56  259.0088
  57  279.5729
  58  372.9416
  59  489.2086
  60  313.0614
  61  218.1678
  62  151.0957
  63  196.4477
  64  77.98719
  65  113.4179
  66  64.8098
  67  125.4736
  68  159.547
  69  166.1346
  70  26.28518
  71  -24.48922
  72  77.3784
  73  248.9031
  74  331.1552
  75  328.1779
  76  339.5399
  77  321.8023
  78  277.1588
  79  228.8833
  80  123.8425
  81  151.1515
  82  186.7144
  83  185.7222
  84  297.569
  85  419.8895
  86  205.8273
  87  250.7177
  88  190.8736
  89  111.4146
  90  219.3516
  91  390.4839
  92  494.7365
  93  377.1996
  94  305.3801
  95  322.2418
  96  194.6609
  97  121.3061
  98  179.8068
  99  216.2966
 100  339.003
 101  397.1988
 102  325.6521
 103  156.0406
 104  151.5587
 105  238.8653
 106  289.3573
 107  316.1576
 108  371.8014
 109  578.4231
 110  496.4746
 111  357.2572
 112  244.1887
 113  192.9569
 114  123.5808
 115  180.5732
 116  335.1649
 117  279.3315
 118  291.5942
 119  321.5945
 120  338.1717
 121  288.1259
 122  213.3591
 123  214.898
 124  342.1206
 125  373.5974
 126  414.8989
 127  359.7894
 128  232.9993
 129  182.2604
 130  98.8537
 131  77.09511
 132  233.8083
 133  256.5873
 134  280.9284
 135  238.989
 136  111.0433
 137  197.7308
 138  103.0491
 139  110.4125
 140  305.9511
 141  357.2072
 142  384.4226
 143  349.7453
 144  137.7962
 145  167.3692
 146  167.1005
 147  90.68503
 148  162.1843
 149  278.4218
 150  394.9567
 151  282.8512
 152  193.5005
 153  168.1881
 154  190.7915
 155  190.7257
 156  278.869
 157  360.1983
 158  451.5387
 159  476.4604
 160  395.2795
 161  227.6154
 162  116.9002
 163  18.75775
 164  180.7543
 165  321.6738
 166  374.6747
 167  431.6294
 168  197.0008
 169  76.53976
 170  137.03
 171  109.4577
 172  154.4359
 173  397.9491
 174  419.5603
 175  452.9429
 176  433.6225
 177  374.7179
 178  149.3546
 179  176.846
 180  124.5119
 181  216.0812
 182  265.7806
 183  290.232
 184  415.5727
 185  231.374
 186  91.14142
 187  71.6162
 188  248.4981
 189  279.316
 190  297.8222
 191  480.0982
 192  501.6821
 193  198.8605
 194  258.6209
 195  200.0625
 196  65.78287
 197  34.46624
 198  189.5792
 199  281.4639
 200  311.2353
 201  265.9865
 202  142.1231
 203  112.1028
 204  166.293
 205  179.5444
 206  203.5556
 207  311.1127
 208  430.423
 209  449.5558
 210  408.4933
 211  355.4374
 212  301.4511
 213  237.9696
 214  416.5218
 215  388.346
 216  357.4753
 217  312.3592
 218  204.9632
 219  109.7064
 220  140.5777
 221  210.1315
 222  339.8549
 223  428.1494
 224  581.1713
 225  566.6519
 226  463.4601
 227  331.221
 228  476.511
 229  417.1129
 230  216.4709
 231  199.6942
 232  237.1939
 233  315.7792
 234  290.9421
 235  242.2673
 236  230.6664
 237  239.6165
 238  260.1065
 239  267.1364
 240  332.2803
 241  442.2659
 242  439.9906
 243  325.2354
 244  187.7574
 245  102.8946
 246  161.7965
 247  267.7499
 248  323.5911
 249  407.6366
 250  353.1429
 251  294.3245
 252  209.1903
 253  55.27511
 254  95.60278
 255  158.8224
 256  356.881
 257  598.5176
 258  521.1837
 259  311.6879
 260  208.1601
 261  110.5947
 262  121.6544
 263  175.3241
 264  172.4176
 265  89.49383
 266  213.7115
 267  209.6732
 268  241.9951
 269  263.5162
 270  239.6271
 271  147.7673
 272  152.5263
 273  384.538
 274  351.7453
 275  335.054
 276  324.3285
 277  208.8701
 278  187.346
 279  55.04516
 280  105.3494
 281  185.082
 282  316.6244
 283  105.414
 284  185.3878
 285  230.6862
 286  216.6311
 287  204.5116
 288  107.5299
 289  252.0665
 290  286.0495
 291  351.4677
 292  409.6154
 293  326.7722
 294  210.5883
 295  83.0857
 296  136.388
 297  32.3404
 298  216.2651
 299  399.3241
 300  284.0442
 301  238.1705
 302  152.1237
 303  189.6411
 304  184.6919
 305  253.8841
 306  419.3146
 307  444.6661
 308  374.1489
 309  395.5655
 310  302.781
 311  179.6847
 312  174.2241
 313  214.0154
 314  345.4771
 315  320.5834
 316  224.0876
 317  222.6182
 318  133.6281
 319  162.8682
 320  147.3658
 321  144.3382
 322  303.4234
 323  593.0665
 324  632.289
 325  250.8097
 326  144.6223
 327  232.9737
 328  233.57
 329  95.23593
 330  61.55658
 331  168.1841
 332  331.598
 333  254.8875
 334  190.8622
 335  128.7975
 336  153.3186
 337  182.622
 338  215.0478
 339  394.9163
 340  413.2776
 341  293.8844
 342  200.5416
 343  179.5361
 344  159.306
 345  128.2359
 346  110.8826
 347  156.9055
 348  254.013
 349  346.1491
 350  298.8731
 351  238.7938
 352  169.7908
 353  183.1566
 354  236.7588
 355  261.6701
 356  335.311
 357  415.0119
 358  339.7396
 359  277.7891
 360  227.7413
 361  184.2612
 362  114.5753
 363  155.9775
 364  241.0818
 365  182.0226
 366  186.2795
 367  112.5282
 368  136.5676
 369  148.4642
 370  187.0982
 371  218.4204
 372  215.8083
 373  308.3745
 374  359.6808
 375  292.3636
 376  155.5221
 377  150.1838
 378  108.3693
 379  38.28607
 380  284.3938
 381  255.3342
 382  262.8119
 383  101.1985
 384  158.0889
 385  165.1161
 386  8.759234
 387  27.2002
 388  118.6852
 389  337.7311
 390  402.2926
 391  266.7143
 392  85.33431
 393  -39.87006
 394  -48.82858
 395  122.3951
 396  185.7233
 397  200.4012
 398  188.2961
 399  166.5694
 400  106.5802
 401  160.3882
 402  28.82755
 403  84.74376
 404  187.4273
 405  145.3442
 406  269.3123
 407  328.6139
 408  234.1657
 409  155.9325
 410  58.6227
 411  -24.11134
 412  -37.07901
 413  117.2954
 414  111.1435
 415  145.1256
 416  141.7324
 417  -11.46966
 418  74.05921
 419  147.9012
 420  -24.77503
 421  49.20195
 422  248.3749
 423  369.0914
 424  299.3723
 425  161.5514
 426  166.506
 427  99.45267
 428  -15.48263
 429  124.4375
 430  188.146
 431  85.09966
 432  46.06564
 433  -81.67972
 434  0.01576923
 435  25.81315
 436  49.53102
 437  86.65015
 438  207.1906
 439  282.0248
 440  256.6213
 441  35.70215
 442  -57.4341
 443  7.29894
 444  80.76709
 445  136.2389
 446  142.3222
 447  130.1602
 448  120.5882
 449  267.3945
 450  190.6064
 451  51.36501
 452  -31.80924
 453  27.65833
 454  171.6995
 455  261.3445
 456  256.8085
 457  204.4831
 458  4.797665
 459  -67.91332
 460  -111.6091
 461  17.64257
 462  137.9428
 463  175.3478
 464  277.3794
 465  137.0372
 466  58.87302
 467  -63.2033
 468  28.27488
 469  37.88777
 470  250.0546
 471  373.4391
 472  341.1244
 473  257.9729
 474  183.715
 475  71.75194
 476  -86.14878
 477  -96.65578
 478  133.6762
 479  193.0972
 480  101.476
 481  110.5672
 482  104.5704
 483  -99.04039
 484  -9.744545
 485  27.19438
 486  139.358
 487  391.7682
 488  391.0296
 489  262.9577
 490  178.2547
 491  174.6448
 492  222.795
 493  232.8247
 494  67.99514
 495  -38.29465
 496  126.9407
 497  185.0167
 498  235.3186
 499  40.23642
 500  75.92162
 501  156.1406
 502  2.104178
 503  161.2651
 504  263.2207
 505  391.1322
 506  534.3755
 507  516.1104
 508  454.0028
 509  426.2571
 510  613.9923
 511  793.5837
