# Input file       =  1205826898.111558_cleaned.dat
# Candidate        =  PSR_0332+5434
# Telescope        =  AR
# Epoch_topo       =  58200.330059161548
# Epoch_bary       =  N/A
# T_sample         =  0.002
# Data Folded      =  7143424
# Data Avg         =  0.014758395889413
# Data StdDev      =  1.00000998866765 
# Profile Bins     =  512
# Profile Avg      =  205.865956571366 
# Profile StdDev   =  118.119764329151 
# Reduced chi-sqr  =  1.906
# Prob(Noise)      <  2.85e-31   (~11.6 sigma)
# P_topo (ms)      =  714.574242226987  +/- 6.26e-05
# P'_topo (s/s)    =  -0                +/- 3.4e-11
# P''_topo (s/s^2) =  0                 +/- 1.54e-14
# P_bary (ms)      =  N/A
# P'_bary (s/s)    =  N/A
# P''_bary (s/s^2) =  N/A
# P_orb (s)        =  N/A
# asin(i)/c (s)    =  N/A
# eccentricity     =  N/A
# w (rad)          =  N/A
# T_peri           =  N/A
######################################################
   0  108.7677
   1  167.7247
   2  69.62707
   3  214.4224
   4  138.0429
   5  247.2949
   6  262.4741
   7  207.9101
   8  183.7084
   9  89.67702
  10  193.4489
  11  229.4269
  12  211.6922
  13  246.786
  14  224.9895
  15  145.4064
  16  186.399
  17  125.1768
  18  229.394
  19  122.2629
  20  -9.787375
  21  122.1833
  22  160.2915
  23  141.8002
  24  -49.20496
  25  70.06851
  26  221.2393
  27  295.0474
  28  482.3221
  29  519.3785
  30  443.8322
  31  420.5186
  32  553.1884
  33  736.435
  34  887.7613
  35  938.5131
  36  933.2567
  37  829.0214
  38  544.5765
  39  245.3073
  40  80.48001
  41  -53.17306
  42  92.07078
  43  248.8733
  44  286.2196
  45  173.5344
  46  199.474
  47  357.8573
  48  279.2018
  49  207.0578
  50  152.7903
  51  160.5748
  52  54.17585
  53  88.44667
  54  217.3752
  55  282.8561
  56  202.4179
  57  54.8082
  58  125.6025
  59  227.2658
  60  195.7438
  61  262.1917
  62  417.0146
  63  274.1482
  64  81.49156
  65  105.0982
  66  53.51443
  67  65.20738
  68  62.74487
  69  0.3404968
  70  2.787728
  71  179.0938
  72  332.8656
  73  178.0274
  74  55.27428
  75  106.7435
  76  92.91546
  77  191.0143
  78  297.5853
  79  331.2677
  80  370.7774
  81  259.0374
  82  177.2482
  83  115.7211
  84  146.9963
  85  2.828686
  86  62.53493
  87  153.4801
  88  208.5083
  89  112.0757
  90  127.844
  91  237.7189
  92  233.9203
  93  224.2249
  94  275.2903
  95  335.1191
  96  285.5251
  97  183.8218
  98  179.2376
  99  166.0179
 100  165.1157
 101  294.0182
 102  133.7565
 103  95.47273
 104  115.7497
 105  89.68862
 106  169.0768
 107  250.944
 108  210.4552
 109  219.5762
 110  254.1433
 111  273.7693
 112  255.9827
 113  275.6388
 114  338.989
 115  122.2278
 116  88.62864
 117  151.5458
 118  188.9215
 119  301.828
 120  278.2932
 121  219.2903
 122  148.0233
 123  140.8893
 124  261.8057
 125  53.74939
 126  77.38773
 127  172.9536
 128  279.524
 129  242.5033
 130  184.3692
 131  226.3791
 132  201.9468
 133  34.43143
 134  128.0074
 135  233.17
 136  250.4933
 137  266.4422
 138  146.9512
 139  241.9406
 140  258.2455
 141  240.0848
 142  235.9834
 143  203.8762
 144  324.6523
 145  346.0969
 146  400.4953
 147  323.5136
 148  110.545
 149  95.46156
 150  11.97811
 151  126.2819
 152  176.084
 153  284.2638
 154  202.2231
 155  129.9742
 156  218.7476
 157  154.5959
 158  240.217
 159  183.839
 160  224.6771
 161  341.3536
 162  238.3221
 163  273.7307
 164  212.11
 165  233.8403
 166  157.6332
 167  117.5349
 168  76.80565
 169  -80.42454
 170  64.60174
 171  312.1893
 172  217.1616
 173  126.4585
 174  139.1642
 175  255.7555
 176  327.8236
 177  349.5309
 178  312.7464
 179  261.3177
 180  242.5948
 181  182.4125
 182  233.5379
 183  220.0401
 184  60.65821
 185  143.9029
 186  141.6024
 187  211.935
 188  205.0088
 189  40.9684
 190  -45.67498
 191  130.7734
 192  198.0808
 193  290.937
 194  149.7715
 195  115.5865
 196  211.4901
 197  194.8303
 198  115.8264
 199  70.53331
 200  91.17161
 201  188.7282
 202  214.7444
 203  237.3006
 204  189.493
 205  250.9091
 206  162.8478
 207  88.08353
 208  308.0444
 209  307.1638
 210  275.5972
 211  259.7523
 212  253.2502
 213  116.763
 214  114.9794
 215  120.716
 216  111.5833
 217  113.585
 218  169.9763
 219  239.1094
 220  375.1344
 221  235.3563
 222  131.7643
 223  197.6781
 224  95.78204
 225  149.09
 226  210.4152
 227  281.6817
 228  220.0018
 229  125.284
 230  107.2978
 231  206.3819
 232  169.5701
 233  138.7444
 234  81.45122
 235  113.0816
 236  155.8392
 237  69.78625
 238  39.5684
 239  136.3719
 240  117.0065
 241  75.45138
 242  206.3166
 243  196.2145
 244  175.6733
 245  229.5238
 246  311.3848
 247  214.0601
 248  209.433
 249  278.1437
 250  275.3184
 251  153.4397
 252  158.5336
 253  301.4482
 254  226.8443
 255  41.07922
 256  68.1915
 257  119.9031
 258  119.9427
 259  211.9088
 260  312.412
 261  386.8746
 262  223.1758
 263  157.3437
 264  145.1112
 265  86.66515
 266  72.82328
 267  140.1342
 268  180.7977
 269  167.5377
 270  143.8171
 271  59.71949
 272  -12.79442
 273  -16.24294
 274  7.078427
 275  226.3154
 276  242.4404
 277  328.0803
 278  349.219
 279  245.4225
 280  158.2232
 281  102.733
 282  134.5533
 283  228.0693
 284  293.3509
 285  319.3212
 286  270.521
 287  197.2961
 288  132.6476
 289  30.76225
 290  42.31448
 291  81.22271
 292  192.9164
 293  248.3899
 294  344.1998
 295  381.7427
 296  493.7231
 297  235.6898
 298  185.3842
 299  224.9354
 300  196.3304
 301  168.3733
 302  259.6158
 303  107.4042
 304  43.84068
 305  3.719505
 306  101.4291
 307  195.3916
 308  269.1058
 309  315.1441
 310  268.2337
 311  212.7337
 312  286.3381
 313  240.5047
 314  144.7935
 315  179.0139
 316  349.9518
 317  248.4934
 318  243.5739
 319  255.0768
 320  216.7516
 321  249.4657
 322  258.3105
 323  262.7458
 324  250.1297
 325  321.0564
 326  393.1586
 327  226.7866
 328  354.8982
 329  256.4037
 330  252.3714
 331  186.6822
 332  70.11915
 333  134.4168
 334  257.5112
 335  387.83
 336  174.2517
 337  195.16
 338  174.8058
 339  235.3777
 340  218.9458
 341  210.2814
 342  395.8096
 343  375.3005
 344  464.2176
 345  281.4369
 346  155.8997
 347  110.5288
 348  165.3246
 349  268.0966
 350  162.8868
 351  118.4892
 352  151.5375
 353  161.2258
 354  76.92992
 355  202.3344
 356  127.7121
 357  137.2961
 358  285.0214
 359  456.8574
 360  409.1806
 361  242.368
 362  106.9601
 363  109.9796
 364  156.1356
 365  136.7786
 366  173.1727
 367  244.075
 368  212.0897
 369  208.1612
 370  186.8087
 371  195.1154
 372  169.3628
 373  81.073
 374  146.0161
 375  128.5092
 376  159.6605
 377  228.7514
 378  372.5785
 379  277.6277
 380  167.1633
 381  164.6164
 382  285.7461
 383  120.0224
 384  49.51104
 385  117.2895
 386  116.3843
 387  92.61931
 388  237.4629
 389  192.8329
 390  189.8706
 391  244.3695
 392  359.0868
 393  453.4651
 394  411.9886
 395  244.3205
 396  242.8374
 397  279.8793
 398  305.8688
 399  205.5987
 400  233.2362
 401  343.8935
 402  242.6499
 403  155.8914
 404  83.43333
 405  122.6762
 406  195.9334
 407  304.0859
 408  428.9766
 409  425.1492
 410  346.0148
 411  151.508
 412  113.5122
 413  166.111
 414  88.34033
 415  149.3962
 416  190.0367
 417  256.373
 418  223.7685
 419  165.5286
 420  42.2777
 421  120.5984
 422  142.919
 423  160.5079
 424  214.5404
 425  317.7177
 426  379.8522
 427  412.1501
 428  404.6773
 429  316.522
 430  326.0845
 431  417.8373
 432  288.9279
 433  263.9854
 434  231.0138
 435  186.7388
 436  222.3189
 437  157.7071
 438  129.6541
 439  200.5829
 440  279.2293
 441  253.7962
 442  267.6555
 443  271.6457
 444  313.8507
 445  209.6525
 446  108.55
 447  131.045
 448  160.6901
 449  160.8179
 450  322.0849
 451  215.8174
 452  161.6821
 453  178.4599
 454  27.77603
 455  48.10233
 456  105.229
 457  156.8012
 458  237.7431
 459  212.6722
 460  299.7216
 461  204.7195
 462  92.85986
 463  211.8195
 464  142.7235
 465  175.6126
 466  164.0516
 467  222.5502
 468  222.0732
 469  212.8795
 470  209.6612
 471  192.6435
 472  161.3215
 473  244.1171
 474  302.6837
 475  296.2397
 476  324.186
 477  221.6046
 478  143.2018
 479  30.30314
 480  74.54205
 481  193.7576
 482  164.4518
 483  145.6463
 484  122.7625
 485  312.478
 486  208.0629
 487  104.9326
 488  129.4121
 489  151.0727
 490  227.1861
 491  231.1938
 492  280.7786
 493  267.9981
 494  267.1315
 495  94.75982
 496  12.47701
 497  158.465
 498  214.2457
 499  146.8515
 500  169.4808
 501  128.2568
 502  153.8764
 503  136.4224
 504  39.28072
 505  100.0416
 506  219.5873
 507  205.9829
 508  148.3211
 509  377.937
 510  379.259
 511  229.0469
