# Input file       =  1205310301.106354-PSRB0329-2ms-sampling-dd.dat
# Candidate        =  PSR_0332+5434
# Telescope        =  AR
# Epoch_topo       =  58194.350927156876
# Epoch_bary       =  N/A
# T_sample         =  0.002
# Data Folded      =  7274496
# Data Avg         =  1.46138592776454e-09
# Data StdDev      =  8.07301365156398 
# Profile Bins     =  512
# Profile Avg      =  -0.0483993825914223
# Profile StdDev   =  962.281554502502 
# Reduced chi-sqr  =  1.570
# Prob(Noise)      <  2.85e-15   (~7.8 sigma)
# P_topo (ms)      =  714.576757754983  +/- 2.23e-05
# P'_topo (s/s)    =  -0                +/- 1.19e-11
# P''_topo (s/s^2) =  0                 +/- 5.28e-15
# P_bary (ms)      =  N/A
# P'_bary (s/s)    =  N/A
# P''_bary (s/s^2) =  N/A
# P_orb (s)        =  N/A
# asin(i)/c (s)    =  N/A
# eccentricity     =  N/A
# w (rad)          =  N/A
# T_peri           =  N/A
######################################################
   0  -1169.495
   1  -636.595
   2  78.1095
   3  881.3452
   4  1470.296
   5  1524.155
   6  1204.247
   7  -90.50237
   8  -628.2452
   9  -834.4837
  10  -466.7208
  11  19.05908
  12  651.5893
  13  940.4113
  14  665.8415
  15  37.89421
  16  -1355.944
  17  -1115.723
  18  -478.2534
  19  84.51699
  20  467.0541
  21  973.4139
  22  908.0721
  23  161.2701
  24  -239.4625
  25  -743.5137
  26  -911.7524
  27  -402.1087
  28  303.0049
  29  721.5527
  30  632.1317
  31  382.6194
  32  -141.5496
  33  -431.2688
  34  -670.3117
  35  264.3243
  36  652.5237
  37  958.5764
  38  1219.498
  39  801.7972
  40  323.7357
  41  -38.65248
  42  -281.3554
  43  -531.48
  44  -146.6436
  45  297.8075
  46  479.4061
  47  632.046
  48  164.8132
  49  -590.1968
  50  -354.6098
  51  381.4748
  52  375.0607
  53  544.9657
  54  1484.785
  55  1229.503
  56  877.8361
  57  384.273
  58  -376.8908
  59  47.6956
  60  60.51205
  61  546.8735
  62  1073.438
  63  1357.6
  64  719.5563
  65  -166.7829
  66  -460.0483
  67  72.16306
  68  565.7869
  69  1058.972
  70  1628.427
  71  1717.135
  72  1144.38
  73  441.7253
  74  -439.2976
  75  -238.6777
  76  39.62994
  77  661.2971
  78  1105.332
  79  1191.88
  80  1152.723
  81  374.2581
  82  67.14217
  83  88.61953
  84  347.2403
  85  1030.044
  86  1049.246
  87  1721.098
  88  1965.238
  89  1295.275
  90  96.41342
  91  -451.3593
  92  -273.5547
  93  293.5234
  94  677.2855
  95  1275.104
  96  1166.438
  97  351.0914
  98  19.85687
  99  -493.6628
 100  242.698
 101  950.2913
 102  1916.151
 103  2454.125
 104  3198.104
 105  2944.158
 106  1787.003
 107  673.9845
 108  -31.71913
 109  -70.35786
 110  -73.94945
 111  793.09
 112  1340.89
 113  1037.932
 114  723.7273
 115  -364.83
 116  -583.2094
 117  -329.9379
 118  511.7832
 119  1079.553
 120  1414.071
 121  1390.361
 122  273.5224
 123  -518.4805
 124  -490.295
 125  -451.0066
 126  -153.2608
 127  -184.0996
 128  686.4182
 129  938.9986
 130  969.9645
 131  -494.5593
 132  -719.938
 133  -538.3226
 134  -498.7653
 135  -16.04447
 136  794.095
 137  848.3223
 138  316.1729
 139  -381.5571
 140  -1402.728
 141  -1589.593
 142  -530.5521
 143  -421.177
 144  29.69825
 145  630.5604
 146  93.38403
 147  -458.4461
 148  -833.6116
 149  -719.5436
 150  -101.7025
 151  414.5235
 152  920.1464
 153  1783.531
 154  1441.997
 155  560.556
 156  -417.8384
 157  -958.2498
 158  -776.0972
 159  -262.9585
 160  928.4684
 161  1045.913
 162  841.3716
 163  -90.98207
 164  -720.2436
 165  -708.0178
 166  -263.1288
 167  339.3974
 168  -43.30368
 169  466.512
 170  480.2443
 171  502.3353
 172  157.4717
 173  -658.0538
 174  -495.9087
 175  -267.7666
 176  17.70081
 177  298.7233
 178  68.1409
 179  -84.36131
 180  -579.6906
 181  -1051.843
 182  -1140.87
 183  134.7422
 184  555.2781
 185  1190.856
 186  1010.959
 187  1218.022
 188  564.9457
 189  -412.3193
 190  -595.8378
 191  -703.7914
 192  239.6524
 193  593.2324
 194  1208.961
 195  977.2977
 196  664.3641
 197  373.4479
 198  -803.6983
 199  -505.9115
 200  381.6538
 201  515.0465
 202  1296.871
 203  1624.076
 204  808.5728
 205  -194.8352
 206  -435.8849
 207  -1206.897
 208  -1357.22
 209  -632.4058
 210  -522.1185
 211  -158.0809
 212  91.14303
 213  -201.6419
 214  -535.4
 215  -644.199
 216  -262.0871
 217  88.94427
 218  381.8615
 219  1194.71
 220  1194.841
 221  809.5983
 222  -100.2695
 223  -813.4138
 224  -212.9445
 225  -231.8808
 226  381.3947
 227  628.6796
 228  310.0395
 229  154.195
 230  -281.5866
 231  -793.1735
 232  -212.2437
 233  428.7651
 234  780.5481
 235  633.2488
 236  1282.665
 237  858.4858
 238  75.9044
 239  -390.2585
 240  -179.8072
 241  199.0482
 242  -354.7242
 243  86.91053
 244  -178.6669
 245  -130.8147
 246  -686.2444
 247  -891.9492
 248  -355.8341
 249  -69.53989
 250  -88.78014
 251  213.7274
 252  702.824
 253  697.0347
 254  148.3448
 255  -817.9416
 256  -725.8121
 257  -318.6817
 258  264.3181
 259  1051.03
 260  1235.852
 261  951.4448
 262  17.03842
 263  -1025.083
 264  -1597.96
 265  -1038.801
 266  -93.46842
 267  -60.20381
 268  942.2205
 269  767.5687
 270  757.073
 271  -331.4962
 272  -1137.224
 273  -1124.2
 274  -1040.725
 275  -957.1259
 276  -501.8845
 277  695.2368
 278  498.8914
 279  -28.71939
 280  -1077.906
 281  -1483.843
 282  -909.2814
 283  107.1316
 284  856.617
 285  1479.834
 286  1352.093
 287  282.9437
 288  -528.746
 289  -1079.13
 290  -763.3891
 291  -582.2458
 292  105.8973
 293  825.2946
 294  313.9278
 295  252.3222
 296  -839.0826
 297  -1745.586
 298  -1335.896
 299  -773.4063
 300  -21.81772
 301  119.1574
 302  806.4512
 303  421.7897
 304  -485.7569
 305  -1280.857
 306  -1850.384
 307  -1244.023
 308  -953.3379
 309  -941.658
 310  -403.1442
 311  -351.3893
 312  -949.2665
 313  -1488.086
 314  -1437.175
 315  -930.116
 316  -525.2971
 317  52.07216
 318  438.6601
 319  963.0071
 320  143.0831
 321  -765.5192
 322  -697.9725
 323  -304.8391
 324  51.08602
 325  166.1902
 326  358.8514
 327  535.8558
 328  88.24579
 329  -1150.648
 330  -1311.548
 331  -627.0049
 332  89.5328
 333  131.2524
 334  353.5294
 335  797.7244
 336  -2.01042
 337  -497.8505
 338  -1591.195
 339  -1792.293
 340  -1230.779
 341  -848.3128
 342  -164.3318
 343  -411.8741
 344  -48.09381
 345  -1017.263
 346  -1803.989
 347  -1549.061
 348  -1462.687
 349  -340.7656
 350  -40.75508
 351  600.5919
 352  599.9775
 353  -306.3819
 354  -866.8452
 355  -1706.704
 356  -1543.222
 357  -887.64
 358  -109.5073
 359  -258.6665
 360  -284.7761
 361  -451.1711
 362  -893.6046
 363  -1341.934
 364  -967.9979
 365  -208.1822
 366  -48.54063
 367  436.7166
 368  946.7708
 369  685.3767
 370  -364.9236
 371  -1019.437
 372  -1286.971
 373  -1522.874
 374  -1169.914
 375  -1016.642
 376  -460.1028
 377  24.15309
 378  -517.4527
 379  -1691.293
 380  -2218.581
 381  -1420.557
 382  -1079.373
 383  -700.547
 384  391.7345
 385  558.3031
 386  -326.8165
 387  -1056.378
 388  -1530.527
 389  -1420.999
 390  -1514.512
 391  -603.3984
 392  -499.3353
 393  -381.6318
 394  -764.1187
 395  -1356.875
 396  -2084.905
 397  -1551.474
 398  -323.8121
 399  -9.284286
 400  -26.31145
 401  -236.035
 402  -224.1094
 403  -885.1055
 404  -1827.449
 405  -2191.444
 406  -1543.627
 407  -817.059
 408  -762.7809
 409  -561.048
 410  -357.0681
 411  -822.5226
 412  -2116.764
 413  -2069.708
 414  -629.5264
 415  74.35409
 416  336.7707
 417  683.6208
 418  720.3876
 419  -64.49017
 420  -1545.67
 421  -1287.321
 422  -960.8
 423  -378.5252
 424  -87.5573
 425  381.1088
 426  228.1962
 427  -326.0336
 428  -1415.12
 429  -1843.625
 430  -1615.126
 431  -648.9058
 432  -21.4018
 433  138.1729
 434  549.2057
 435  550.7763
 436  -113.5504
 437  -1515.665
 438  -1680.035
 439  -721.3065
 440  -56.15581
 441  71.12517
 442  785.6397
 443  1054.74
 444  -217.3621
 445  -1573.434
 446  -1428.47
 447  -504.1106
 448  140.4734
 449  523.6057
 450  1158.041
 451  1622.956
 452  736.0266
 453  -50.65726
 454  -564.2768
 455  -612.5303
 456  -242.3577
 457  -65.34229
 458  924.3564
 459  1172.594
 460  1080.408
 461  -1.399212
 462  -568.1701
 463  -660.9164
 464  195.8413
 465  944.5011
 466  1434.931
 467  1813.368
 468  1317.553
 469  644.6102
 470  -163.5743
 471  -821.8691
 472  -76.60629
 473  138.8545
 474  453.5141
 475  833.243
 476  812.5386
 477  557.8597
 478  -344.0569
 479  -553.7491
 480  175.3687
 481  450.3908
 482  1028.143
 483  1439.67
 484  1222.402
 485  846.4024
 486  374.353
 487  66.29647
 488  -198.0356
 489  970.0577
 490  1148.285
 491  934.4418
 492  1515.44
 493  1396.787
 494  179.0712
 495  -234.0137
 496  -85.93649
 497  725.0566
 498  1097.714
 499  1104.527
 500  1827.011
 501  1615.051
 502  553.9135
 503  -122.6798
 504  -315.6727
 505  47.12389
 506  243.0973
 507  919.6721
 508  1329.074
 509  1048.99
 510  535.2554
 511  -259.0699
