# Input file       =  1205253810.115375_cleaned.dat
# Candidate        =  PSR_0332+5434
# Telescope        =  AR
# Epoch_topo       =  58193.697096242766
# Epoch_bary       =  N/A
# T_sample         =  0.002
# Data Folded      =  7340032
# Data Avg         =  0.0313314512344992
# Data StdDev      =  2.75555069676922 
# Profile Bins     =  256
# Profile Avg      =  898.23593687923  
# Profile StdDev   =  466.592119595655 
# Reduced chi-sqr  =  1.359
# Prob(Noise)      <  0.000118   (~3.7 sigma)
# P_topo (ms)      =  714.577364406974  +/- 0.000323
# P'_topo (s/s)    =  -0                +/- 1.71e-10
# P''_topo (s/s^2) =  0                 +/- 7.53e-14
# P_bary (ms)      =  N/A
# P'_bary (s/s)    =  N/A
# P''_bary (s/s^2) =  N/A
# P_orb (s)        =  N/A
# asin(i)/c (s)    =  N/A
# eccentricity     =  N/A
# w (rad)          =  N/A
# T_peri           =  N/A
######################################################
   0  1385.042
   1  586.3599
   2  916.1946
   3  914.3126
   4  1148.687
   5  1054.444
   6  579.2863
   7  268.6616
   8  2258.072
   9  1115.846
  10  550.7703
  11  1521.522
  12  1111.091
  13  1506.467
  14  979.6261
  15  1224.018
  16  1028.445
  17  974.1797
  18  1831.273
  19  1243.565
  20  332.1234
  21  367.8882
  22  428.9715
  23  677.9492
  24  1076.204
  25  552.9112
  26  751.909
  27  494.5168
  28  851.4832
  29  1020.387
  30  1061.27
  31  216.5271
  32  1364.299
  33  894.8124
  34  1062.027
  35  1319.104
  36  1096.464
  37  1042.038
  38  430.2574
  39  890.0953
  40  62.41077
  41  470.4
  42  865.7828
  43  443.0592
  44  1350.845
  45  926.5329
  46  357.4619
  47  769.9819
  48  1360.471
  49  878.5433
  50  1127.443
  51  1549.391
  52  873.4208
  53  6.565996
  54  874.1713
  55  996.1047
  56  497.6643
  57  836.7025
  58  51.00298
  59  748.5865
  60  1089.684
  61  835.2934
  62  761.5684
  63  453.7499
  64  111.5025
  65  876.4789
  66  820.358
  67  874.3016
  68  946.4446
  69  948.6541
  70  257.5279
  71  53.75698
  72  1371.043
  73  935.1957
  74  862.2367
  75  698.3214
  76  1006.537
  77  877.1452
  78  667.2414
  79  902.2658
  80  682.527
  81  599.5216
  82  1125.986
  83  1113.725
  84  301.2029
  85  1516.946
  86  815.309
  87  1524.057
  88  1108.679
  89  905.5697
  90  751.1989
  91  526.9575
  92  320.9147
  93  1132.437
  94  1373.381
  95  1103.864
  96  1138.054
  97  811.9113
  98  758.9055
  99  1105.919
 100  471.8275
 101  780.8598
 102  932.2693
 103  678.2791
 104  965.4075
 105  745.6235
 106  763.7178
 107  725.4056
 108  873.2099
 109  543.1484
 110  847.3227
 111  794.3599
 112  606.5913
 113  20.11408
 114  341.5529
 115  421.8693
 116  626.0691
 117  883.8711
 118  946.8734
 119  906.9881
 120  1153.984
 121  1060.669
 122  759.5261
 123  737.9588
 124  843.6623
 125  1069.274
 126  710.9266
 127  945.2301
 128  754.5096
 129  232.6552
 130  754.6919
 131  1570.029
 132  654.4642
 133  1010.152
 134  958.7559
 135  1103.784
 136  1090.603
 137  1397.148
 138  1049.892
 139  993.7403
 140  886.6748
 141  1478.715
 142  1412.939
 143  756.3195
 144  655.4896
 145  1247.466
 146  663.6815
 147  842.0012
 148  1135.3
 149  1007.85
 150  2663.417
 151  4008.398
 152  4195.993
 153  2037.489
 154  1354.755
 155  991.5317
 156  966.5073
 157  1100.889
 158  1089.294
 159  649.5611
 160  682.7416
 161  366.5896
 162  427.5855
 163  849.9752
 164  866.6707
 165  797.8441
 166  720.5189
 167  781.803
 168  499.8065
 169  938.6715
 170  1145.81
 171  1097.808
 172  935.011
 173  1159.018
 174  1213.474
 175  1503.281
 176  1528.07
 177  1191.896
 178  1663.976
 179  1056.283
 180  687.205
 181  471.9852
 182  1299.84
 183  919.3232
 184  801.7709
 185  725.968
 186  613.0979
 187  951.4409
 188  1167.479
 189  1509.989
 190  1200.591
 191  1248.86
 192  418.7532
 193  1025.449
 194  261.5204
 195  1079.675
 196  892.3408
 197  864.9899
 198  894.3127
 199  475.8012
 200  563.9353
 201  421.4939
 202  294.3432
 203  991.7047
 204  1014.879
 205  558.342
 206  828.1302
 207  517.236
 208  308.2028
 209  925.8995
 210  142.2967
 211  889.9502
 212  924.8862
 213  970.0903
 214  1013.252
 215  789.491
 216  1491.645
 217  1120.439
 218  659.2063
 219  1292.017
 220  1181.822
 221  1016.908
 222  237.612
 223  900.1756
 224  1176.702
 225  820.3555
 226  831.0905
 227  1243.413
 228  676.5546
 229  782.4349
 230  1181.957
 231  876.8551
 232  790.8638
 233  973.0007
 234  431.6263
 235  608.514
 236  986.8027
 237  325.5332
 238  968.6742
 239  605.1621
 240  1248.544
 241  665.525
 242  875.0229
 243  35.43073
 244  207.9731
 245  952.5873
 246  816.5117
 247  670.3851
 248  264.7219
 249  355.9828
 250  1249.726
 251  758.3354
 252  999.645
 253  621.3448
 254  964.8587
 255  877.7833
