# Input file       =  1205253810.115375-PSRB0329-2ms-sampling-dd.dat
# Candidate        =  PSR_0332+5434
# Telescope        =  AR
# Epoch_topo       =  58193.697096242766
# Epoch_bary       =  N/A
# T_sample         =  0.002
# Data Folded      =  7340032
# Data Avg         =  -8.04851967343712e-09
# Data StdDev      =  232.98435689202  
# Profile Bins     =  512
# Profile Avg      =  -0.107462723344491
# Profile StdDev   =  27895.9244789697 
# Reduced chi-sqr  =  1.076
# Prob(Noise)      <  0.112   (~1.2 sigma)
# P_topo (ms)      =  714.577364451287  +/- 0.000292
# P'_topo (s/s)    =  -0                +/- 1.54e-10
# P''_topo (s/s^2) =  0                 +/- 6.79e-14
# P_bary (ms)      =  N/A
# P'_bary (s/s)    =  N/A
# P''_bary (s/s^2) =  N/A
# P_orb (s)        =  N/A
# asin(i)/c (s)    =  N/A
# eccentricity     =  N/A
# w (rad)          =  N/A
# T_peri           =  N/A
######################################################
   0  2358.672
   1  5172.661
   2  1360.037
   3  -8896.167
   4  -18068.62
   5  -7415.463
   6  7021.343
   7  4632.659
   8  1588.29
   9  -2933.914
  10  -17596.91
  11  -19827.25
  12  -20437.54
  13  -20505.44
  14  -20521.57
  15  -20420.26
  16  -20627.52
  17  -20447.47
  18  -19958.63
  19  -19333
  20  -18416.91
  21  -11569.66
  22  -7620.823
  23  -5163.293
  24  2442.743
  25  20501.32
  26  30249.85
  27  38010.35
  28  70943.55
  29  65741.96
  30  50232.71
  31  56357.64
  32  47253.39
  33  61475.35
  34  82645.63
  35  99767.15
  36  117023.6
  37  91261.71
  38  59283.14
  39  35733.01
  40  24614.02
  41  28642.88
  42  32881.57
  43  41809.56
  44  40208.86
  45  17511.68
  46  6279.441
  47  -2329.497
  48  -14739.01
  49  -16275.91
  50  -16820.96
  51  -18971.63
  52  -18504.87
  53  -18180.6
  54  -17859.51
  55  -17716.94
  56  -18165.64
  57  -18672.37
  58  -19078.37
  59  -19660.95
  60  -19848.84
  61  -19134.89
  62  -19086.77
  63  -19102.36
  64  -19074.66
  65  -19058.61
  66  -19475.58
  67  -17701.37
  68  -14531.02
  69  -6308.389
  70  3307.438
  71  12032.18
  72  8404.299
  73  5131.219
  74  1476.84
  75  -6108.595
  76  -112.4128
  77  9870.044
  78  25291.51
  79  43034.15
  80  47014.43
  81  46838.66
  82  40029.37
  83  12647.67
  84  6194.516
  85  5015.034
  86  28265.23
  87  31779.53
  88  32977.09
  89  25315.03
  90  7696.956
  91  -4368.552
  92  -12398.89
  93  -16750.27
  94  -18237.14
  95  -18446.72
  96  -18979.53
  97  -18986.68
  98  -18476.26
  99  -18988.73
 100  -18855.33
 101  -18772.07
 102  -18968.91
 103  -19364.11
 104  -19336.02
 105  -19330.79
 106  -19694.86
 107  -19091.14
 108  -18977.05
 109  -19620.28
 110  -17005.11
 111  -13397.79
 112  -7474.865
 113  8855.113
 114  11911.75
 115  12118.29
 116  8129.488
 117  -4410.809
 118  -2612.26
 119  1594.833
 120  26941.63
 121  24753.34
 122  19514.42
 123  6729.519
 124  -10746.09
 125  -12759.45
 126  -11921.74
 127  -8813.507
 128  -9170.418
 129  -10532.77
 130  -14060.78
 131  -16354.39
 132  -8635.605
 133  -3571.593
 134  235.0942
 135  -2195.537
 136  -7876.497
 137  -14486.57
 138  -15529.92
 139  -6860.478
 140  -949.6225
 141  -2168.369
 142  -6084.267
 143  -9434.021
 144  -10392.81
 145  -2425.054
 146  6185.231
 147  12031.59
 148  12522.08
 149  8598.302
 150  -880.7184
 151  -781.4529
 152  3447.477
 153  11192.79
 154  15358.88
 155  9809.079
 156  4012.49
 157  -3461.903
 158  -8286.339
 159  -10021.33
 160  -10822.26
 161  -11627.17
 162  -15577.98
 163  -16078.09
 164  -14130.05
 165  -10849.28
 166  -11056.26
 167  -12497.12
 168  -14635.18
 169  -12800.34
 170  -12623.8
 171  -10518.15
 172  -11377.89
 173  -14704.05
 174  -16722.1
 175  -16803.49
 176  -12340.34
 177  -7689.991
 178  2038.38
 179  2023.507
 180  453.2477
 181  -6154.956
 182  -14682.89
 183  -15820.7
 184  -10326.92
 185  -4044.16
 186  -2297.594
 187  -2073.945
 188  3873.585
 189  1648.288
 190  -907.6993
 191  -896.0727
 192  -12758.28
 193  -17326.82
 194  -13329.97
 195  424.1357
 196  264.5029
 197  -2282.837
 198  -7077.937
 199  -15086.43
 200  -19254.62
 201  -17551.2
 202  -17110.25
 203  3053.919
 204  16322.33
 205  26119.09
 206  26751.22
 207  17358.23
 208  2993.053
 209  -11351.65
 210  11017.78
 211  31500.16
 212  51145.69
 213  43610.81
 214  34066.46
 215  16326
 216  -5841.274
 217  -12985.78
 218  -15903.76
 219  5961.164
 220  16120.06
 221  26375.71
 222  37076.98
 223  27193.68
 224  18387.92
 225  5656.041
 226  -11258.94
 227  -7647.786
 228  15009.42
 229  21303.79
 230  18413.88
 231  12855.3
 232  -6385.905
 233  -13193.97
 234  -18071.47
 235  -17297.57
 236  -17137.63
 237  -16846.09
 238  -16720.39
 239  -17572.22
 240  -17329.62
 241  -16396.7
 242  -18627.22
 243  -18194.97
 244  -17194.26
 245  -16416.45
 246  -16835.92
 247  -17638.37
 248  -18722.99
 249  -18627.43
 250  -18650.05
 251  -19284.58
 252  -18552.86
 253  -18705.44
 254  -18789.93
 255  -18266.85
 256  -15773.8
 257  -8447.405
 258  3487.995
 259  9707.188
 260  9624.999
 261  7405.445
 262  -11106.58
 263  -10436.95
 264  -4895.476
 265  13171.77
 266  10253.68
 267  6782.993
 268  1152.021
 269  -14833.86
 270  -17386.06
 271  -18023.7
 272  -19086.84
 273  -18991.6
 274  -17841.76
 275  -18494.53
 276  -17297.46
 277  -17203.26
 278  -18466.7
 279  -18840.34
 280  -19622.05
 281  -18381.1
 282  -17104.78
 283  -18917.49
 284  -14682.04
 285  -6689.818
 286  23021.42
 287  25921.24
 288  28682
 289  28351.23
 290  -6115.226
 291  -12490.59
 292  7042.57
 293  33950.7
 294  33403.89
 295  27076.18
 296  4897.967
 297  -9448.509
 298  -18776.78
 299  -18651.31
 300  -18396.85
 301  -10802.96
 302  10186.82
 303  16317.66
 304  18288.14
 305  21701.3
 306  5235.738
 307  -14338.57
 308  3018.666
 309  17323.44
 310  26625.23
 311  23554.75
 312  12620.91
 313  2499.808
 314  -14709.01
 315  -16415.45
 316  -17731.71
 317  -16890.16
 318  -8754.852
 319  2927.523
 320  5833.298
 321  5904.943
 322  2585.661
 323  -13267.9
 324  -11655.74
 325  -6315.261
 326  8325.531
 327  7984.344
 328  3449.081
 329  -2235.349
 330  -14380.61
 331  -16870.09
 332  -16017.77
 333  -15398.3
 334  -14761.47
 335  -14229.33
 336  -15459.83
 337  -9683.935
 338  -3802.581
 339  5199.113
 340  6435.184
 341  4706.51
 342  2266.715
 343  -12825.04
 344  -5564.247
 345  1772.325
 346  9050.64
 347  6527.34
 348  1807.336
 349  -6473.397
 350  -12676.42
 351  -14950.61
 352  -15341.09
 353  -16850.54
 354  -14999.63
 355  -14536.03
 356  -14268.89
 357  -15018.65
 358  -15391.88
 359  -16083.31
 360  -16308.32
 361  -16222.31
 362  -15736.44
 363  -16253.97
 364  -17830.38
 365  -17460.77
 366  -17987.96
 367  -18161.78
 368  -17006.45
 369  -17702.82
 370  -16901.34
 371  -16324.49
 372  -17933.05
 373  -18143.67
 374  -12838.57
 375  -12035.11
 376  1686.185
 377  10707.85
 378  17246.98
 379  42577.2
 380  44947.36
 381  46495.59
 382  41714
 383  30637.49
 384  29857.05
 385  27727.38
 386  51566.12
 387  50919.72
 388  40687.76
 389  27991.44
 390  16958.07
 391  21852.6
 392  21038.63
 393  19394.46
 394  17583.15
 395  10709.48
 396  -7051.827
 397  5215.106
 398  19998.57
 399  28376.45
 400  21041.72
 401  8444.443
 402  -3661.621
 403  -18133.95
 404  -16063.21
 405  -14787.24
 406  -14079.87
 407  -13459.73
 408  -14450.29
 409  -16788.43
 410  -17908.55
 411  -16483.61
 412  -15541.89
 413  -15375.74
 414  -10601.12
 415  -6117.021
 416  -2186.628
 417  -1513.935
 418  -3084.892
 419  -5880.877
 420  -18753.49
 421  -10660.28
 422  -5094.459
 423  -994.1286
 424  -2338.683
 425  -6098.335
 426  -10703.51
 427  -16227.43
 428  -15982.68
 429  -15810.98
 430  -17296.79
 431  -17331.89
 432  -17615.09
 433  -16597.82
 434  -15269.62
 435  -14784.23
 436  -15185.85
 437  -16541.67
 438  -17271.48
 439  -17410.18
 440  -14112.48
 441  -12744.51
 442  -11587.15
 443  -12280.87
 444  -14794.21
 445  -16655.1
 446  -17540.68
 447  -15713.39
 448  -13904.08
 449  -11696.58
 450  -11995.15
 451  -12654.23
 452  -12903.26
 453  -17319.91
 454  -16891.56
 455  -15911.75
 456  -14578.29
 457  -14039.86
 458  -13190.82
 459  -14499.69
 460  -7774.367
 461  -4662.603
 462  -1832.666
 463  -560.0192
 464  -4537.635
 465  -9418.144
 466  -4358.948
 467  4369.492
 468  10290.31
 469  16223.52
 470  16042.25
 471  10443.81
 472  -1675.739
 473  -2392.889
 474  -1513.05
 475  1283.218
 476  163.0126
 477  -2181.572
 478  -2430.867
 479  -6873.715
 480  -780.7807
 481  4377.304
 482  4388.318
 483  9304.429
 484  20646.7
 485  38224.12
 486  43059.36
 487  55513.37
 488  60151.7
 489  37146.16
 490  23787.04
 491  42541.54
 492  34299.5
 493  51017.62
 494  51084.48
 495  34216.86
 496  40852.93
 497  31107.73
 498  29182.78
 499  18233.99
 500  7660.087
 501  2041.316
 502  -3639.815
 503  15000.98
 504  18073.26
 505  13485.15
 506  5047.474
 507  -5028.164
 508  -15040.55
 509  -19335.37
 510  -8403.479
 511  -1328.256
