# Input file       =  1205856444.106251_cleaned.dat
# Candidate        =  PSR_0332+5434
# Telescope        =  AR
# Epoch_topo       =  58200.672026692722
# Epoch_bary       =  N/A
# T_sample         =  0.002
# Data Folded      =  7340032
# Data Avg         =  0.0353115117357349
# Data StdDev      =  1.00006216162174 
# Profile Bins     =  512
# Profile Avg      =  506.253734499207 
# Profile StdDev   =  119.740479176484 
# Reduced chi-sqr  =  1.779
# Prob(Noise)      <  9.66e-25   (~10.2 sigma)
# P_topo (ms)      =  714.57442943998   +/- 0.000309
# P'_topo (s/s)    =  -0                +/- 1.63e-10
# P''_topo (s/s^2) =  0                 +/- 7.19e-14
# P_bary (ms)      =  N/A
# P'_bary (s/s)    =  N/A
# P''_bary (s/s^2) =  N/A
# P_orb (s)        =  N/A
# asin(i)/c (s)    =  N/A
# eccentricity     =  N/A
# w (rad)          =  N/A
# T_peri           =  N/A
######################################################
   0  1353.404
   1  1315.157
   2  1178.903
   3  1048.885
   4  780.6404
   5  587.5065
   6  612.2861
   7  710.4558
   8  589.0606
   9  583.7932
  10  682.1846
  11  657.4608
  12  644.5369
  13  503.2572
  14  543.7568
  15  592.1876
  16  588.5173
  17  554.2964
  18  617.6102
  19  493.0898
  20  473.7627
  21  455.5355
  22  595.2906
  23  584.2664
  24  511.9615
  25  479.3178
  26  456.2387
  27  469.7303
  28  449.6432
  29  553.6136
  30  594.235
  31  542.3889
  32  614.3832
  33  547.1243
  34  516.1706
  35  463.9022
  36  527.994
  37  526.4027
  38  546.8303
  39  666.5389
  40  636.9174
  41  518.008
  42  490.3137
  43  416.3094
  44  395.0531
  45  392.8929
  46  546.6407
  47  529.5924
  48  570.8149
  49  528.2144
  50  461.8232
  51  413.9421
  52  482.1303
  53  504.2477
  54  548.675
  55  523.228
  56  506.8996
  57  527.9472
  58  491.0226
  59  529.7636
  60  415.9576
  61  520.3952
  62  593.0529
  63  580.7764
  64  593.5656
  65  473.7611
  66  539.0034
  67  511.8007
  68  375.4348
  69  470.3823
  70  488.6463
  71  617.4518
  72  667.939
  73  559.4318
  74  489.7267
  75  312.4115
  76  294.7637
  77  361.1018
  78  411.82
  79  420.2212
  80  448.6556
  81  458.8672
  82  462.2307
  83  450.5908
  84  483.0151
  85  430.8144
  86  441.696
  87  502.2195
  88  630.2976
  89  469.2473
  90  382.1896
  91  351.5378
  92  346.6546
  93  333.3937
  94  512.0047
  95  559.2867
  96  623.0286
  97  602.3942
  98  521.0278
  99  639.8558
 100  690.7063
 101  585.7662
 102  499.129
 103  493.9648
 104  539.2006
 105  547.0372
 106  433.8965
 107  350.9422
 108  447.9449
 109  471.7606
 110  498.2481
 111  489.8582
 112  465.9723
 113  540.3842
 114  447.1969
 115  496.62
 116  504.1088
 117  529.2734
 118  597.6594
 119  610.3754
 120  566.416
 121  454.9265
 122  505.4988
 123  527.4187
 124  438.1922
 125  472.0092
 126  602.498
 127  388.9769
 128  411.2722
 129  489.1065
 130  434.1981
 131  519.9927
 132  583.2828
 133  457.2568
 134  416.9268
 135  421.4588
 136  392.4052
 137  477.2689
 138  478.1207
 139  495.3621
 140  442.1642
 141  478.1883
 142  499.2849
 143  472.472
 144  502.7362
 145  551.213
 146  495.3759
 147  406.9404
 148  354.1199
 149  451.8417
 150  513.413
 151  479.7981
 152  453.7629
 153  454.6845
 154  548.7972
 155  579.2977
 156  499.4263
 157  476.6313
 158  425.3852
 159  379.8207
 160  367.7599
 161  524.1248
 162  560.414
 163  474.2507
 164  497.1891
 165  643.0711
 166  565.2797
 167  559.4286
 168  647.2325
 169  672.3875
 170  617.0648
 171  572.9492
 172  428.0695
 173  511.4474
 174  539.2517
 175  521.7726
 176  454.6992
 177  402.3073
 178  493.6881
 179  419.1781
 180  407.1076
 181  454.5525
 182  490.3322
 183  559.296
 184  475.3653
 185  461.0691
 186  472.0165
 187  561.1466
 188  487.0808
 189  472.5955
 190  516.2274
 191  519.6335
 192  450.1793
 193  563.8779
 194  520.0929
 195  545.5695
 196  509.3737
 197  390.8268
 198  423.116
 199  613.5239
 200  606.8448
 201  531.1511
 202  504.5295
 203  511.1724
 204  580.9046
 205  600.2866
 206  538.1097
 207  543.2266
 208  590.5689
 209  516.3929
 210  505.6081
 211  515.712
 212  377.8816
 213  341.3074
 214  530.2618
 215  514.5747
 216  521.9982
 217  440.6418
 218  486.4275
 219  455.8197
 220  388.9361
 221  516.8591
 222  419.6618
 223  419.9946
 224  453.7518
 225  391.3997
 226  298.1039
 227  378.3435
 228  498.6818
 229  505.1596
 230  363.0689
 231  450.4303
 232  467.6159
 233  558.7299
 234  369.8063
 235  293.953
 236  340.3053
 237  526.5001
 238  635.6546
 239  586.8755
 240  484.0029
 241  450.9826
 242  458.2994
 243  445.031
 244  437.936
 245  438.1015
 246  403.5828
 247  403.2113
 248  370.167
 249  485.8496
 250  535.5799
 251  426.636
 252  422.6715
 253  369.8577
 254  401.5605
 255  368.8953
 256  460.206
 257  401.5735
 258  433.1937
 259  492.9289
 260  525.2174
 261  385.8942
 262  345.1448
 263  335.836
 264  430.8989
 265  371.6046
 266  455.6615
 267  458.8733
 268  387.5108
 269  474.3843
 270  501.0916
 271  498.4834
 272  506.9225
 273  518.6175
 274  464.0093
 275  427.1588
 276  528.1539
 277  453.3411
 278  501.6999
 279  478.8792
 280  508.6053
 281  517.657
 282  583.5229
 283  570.9325
 284  458.4029
 285  546.9587
 286  583.5399
 287  462.6524
 288  465.2519
 289  486.6584
 290  483.6638
 291  399.9249
 292  354.7905
 293  484.2306
 294  548.8361
 295  380.0765
 296  532.1512
 297  495.347
 298  348.0289
 299  344.4648
 300  337.7459
 301  475.2495
 302  479.6054
 303  365.8675
 304  385.3994
 305  413.4319
 306  376.6786
 307  442.4754
 308  460.6888
 309  493.0415
 310  413.1434
 311  520.7154
 312  394.1289
 313  413.0673
 314  545.3498
 315  568.6492
 316  468.8533
 317  445.3933
 318  542.1107
 319  473.8788
 320  475.4061
 321  418.1552
 322  431.1037
 323  469.5736
 324  429.8265
 325  382.446
 326  538.6937
 327  616.2645
 328  477.4457
 329  542.4716
 330  595.8161
 331  548.1528
 332  708.5038
 333  682.5287
 334  535.9762
 335  545.6007
 336  532.9502
 337  488.4667
 338  365.0055
 339  460.6836
 340  555.606
 341  614.1114
 342  617.8264
 343  580.1932
 344  538.3601
 345  427.0151
 346  487.929
 347  518.4669
 348  493.0973
 349  477.3335
 350  423.5601
 351  468.3558
 352  553.3103
 353  625.9098
 354  480.7711
 355  453.7809
 356  454.5962
 357  513.6002
 358  453.6418
 359  462.5647
 360  467.0552
 361  437.8654
 362  405.6388
 363  444.9682
 364  355.0662
 365  464.2543
 366  512.4955
 367  425.4001
 368  588.0858
 369  553.7205
 370  482.7905
 371  476.3536
 372  375.2253
 373  464.3999
 374  546.0559
 375  507.8208
 376  641.0849
 377  509.4446
 378  555.576
 379  557.5833
 380  529.6489
 381  673.8903
 382  588.4147
 383  645.1094
 384  671.748
 385  627.678
 386  573.9172
 387  566.0578
 388  578.5481
 389  532.2405
 390  518.1279
 391  501.5881
 392  537.5236
 393  504.7444
 394  485.2426
 395  358.1608
 396  400.3515
 397  466.3549
 398  398.7049
 399  444.2875
 400  493.6971
 401  494.3776
 402  535.9453
 403  472.8907
 404  361.9571
 405  397.6532
 406  529.7375
 407  574.2998
 408  644.4531
 409  588.5491
 410  501.8824
 411  456.0684
 412  412.7245
 413  480.3201
 414  629.0478
 415  564.5386
 416  507.0325
 417  495.3629
 418  450.564
 419  573.1279
 420  546.6512
 421  566.6102
 422  473.9016
 423  558.2239
 424  562.0655
 425  431.3127
 426  539.6629
 427  521.5184
 428  545.8496
 429  532.9258
 430  544.6038
 431  493.4068
 432  409.868
 433  495.3279
 434  488.3151
 435  535.3367
 436  418.0939
 437  444.3208
 438  401.0018
 439  355.2964
 440  308.9209
 441  376.3389
 442  537.858
 443  467.5451
 444  463.3241
 445  461.7001
 446  502.015
 447  352.0314
 448  369.7162
 449  475.2099
 450  522.0601
 451  494.3058
 452  393.4539
 453  455.792
 454  473.7677
 455  499.9764
 456  435.0756
 457  460.2563
 458  570.5746
 459  568.6983
 460  574.37
 461  420.821
 462  358.0711
 463  434.9941
 464  547.4376
 465  561.8726
 466  507.461
 467  417.8323
 468  486.1063
 469  542.8745
 470  448.6251
 471  420.0994
 472  426.9046
 473  453.8279
 474  496.8723
 475  430.2206
 476  374.7036
 477  474.1606
 478  443.4302
 479  501.9535
 480  341.9419
 481  443.4999
 482  612.0891
 483  519.5532
 484  602.2352
 485  697.8443
 486  566.4949
 487  571.6595
 488  450.0921
 489  463.363
 490  447.6449
 491  519.1768
 492  504.7039
 493  608.8264
 494  631.6594
 495  669.9358
 496  610.0124
 497  548.0416
 498  543.2735
 499  441.2066
 500  559.229
 501  632.0358
 502  614.2852
 503  663.1459
 504  627.2446
 505  645.3224
 506  795.5324
 507  794.3246
 508  765.4835
 509  944.6811
 510  1125.179
 511  1320.075
