# Input file       =  1205841527.112188_cleaned.dat
# Candidate        =  PSR_0332+5434
# Telescope        =  AR
# Epoch_topo       =  58200.499376298474
# Epoch_bary       =  N/A
# T_sample         =  0.002
# Data Folded      =  7340032
# Data Avg         =  0.0383634627380948
# Data StdDev      =  5.24138209365084 
# Profile Bins     =  512
# Profile Avg      =  550.152426092044 
# Profile StdDev   =  627.566592883626 
# Reduced chi-sqr  =  1.194
# Prob(Noise)      <  0.00166   (~2.9 sigma)
# P_topo (ms)      =  714.57417690561   +/- 0.000502
# P'_topo (s/s)    =  -0                +/- 2.65e-10
# P''_topo (s/s^2) =  0                 +/- 1.17e-13
# P_bary (ms)      =  N/A
# P'_bary (s/s)    =  N/A
# P''_bary (s/s^2) =  N/A
# P_orb (s)        =  N/A
# asin(i)/c (s)    =  N/A
# eccentricity     =  N/A
# w (rad)          =  N/A
# T_peri           =  N/A
######################################################
   0  670.5704
   1  603.3916
   2  491.1093
   3  327.669
   4  669.9786
   5  530.3506
   6  555.7449
   7  278.007
   8  177.9478
   9  394.3258
  10  430.1786
  11  527.3228
  12  469.5832
  13  390.4465
  14  446.2787
  15  373.8226
  16  453.8547
  17  377.4377
  18  270.2758
  19  87.59604
  20  310.948
  21  188.8618
  22  175.7944
  23  40.77801
  24  192.6508
  25  -70.37057
  26  -236.5282
  27  -91.11671
  28  438.7563
  29  812.9407
  30  687.144
  31  522.0687
  32  280.4797
  33  317.5891
  34  445.9247
  35  248.7217
  36  0.9691892
  37  29.46636
  38  94.04062
  39  660.1373
  40  418.5495
  41  434.2821
  42  383.9183
  43  526.0548
  44  504.3491
  45  459.6651
  46  294.8461
  47  94.75484
  48  328.5467
  49  63.64484
  50  110.1048
  51  278.6989
  52  552.8231
  53  406.1555
  54  -103.6736
  55  -372.0134
  56  -294.3941
  57  236.9684
  58  215.6265
  59  -62.32286
  60  -114.6255
  61  -98.47434
  62  -118.4517
  63  120.6159
  64  44.58341
  65  348.8323
  66  576.2435
  67  575.6609
  68  505.6476
  69  624.4162
  70  582.0201
  71  673.5577
  72  374.6177
  73  421.6782
  74  597.6786
  75  880.7131
  76  1079.93
  77  697.2452
  78  809.2346
  79  1077.398
  80  934.5167
  81  1027.601
  82  1065.632
  83  747.4296
  84  721.8598
  85  384.757
  86  754.9689
  87  772.5502
  88  376.4626
  89  372.8308
  90  449.491
  91  118.7044
  92  165.0545
  93  387.133
  94  498.5685
  95  672.0929
  96  593.4688
  97  388.1506
  98  440.6149
  99  551.7611
 100  514.8052
 101  363.8577
 102  647.7326
 103  1141.14
 104  553.0354
 105  293.0289
 106  226.747
 107  557.4342
 108  653.1184
 109  696.7546
 110  781.7352
 111  782.0753
 112  573.8486
 113  683.5728
 114  601.0504
 115  454.7812
 116  606.4233
 117  794.4523
 118  663.696
 119  463.8542
 120  691.0231
 121  583.387
 122  730.6196
 123  1085.722
 124  996.6768
 125  1137.565
 126  1219.776
 127  1152.781
 128  813.7588
 129  622.7007
 130  230.2304
 131  598.949
 132  706.1844
 133  678.9106
 134  517.1395
 135  323.5213
 136  526.976
 137  396.6736
 138  809.8543
 139  902.0339
 140  896.1635
 141  1025.854
 142  1116.849
 143  912.6234
 144  1192.499
 145  1590.202
 146  1548.482
 147  1433.339
 148  1505.522
 149  1210.173
 150  1189.961
 151  1275.116
 152  1506.839
 153  1839.897
 154  1231.8
 155  1299.246
 156  1593.548
 157  1568.268
 158  1450.202
 159  1493.499
 160  1476.848
 161  1280.829
 162  1361.76
 163  1231.042
 164  1071.107
 165  899.5305
 166  967.6932
 167  607.6572
 168  760.0853
 169  785.2067
 170  726.8024
 171  748.6053
 172  878.7787
 173  982.1113
 174  909.8197
 175  1070.353
 176  903.1642
 177  947.5855
 178  887.8199
 179  765.8862
 180  1228.249
 181  1201.29
 182  1003.77
 183  1066.229
 184  1284.634
 185  1343.98
 186  1578.734
 187  1486.33
 188  1552.005
 189  1318.505
 190  1473.279
 191  1252.313
 192  682.108
 193  753.0218
 194  1123.522
 195  1332.424
 196  1141.398
 197  876.6779
 198  863.3472
 199  738.9772
 200  438.3248
 201  292.1483
 202  383.1449
 203  370.2258
 204  483.3163
 205  438.4029
 206  509.1748
 207  520.5365
 208  242.024
 209  -169.9812
 210  238.3717
 211  313.7937
 212  547.9412
 213  459.2656
 214  522.7222
 215  450.8508
 216  508.6406
 217  350.9864
 218  266.6334
 219  609.4704
 220  543.7585
 221  339.2221
 222  660.6396
 223  632.4365
 224  588.908
 225  728.4499
 226  673.6535
 227  595.994
 228  605.2306
 229  604.9193
 230  203.6008
 231  589.8578
 232  445.1149
 233  562.5952
 234  678.5505
 235  761.4835
 236  415.7794
 237  567.343
 238  436.5699
 239  504.6686
 240  170.7847
 241  -197.1686
 242  101.1875
 243  225.2037
 244  76.78585
 245  -75.39093
 246  -19.88293
 247  -161.3047
 248  -141.0008
 249  -300.5448
 250  -763.1322
 251  -452.0027
 252  -20.97516
 253  -305.7011
 254  -68.66891
 255  136.5694
 256  108.8305
 257  -173.4895
 258  -276.5532
 259  102.3139
 260  85.26718
 261  -260.63
 262  -332.8058
 263  -423.5612
 264  -70.34035
 265  -201.3384
 266  -7.647883
 267  -162.9278
 268  -339.0422
 269  -531.5458
 270  -141.6927
 271  -288.6017
 272  -37.22594
 273  -170.9654
 274  -401.4996
 275  -481.8202
 276  -803.0852
 277  -856.7452
 278  -684.8349
 279  -189.2926
 280  -136.6817
 281  -560.6047
 282  -295.0854
 283  -193.5512
 284  -420.0024
 285  -363.0085
 286  -145.5281
 287  -121.0774
 288  94.47668
 289  115.2427
 290  105.3405
 291  357.3531
 292  229.7127
 293  353.9869
 294  557.6045
 295  896.1238
 296  839.082
 297  907.3589
 298  1031.108
 299  1110.408
 300  1422.939
 301  2264.604
 302  2706.238
 303  2918.162
 304  2791.89
 305  2395.444
 306  1723.206
 307  1046.631
 308  831.8221
 309  735.7422
 310  839.0718
 311  709.799
 312  789.9752
 313  1213.698
 314  1095.008
 315  1014.079
 316  1308.482
 317  1601.04
 318  1367.962
 319  1580.764
 320  1353.312
 321  1413.775
 322  1359.968
 323  1176.821
 324  1096.335
 325  834.885
 326  769.5375
 327  844.7875
 328  618.2213
 329  665.2318
 330  626.6088
 331  724.1694
 332  247.8785
 333  324.3062
 334  347.306
 335  396.4054
 336  670.8597
 337  605.1049
 338  473.9179
 339  66.10446
 340  331.8174
 341  380.0781
 342  178.3132
 343  478.8127
 344  228.3214
 345  60.66224
 346  57.12373
 347  378.8027
 348  656.584
 349  224.4791
 350  409.051
 351  598.2713
 352  714.8871
 353  180.1128
 354  2.670543
 355  34.31977
 356  288.772
 357  188.4149
 358  222.7625
 359  -49.25005
 360  92.48686
 361  -27.61238
 362  -117.9735
 363  82.81621
 364  365.7535
 365  583.0479
 366  437.1845
 367  536.8464
 368  952.3612
 369  728.8016
 370  856.1812
 371  953.9669
 372  814.1754
 373  769.7639
 374  590.4803
 375  634.422
 376  566.5055
 377  758.3808
 378  860.3988
 379  820.326
 380  1105.713
 381  828.261
 382  882.1249
 383  812.0283
 384  507.9357
 385  571.1953
 386  662.1751
 387  628.9025
 388  759.3707
 389  1011.111
 390  1073.182
 391  953.3831
 392  939.2478
 393  597.832
 394  284.8243
 395  545.4567
 396  899.1081
 397  755.5468
 398  800.4465
 399  868.9881
 400  1135.361
 401  1243.269
 402  783.3336
 403  782.2499
 404  1139.845
 405  827.6608
 406  774.382
 407  1199.873
 408  894.0253
 409  1144.063
 410  1087.584
 411  725.095
 412  559.092
 413  887.3842
 414  1046.427
 415  810.8625
 416  1106.342
 417  910.5024
 418  754.5614
 419  949.6666
 420  769.1462
 421  893.0856
 422  647.9263
 423  560.2371
 424  675.0416
 425  901.1755
 426  767.8947
 427  450.2846
 428  660.5441
 429  842.7175
 430  633.6402
 431  685.835
 432  857.9678
 433  440.3443
 434  338.3622
 435  495.456
 436  743.2181
 437  368.8169
 438  375.9013
 439  508.0966
 440  355.2052
 441  553.2874
 442  630.8443
 443  878.5237
 444  519.9384
 445  488.2958
 446  605.8013
 447  348.8994
 448  371.3968
 449  778.5695
 450  847.9296
 451  512.0003
 452  350.7684
 453  941.2159
 454  759.7244
 455  492.6251
 456  417.6999
 457  459.4012
 458  400.0795
 459  122.4552
 460  174.373
 461  217.6654
 462  299.2676
 463  169.3501
 464  6.80462
 465  224.1252
 466  191.7875
 467  179.7273
 468  -79.89252
 469  -122.4507
 470  4.091331
 471  94.3271
 472  238.1221
 473  228.743
 474  40.84275
 475  297.5305
 476  301.6597
 477  356.4081
 478  564.5812
 479  191.4297
 480  34.2994
 481  -88.20207
 482  77.65882
 483  329.5187
 484  351.1885
 485  245.0942
 486  424.8811
 487  296.3454
 488  287.9478
 489  457.3969
 490  562.3276
 491  620.6457
 492  680.3922
 493  657.165
 494  326.8428
 495  348.5446
 496  52.24199
 497  -34.21562
 498  52.66833
 499  257.399
 500  200.065
 501  15.50294
 502  59.09351
 503  314.9095
 504  553.7579
 505  309.8075
 506  170.3715
 507  -40.39627
 508  -107.9975
 509  -37.33275
 510  203.2191
 511  726.5892
