# Input file       =  1205770295.108667_cleaned.dat
# Candidate        =  PSR_0332+5434
# Telescope        =  AR
# Epoch_topo       =  58199.674931813272
# Epoch_bary       =  N/A
# T_sample         =  0.002
# Data Folded      =  7340032
# Data Avg         =  0.255479807168221
# Data StdDev      =  4.98633920148365 
# Profile Bins     =  512
# Profile Avg      =  3662.71773239602 
# Profile StdDev   =  597.029532998137 
# Reduced chi-sqr  =  0.710
# Prob(Noise)      <  1   (~0.0 sigma)
# P_topo (ms)      =  714.574896779348  +/- 0.000723
# P'_topo (s/s)    =  -0                +/- 3.82e-10
# P''_topo (s/s^2) =  0                 +/- 1.69e-13
# P_bary (ms)      =  N/A
# P'_bary (s/s)    =  N/A
# P''_bary (s/s^2) =  N/A
# P_orb (s)        =  N/A
# asin(i)/c (s)    =  N/A
# eccentricity     =  N/A
# w (rad)          =  N/A
# T_peri           =  N/A
######################################################
   0  3460.195
   1  3223.387
   2  3224.349
   3  3599.939
   4  4163.641
   5  3934.037
   6  3749.597
   7  3842.455
   8  3621.052
   9  4009.469
  10  3833.333
  11  3662.288
  12  3786.511
  13  3736.408
  14  3836.226
  15  3834.531
  16  3389.47
  17  3800.474
  18  3673.176
  19  3593.854
  20  3565.297
  21  3642.59
  22  3838.323
  23  3573.326
  24  3546.631
  25  3822.499
  26  4146.77
  27  4045.932
  28  4004.919
  29  3645.287
  30  3511.614
  31  3630.551
  32  3581.029
  33  3678.817
  34  4019.66
  35  4199.53
  36  4016.425
  37  3947.045
  38  3935.878
  39  3703.795
  40  3884.435
  41  3530.582
  42  3584.333
  43  4192.282
  44  3704.869
  45  3698.806
  46  3979.015
  47  3930.036
  48  4057.782
  49  4110.65
  50  3948.164
  51  4276.449
  52  4308.609
  53  4202.639
  54  4233.638
  55  4223.769
  56  4420.004
  57  4625.98
  58  5002.559
  59  4680.011
  60  4117.488
  61  4057.422
  62  4306.809
  63  4120.73
  64  4100.154
  65  4074.103
  66  4399.144
  67  4253.529
  68  3928.872
  69  4149.117
  70  4076.772
  71  4248.248
  72  3994.503
  73  3951.63
  74  4264.611
  75  3944.391
  76  3841.563
  77  3813.091
  78  3691.929
  79  3982.222
  80  4120.872
  81  3698.702
  82  3642.776
  83  3843.084
  84  4054.095
  85  3985.622
  86  3985.897
  87  3894.427
  88  3703.45
  89  3681.899
  90  4055.896
  91  4134.301
  92  4303.607
  93  3819.936
  94  4030.666
  95  3879.218
  96  3826.576
  97  3745.135
  98  3821.113
  99  3686.647
 100  4189.113
 101  4579.3
 102  4259.163
 103  3969.536
 104  3231.739
 105  3085.186
 106  3798.676
 107  3968.898
 108  3848.497
 109  3568.173
 110  3618.741
 111  3722.605
 112  3457.431
 113  3829.669
 114  4029.027
 115  3833.819
 116  3579.645
 117  3052.761
 118  3011.224
 119  3465.024
 120  3133.706
 121  3341.378
 122  3524.935
 123  3200.385
 124  3095.757
 125  3550.404
 126  3668.585
 127  3725.938
 128  3571.644
 129  3398.556
 130  3696.359
 131  3674.494
 132  3645.404
 133  3373.267
 134  3651.871
 135  4139.315
 136  3664.49
 137  3563.843
 138  3590.905
 139  3903.964
 140  3684.323
 141  3311.752
 142  3859.062
 143  3961.878
 144  3552.562
 145  3465.935
 146  3173.943
 147  3276.476
 148  3520.387
 149  3465.886
 150  3318.229
 151  3047.234
 152  3320.654
 153  3246.635
 154  3252.874
 155  3540.653
 156  3391.9
 157  3491.588
 158  3732.57
 159  3692.032
 160  3656.961
 161  3709.327
 162  4256.741
 163  4023.025
 164  3860.155
 165  4325.646
 166  3736.643
 167  3799.984
 168  3852.79
 169  3695.589
 170  3757.082
 171  3424.579
 172  3366.667
 173  3268.642
 174  3267.534
 175  3207.108
 176  3606.259
 177  3590.092
 178  3729.288
 179  3725.939
 180  3992.895
 181  3651.108
 182  3516.453
 183  3495.974
 184  3363.861
 185  3544.92
 186  3748.307
 187  3748.49
 188  3377.155
 189  3838.196
 190  3604.118
 191  3773.937
 192  3688.845
 193  3073.799
 194  3153.796
 195  3587.623
 196  3505.682
 197  3485.282
 198  3342.424
 199  3438.189
 200  3435.665
 201  3553.895
 202  3420.988
 203  3193.558
 204  3468.513
 205  3686.208
 206  3925.052
 207  4027.092
 208  4046.686
 209  4268.925
 210  3981.156
 211  3635.679
 212  3783.566
 213  3742.606
 214  3967.704
 215  4092.414
 216  3862.54
 217  3735.962
 218  3572.467
 219  3509.176
 220  3543.692
 221  3633.508
 222  3283.366
 223  3681.329
 224  3522.94
 225  3443.876
 226  3282.064
 227  3757.119
 228  3741.128
 229  3647.331
 230  3625.483
 231  3565.685
 232  3439.223
 233  3363.487
 234  3321.406
 235  3296.673
 236  3660.475
 237  3878.633
 238  3783.286
 239  3517.581
 240  3766.157
 241  3579.883
 242  3719.09
 243  3662.963
 244  3837.415
 245  4075.537
 246  3577.055
 247  3513.233
 248  3479.651
 249  3245.881
 250  3234.241
 251  3334.198
 252  3496.529
 253  3249.586
 254  3542.467
 255  3260.071
 256  2903.998
 257  3066.397
 258  3353.398
 259  3668.672
 260  4025.7
 261  3827.697
 262  3303.267
 263  3462.43
 264  3365.564
 265  3089.473
 266  3091.679
 267  2876.137
 268  3574.427
 269  3538.791
 270  3689.308
 271  3050.975
 272  3256.211
 273  3283.441
 274  3561.914
 275  3606.828
 276  3179.462
 277  3338.99
 278  3440.721
 279  3477.711
 280  3753.774
 281  3916.363
 282  3783.254
 283  3187.819
 284  2996.542
 285  3454.626
 286  3541.718
 287  3482.812
 288  3468.412
 289  3414.609
 290  3672.022
 291  3290.365
 292  2981.24
 293  3385.798
 294  3762.54
 295  3944.075
 296  3829.503
 297  3758.979
 298  3655.841
 299  4072.154
 300  4271.349
 301  4783.66
 302  5245.394
 303  5863.615
 304  5432.89
 305  4364.345
 306  3875.92
 307  3878.308
 308  3989.099
 309  3423.69
 310  3686.044
 311  3539.908
 312  3524.714
 313  3499.518
 314  3724.11
 315  3713.053
 316  3964.917
 317  4045.74
 318  3747.697
 319  3503.964
 320  3603.318
 321  3478.946
 322  3114.914
 323  3059.964
 324  3169.348
 325  3494.014
 326  3245.501
 327  3262.225
 328  3279.811
 329  3374.557
 330  3526.548
 331  3083.444
 332  3003.927
 333  3410.226
 334  3130.768
 335  2955.032
 336  3188.278
 337  3080.748
 338  2891.499
 339  3440.838
 340  3671.545
 341  3467.862
 342  3519.494
 343  3578.273
 344  3480.081
 345  3328.856
 346  3352.113
 347  3402.488
 348  3432.252
 349  3688.948
 350  3697.64
 351  3451.493
 352  3473.444
 353  3438.887
 354  3609.201
 355  3912.038
 356  3707.65
 357  3752.552
 358  3137.506
 359  3237.882
 360  3482.167
 361  3626.731
 362  3847.676
 363  3436.068
 364  3499.079
 365  3979.077
 366  3938.171
 367  3825.733
 368  3801.331
 369  4019.39
 370  3896.526
 371  3767.487
 372  3953.185
 373  4490.219
 374  4200.773
 375  4011.938
 376  4071.346
 377  4124.356
 378  3841.147
 379  3863.673
 380  3996.338
 381  3971.609
 382  3608.555
 383  3940.394
 384  3600.816
 385  3781.324
 386  3455.271
 387  3155.79
 388  3307.638
 389  3192.053
 390  3403.327
 391  3449.771
 392  3536.373
 393  3606.035
 394  3678.547
 395  3592.565
 396  3858.995
 397  3466.974
 398  3347.134
 399  3556.387
 400  3354.545
 401  3513.167
 402  3553.35
 403  3365.745
 404  3303.604
 405  3491.54
 406  3379.793
 407  3559.29
 408  3347.195
 409  3013.176
 410  3140.059
 411  3180.87
 412  3039.127
 413  2935.906
 414  3106.628
 415  3058.883
 416  3202.056
 417  3453.404
 418  3457.139
 419  3637.133
 420  3582.04
 421  3326.323
 422  3069.743
 423  3178.159
 424  3389.052
 425  3365.21
 426  3356.34
 427  2993.687
 428  3150.062
 429  3658.663
 430  3642.66
 431  3113.167
 432  3510.266
 433  3471.512
 434  3277.577
 435  3281.425
 436  3525.56
 437  3638.188
 438  3496.003
 439  4076.176
 440  3929.074
 441  3864.912
 442  3633.369
 443  3652.102
 444  3364.912
 445  3408.878
 446  3464.823
 447  3375.469
 448  3105.548
 449  3170.445
 450  3191.837
 451  3191.585
 452  3222.294
 453  3301.519
 454  3565.496
 455  3384.601
 456  3555.002
 457  3759.204
 458  3650.467
 459  3680.393
 460  3455.91
 461  3509.694
 462  3968.642
 463  3929.155
 464  4056.139
 465  3881.151
 466  3960.077
 467  4144.093
 468  4128.033
 469  3616.359
 470  3601.606
 471  3458.396
 472  3826.74
 473  3776.454
 474  3921.033
 475  4006.587
 476  3813.741
 477  3748.459
 478  4206.051
 479  4039.686
 480  3416.894
 481  3889.83
 482  4126.284
 483  3747.86
 484  3672.121
 485  3871.197
 486  3801.26
 487  3811.111
 488  4143.425
 489  4053.558
 490  3992.887
 491  3895.869
 492  3903.608
 493  4052.722
 494  4307.145
 495  3962.297
 496  4055.357
 497  3935.205
 498  4123.328
 499  3772.495
 500  3218.013
 501  3051.112
 502  3330.806
 503  3885.135
 504  3690.672
 505  3703.311
 506  3883.85
 507  3911.4
 508  3895.037
 509  3947.018
 510  3523.914
 511  3604.38
