# Input file       =  1205826898.111558_cleaned.dat
# Candidate        =  PSR_0332+5434
# Telescope        =  AR
# Epoch_topo       =  58200.330059161548
# Epoch_bary       =  N/A
# T_sample         =  0.002
# Data Folded      =  7143424
# Data Avg         =  0.014758395889413
# Data StdDev      =  1.00000998866765 
# Profile Bins     =  512
# Profile Avg      =  205.865953597172 
# Profile StdDev   =  118.119764329151 
# Reduced chi-sqr  =  1.904
# Prob(Noise)      <  3.75e-31   (~11.5 sigma)
# P_topo (ms)      =  714.574241288076  +/- 6.27e-05
# P'_topo (s/s)    =  -0                +/- 3.4e-11
# P''_topo (s/s^2) =  0                 +/- 1.54e-14
# P_bary (ms)      =  N/A
# P'_bary (s/s)    =  N/A
# P''_bary (s/s^2) =  N/A
# P_orb (s)        =  N/A
# asin(i)/c (s)    =  N/A
# eccentricity     =  N/A
# w (rad)          =  N/A
# T_peri           =  N/A
######################################################
   0  930.7761
   1  942.1325
   2  838.3322
   3  577.9903
   4  261.5273
   5  93.26527
   6  -46.73338
   7  76.16102
   8  239.7376
   9  293.4446
  10  175.9212
  11  186.5325
  12  350.1221
  13  296.448
  14  209.1985
  15  156.3147
  16  158.7136
  17  66.0458
  18  76.53757
  19  205.3557
  20  283.8109
  21  214.2414
  22  58.32258
  23  119.8228
  24  223.11
  25  200.2255
  26  248.8565
  27  408.7484
  28  301.0036
  29  82.36933
  30  104.9202
  31  53.60766
  32  67.60609
  33  66.21359
  34  11.32901
  35  -10.69105
  36  157.754
  37  331.4485
  38  200.6951
  39  58.14132
  40  101.5335
  41  94.05428
  42  176.3745
  43  291.2237
  44  322.6767
  45  375.3007
  46  271.3116
  47  182.9595
  48  114.0728
  49  153.3721
  50  9.55652
  51  55.79808
  52  142.9098
  53  215.5571
  54  117.2458
  55  122.7961
  56  223.7476
  57  243.2064
  58  216.4214
  59  271.7654
  60  331.118
  61  298.5122
  62  189.7212
  63  179.3509
  64  166.176
  65  153.3103
  66  293.0958
  67  153.3167
  68  92.68681
  69  118.0019
  70  84.67008
  71  164.3119
  72  243.3904
  73  214.5846
  74  218.2129
  75  245.6759
  76  277.8315
  77  261.5756
  78  266.6137
  79  343.1407
  80  144.2492
  81  77.54594
  82  154.2653
  83  177.3891
  84  300.2744
  85  277.8057
  86  219.5508
  87  160.3348
  88  132.5978
  89  269.1804
  90  66.36674
  91  69.00289
  92  159.1729
  93  276.3168
  94  252.3215
  95  181.8009
  96  223.5042
  97  210.1024
  98  48.48959
  99  112.056
 100  228.7308
 101  244.2363
 102  275.0739
 103  148.4627
 104  231.7879
 105  261.2112
 106  240.9853
 107  239.016
 108  204.8063
 109  310.6059
 110  344.1469
 111  397.3058
 112  341.9012
 113  123.8369
 114  101.6399
 115  14.71271
 116  109.3457
 117  169.624
 118  281.7011
 119  212.4416
 120  127.6183
 121  207.2143
 122  168.9852
 123  228.434
 124  198.9828
 125  205.6124
 126  342.3777
 127  242.408
 128  274.3602
 129  219.5463
 130  229.7652
 131  167.9649
 132  113.0278
 133  90.56168
 134  -74.14375
 135  38.64426
 136  298.4139
 137  236.2778
 138  129.2708
 139  136.6621
 140  238.6787
 141  327.323
 142  348.0896
 143  320.8677
 144  270.0174
 145  239.5389
 146  183.2444
 147  225.1015
 148  232.5324
 149  69.27846
 150  131.9672
 151  146.3015
 152  204.9122
 153  213.4568
 154  59.38189
 155  -55.22685
 156  113.3924
 157  191.6937
 158  294.764
 159  168.2812
 160  104.2864
 161  206.5332
 162  199.6299
 163  124.775
 164  66.72916
 165  87.70819
 166  182.0298
 167  217.3841
 168  239.446
 169  190.3439
 170  242.5365
 171  175.8522
 172  81.31406
 173  291.3118
 174  315.6964
 175  272.1437
 176  264.4341
 177  258.08
 178  129.444
 179  118.0069
 180  107.6467
 181  123.4701
 182  107.7954
 183  165.8571
 184  221.6902
 185  371.7153
 186  256.1425
 187  128.2156
 188  198.0524
 189  107.0773
 190  136.519
 191  212.3665
 192  271.6385
 193  235.0625
 194  125.7048
 195  109.4376
 196  189.9231
 197  190.149
 198  132.5296
 199  94.82484
 200  88.76151
 201  175.6054
 202  62.9368
 203  51.03324
 204  115.0222
 205  130.1338
 206  67.47443
 207  199.1826
 208  200.7636
 209  175.1338
 210  216.8251
 211  312.5339
 212  227.3804
 213  197.5108
 214  278.9308
 215  277.5028
 216  164.4898
 217  153.2481
 218  291.6789
 219  244.0935
 220  52.69786
 221  53.69331
 222  122.3522
 223  124.1311
 224  200.0105
 225  300.0457
 226  391.5206
 227  235.335
 228  163.4644
 229  143.0602
 230  91.62694
 231  69.18459
 232  137.5361
 233  172.5562
 234  176.5781
 235  143.2917
 236  71.46559
 237  -11.52397
 238  -14.91015
 239  -1.341248
 240  208.4663
 241  240.6627
 242  321.2058
 243  359.8832
 244  249.2471
 245  166.2899
 246  103.0338
 247  129.1727
 248  224.3187
 249  279.968
 250  323.7243
 251  276.8635
 252  206.4568
 253  139.0126
 254  36.75167
 255  39.64236
 256  71.20303
 257  188.998
 258  237.3333
 259  337.3283
 260  370.5869
 261  495.6768
 262  267.841
 263  179.3699
 264  227.545
 265  201.8678
 266  156.5407
 267  261.0326
 268  126.7924
 269  38.55552
 270  4.489215
 271  88.71689
 272  193.7685
 273  260.6326
 274  317.513
 275  269.9144
 276  216.6965
 277  281.0053
 278  245.6774
 279  152.994
 280  161.5342
 281  344.1686
 282  261.0562
 283  238.1857
 284  261.1575
 285  216.2001
 286  247.7679
 287  261.174
 288  259.5557
 289  249.2235
 290  308.1431
 291  402.5004
 292  235.1927
 293  346.7069
 294  274.1259
 295  232.3463
 296  212.9165
 297  60.37795
 298  135.4119
 299  233.6169
 300  395.2593
 301  190.5945
 302  193.7592
 303  174.7604
 304  222.9602
 305  232.4693
 306  193.1015
 307  396.7719
 308  369.6537
 309  459.4629
 310  303.0564
 311  160.5969
 312  113.5988
 313  153.8508
 314  268.7851
 315  170.299
 316  128.0424
 317  141.3504
 318  168.5887
 319  72.96623
 320  187.8359
 321  151.5283
 322  123.2559
 323  271.7285
 324  444.4915
 325  423.9926
 326  260.8699
 327  112.8796
 328  100.2545
 329  151.6015
 330  145.6446
 331  161.2422
 332  246.4958
 333  212.6078
 334  207.9406
 335  185.3134
 336  192.381
 337  183.2504
 338  76.79375
 339  146.4443
 340  122.3681
 341  168.2637
 342  211.4986
 343  365.4293
 344  291.1984
 345  168.1507
 346  161.7602
 347  285.3923
 348  141.8762
 349  40.60663
 350  110.9851
 351  126.1016
 352  81.8831
 353  238.1794
 354  185.4198
 355  200.0935
 356  235.4323
 357  347.115
 358  446.7025
 359  420.1591
 360  258.4861
 361  243.1243
 362  271.7642
 363  306.2913
 364  212.5731
 365  222.202
 366  348.2419
 367  252.8918
 368  156.4216
 369  87.49947
 370  114.0794
 371  192.8664
 372  294.8868
 373  418.373
 374  428.9477
 375  361.6223
 376  164.5116
 377  111.2459
 378  167.2947
 379  91.08492
 380  138.7875
 381  190.918
 382  251.0182
 383  225.784
 384  178.1499
 385  46.78429
 386  113.1331
 387  141.4903
 388  157.4655
 389  208.9766
 390  312.6259
 391  373.5987
 392  410.5919
 393  408.3732
 394  318.3074
 395  317.5302
 396  417.7418
 397  305.0176
 398  261.2358
 399  237.37
 400  186.1535
 401  225.6257
 402  164.6248
 403  127.9773
 404  186.3249
 405  275.4619
 406  264.3339
 407  260.5999
 408  274.684
 409  307.801
 410  226.4879
 411  110.8027
 412  125.2975
 413  163.9578
 414  152.7765
 415  319.241
 416  227.3606
 417  156.3525
 418  180.0794
 419  41.33598
 420  38.25619
 421  103.5861
 422  153.8273
 423  235.4926
 424  205.746
 425  298.3923
 426  219.8827
 427  90.37615
 428  206.8372
 429  139.2897
 430  180.5875
 431  159.3736
 432  222.8186
 433  219.4383
 434  216.6131
 435  209.5246
 436  196.2921
 437  158.1883
 438  233.4768
 439  309.1907
 440  290.7614
 441  323.5311
 442  235.898
 443  149.3026
 444  35.80289
 445  61.78495
 446  192.282
 447  169.4159
 448  144.1578
 449  120.2569
 450  299.5
 451  233.0569
 452  97.0652
 453  131.971
 454  141.8131
 455  224.0226
 456  235.172
 457  269.9773
 458  269.1998
 459  272.916
 460  115.005
 461  14.62236
 462  138.7371
 463  219.005
 464  149.1556
 465  172.277
 466  129.6272
 467  147.3083
 468  140.8049
 469  41.49088
 470  93.71842
 471  210.2239
 472  222.5957
 473  136.6592
 474  360.2359
 475  387.0559
 476  250.9748
 477  103.133
 478  173.8414
 479  63.64363
 480  206.5754
 481  148.2992
 482  229.8414
 483  271.8075
 484  201.2185
 485  201.5866
 486  85.44662
 487  188.8507
 488  228.3699
 489  204.0788
 490  250.0913
 491  231.7654
 492  148.9524
 493  184.5942
 494  119.5307
 495  224.2728
 496  145.0363
 497  -12.76203
 498  112.2652
 499  157.1332
 500  153.0658
 501  -39.36941
 502  49.28759
 503  218.1752
 504  285.2584
 505  468.0194
 506  521.7552
 507  450.6258
 508  411.3259
 509  538.7217
 510  718.6006
 511  885.3953
