# Input file       =  1205770295.108667-PSRB0329-2ms-sampling-dd.dat
# Candidate        =  PSR_0332+5434
# Telescope        =  AR
# Epoch_topo       =  58199.674931813272
# Epoch_bary       =  N/A
# T_sample         =  0.002
# Data Folded      =  7340032
# Data Avg         =  -2.42548687161104e-11
# Data StdDev      =  7.86873290448941 
# Profile Bins     =  512
# Profile Avg      =  -0.211947853728372
# Profile StdDev   =  942.147283092288 
# Reduced chi-sqr  =  0.564
# Prob(Noise)      <  1   (~0.0 sigma)
# P_topo (ms)      =  714.574896698805  +/- 0.00073
# P'_topo (s/s)    =  -0                +/- 3.85e-10
# P''_topo (s/s^2) =  0                 +/- 1.7e-13
# P_bary (ms)      =  N/A
# P'_bary (s/s)    =  N/A
# P''_bary (s/s^2) =  N/A
# P_orb (s)        =  N/A
# asin(i)/c (s)    =  N/A
# eccentricity     =  N/A
# w (rad)          =  N/A
# T_peri           =  N/A
######################################################
   0  -511.2772
   1  -573.6425
   2  -342.164
   3  -128.1897
   4  -91.67431
   5  -545.2885
   6  -794.5742
   7  -535.1113
   8  255.8211
   9  600.7344
  10  513.5101
  11  470.1995
  12  611.6918
  13  806.1418
  14  88.19383
  15  40.37003
  16  840.3522
  17  1081.098
  18  803.8309
  19  639.7961
  20  132.7283
  21  352.9
  22  407.0325
  23  260.3011
  24  340.9469
  25  294.4684
  26  201.8926
  27  315.5371
  28  179.4546
  29  59.07663
  30  -15.4468
  31  -144.0369
  32  -237.2344
  33  -411.5773
  34  -7.017296
  35  -89.62416
  36  0.2684205
  37  24.61039
  38  -289.785
  39  -306.614
  40  186.4757
  41  234.0642
  42  -190.7211
  43  88.22501
  44  97.78896
  45  152.6342
  46  754.1143
  47  933.6841
  48  1608.982
  49  1075.054
  50  727.7464
  51  387.2972
  52  -408.3458
  53  -464.4133
  54  228.9956
  55  577.4478
  56  632.0497
  57  295.6811
  58  82.60653
  59  -652.4218
  60  -570.1671
  61  -434.5823
  62  -149.4553
  63  267.4409
  64  127.2184
  65  -219.6998
  66  -559.5038
  67  -417.5585
  68  -737.4282
  69  -821.1364
  70  -1231.151
  71  -669.1191
  72  -604.0258
  73  -379.8303
  74  -630.6352
  75  -701.7633
  76  -491.249
  77  -415.1737
  78  54.52096
  79  -408.2723
  80  -332.0802
  81  -186.155
  82  -182.6765
  83  -231.8206
  84  84.81594
  85  154.5704
  86  174.9556
  87  -246.7763
  88  -783.3723
  89  -443.9631
  90  -550.407
  91  -155.7725
  92  46.90177
  93  -130.5071
  94  -266.5143
  95  -573.5338
  96  -323.8546
  97  204.1636
  98  599.8511
  99  917.0836
 100  472.8218
 101  89.44292
 102  401.1497
 103  1043.004
 104  1404.216
 105  1775.682
 106  2246.82
 107  2355.444
 108  1436.107
 109  699.4302
 110  438.7671
 111  481.3839
 112  -268.0625
 113  16.41747
 114  269.2792
 115  110.3075
 116  -24.37427
 117  161.3607
 118  59.76269
 119  311.3764
 120  294.771
 121  308.3795
 122  178.6554
 123  -15.31469
 124  -466.2719
 125  -1026.615
 126  -735.9095
 127  -397.7539
 128  -24.91711
 129  -245.3353
 130  -602.788
 131  -685.4484
 132  -762.5635
 133  -745.8389
 134  -810.7527
 135  -926.7877
 136  -263.9433
 137  -160.7858
 138  22.1405
 139  136.1983
 140  -394.8898
 141  -634.2821
 142  -342.5988
 143  502.7123
 144  -31.27659
 145  432.9872
 146  506.5497
 147  193.8326
 148  -197.9916
 149  -492.7481
 150  -512.7703
 151  -690.8286
 152  -157.8619
 153  -79.89579
 154  -55.12304
 155  -116.3928
 156  -400.833
 157  -423.287
 158  -189.2413
 159  -84.6097
 160  8.779938
 161  -412.5819
 162  -415.3948
 163  330.3999
 164  410.8943
 165  868.5391
 166  151.6295
 167  -219.7461
 168  462.9587
 169  61.50426
 170  974.649
 171  641.9441
 172  417.4033
 173  284.7885
 174  -70.22773
 175  160.9366
 176  181.0727
 177  659.869
 178  526.98
 179  81.18703
 180  -130.5675
 181  55.43352
 182  129.6914
 183  123.9946
 184  236.7697
 185  -576.5265
 186  -478.3984
 187  -643.9536
 188  -419.782
 189  98.11723
 190  -411.6924
 191  -249.9158
 192  -845.976
 193  -693.7246
 194  -746.7672
 195  -818.3317
 196  -147.8629
 197  238.3275
 198  35.948
 199  -251.059
 200  -485.7248
 201  -774.7685
 202  -354.2319
 203  -247.7534
 204  43.43692
 205  235.9077
 206  -170.0537
 207  -80.70485
 208  -307.4035
 209  -584.4791
 210  -359.1537
 211  -247.4108
 212  -734.7964
 213  -431.1789
 214  -364.3834
 215  -502.885
 216  -1008.284
 217  -1039.679
 218  -1203.167
 219  -1089.648
 220  -978.7814
 221  -434.2914
 222  26.01963
 223  284.5843
 224  -486.3271
 225  -981.282
 226  -1033.659
 227  -836.6611
 228  -271.8703
 229  -341.1201
 230  -614.7219
 231  -1050.626
 232  -238.2932
 233  234.0095
 234  -833.9723
 235  -523.818
 236  -232.7971
 237  -352.7917
 238  -386.7499
 239  -168.3776
 240  547.1354
 241  88.34769
 242  254.3958
 243  291.4131
 244  162.0297
 245  -90.59106
 246  -168.9775
 247  354.5003
 248  264.3503
 249  243.2066
 250  191.3184
 251  -479.1616
 252  -652.8225
 253  -900.2836
 254  -408.2136
 255  -328.9746
 256  -556.8112
 257  60.64787
 258  481.1832
 259  121.1725
 260  -173.6367
 261  -228.8445
 262  0.08388072
 263  111.4753
 264  84.92532
 265  442.9663
 266  739.829
 267  324.7966
 268  220.7111
 269  78.04058
 270  530.572
 271  705.5696
 272  422.1544
 273  325.2474
 274  -14.21477
 275  343.8341
 276  132.7155
 277  432.9326
 278  613.0937
 279  531.2284
 280  397.3145
 281  541.2935
 282  630.9787
 283  -434.7633
 284  -29.08279
 285  452.7498
 286  329.9935
 287  155.3449
 288  159.1601
 289  188.9966
 290  164.7912
 291  249.5005
 292  487.3358
 293  411.211
 294  335.4097
 295  389.7284
 296  86.05156
 297  521.3012
 298  615.8547
 299  638.3882
 300  209.3447
 301  179.3938
 302  322.1163
 303  -636.419
 304  -655.3586
 305  -1052.487
 306  -193.7131
 307  308.8666
 308  -111.7866
 309  240.1603
 310  331.5627
 311  386.4137
 312  534.9859
 313  79.30585
 314  78.43304
 315  568.601
 316  -158.6537
 317  -567.064
 318  -357.8083
 319  188.7888
 320  -10.85599
 321  -231.4401
 322  385.0476
 323  -85.25982
 324  -106.007
 325  120.5317
 326  -229.2222
 327  -483.2099
 328  -578.0153
 329  -433.2133
 330  -201.3848
 331  -426.8326
 332  -538.3702
 333  -355.6324
 334  -690.6202
 335  -705.233
 336  -654.3079
 337  -246.7025
 338  -479.4422
 339  -420.1168
 340  -144.9857
 341  247.4252
 342  328.9929
 343  -66.80009
 344  -45.72789
 345  -151.4091
 346  -74.94437
 347  -132.7869
 348  -158.1403
 349  621.3606
 350  124.8742
 351  259.9256
 352  -22.37016
 353  -18.04126
 354  -159.3202
 355  -197.2183
 356  -349.6065
 357  -687.4511
 358  -96.62135
 359  -382.4223
 360  -729.6335
 361  -486.662
 362  -509.687
 363  40.30522
 364  169.9283
 365  145.7042
 366  300.9485
 367  723.5958
 368  664.0566
 369  -19.62386
 370  393.9624
 371  775.2001
 372  862.8336
 373  1040.121
 374  914.4319
 375  506.788
 376  122.5691
 377  740.0482
 378  954.4526
 379  819.4581
 380  343.633
 381  767.5817
 382  1153.557
 383  1150.913
 384  1289.216
 385  1356.475
 386  687.659
 387  262.6209
 388  90.21338
 389  808.237
 390  320.2513
 391  -215.1962
 392  265.2238
 393  334.3473
 394  232.5597
 395  729.5461
 396  105.6133
 397  7.463127
 398  0.6476623
 399  129.4679
 400  123.4919
 401  108.3163
 402  136.4203
 403  -320.9085
 404  -356.2999
 405  88.95907
 406  377.2722
 407  688.0535
 408  542.521
 409  458.0287
 410  388.18
 411  -84.59756
 412  -302.1864
 413  -171.989
 414  315.4133
 415  822.2141
 416  1264.621
 417  875.4899
 418  182.1055
 419  -725.181
 420  -505.0859
 421  279.7156
 422  866.83
 423  726.1583
 424  344.7576
 425  290.8567
 426  -118.6378
 427  124.4189
 428  368.9129
 429  739.7222
 430  443.9667
 431  436.7121
 432  -141.0846
 433  -712.9153
 434  -723.8527
 435  -432.3991
 436  -493.6031
 437  -204.1776
 438  -545.1778
 439  -428.0716
 440  -81.30737
 441  373.5211
 442  86.63139
 443  -131.2819
 444  -291.5757
 445  -219.0835
 446  -184.6619
 447  -45.38324
 448  -16.27286
 449  -122.6615
 450  760.0354
 451  460.3487
 452  -12.85664
 453  -424.7289
 454  -295.0617
 455  192.8059
 456  -163.423
 457  254.4697
 458  594.2571
 459  -14.64393
 460  -355.3731
 461  -765.1167
 462  -1083.53
 463  -980.8345
 464  -260.0884
 465  -53.70946
 466  -290.9885
 467  -312.3886
 468  40.63332
 469  -346.0787
 470  -501.1901
 471  -585.6119
 472  -301.0801
 473  -177.5464
 474  208.9346
 475  471.6502
 476  -114.0544
 477  444.1418
 478  400.9025
 479  298.7669
 480  825.8026
 481  485.2097
 482  274.5168
 483  378.5077
 484  -313.3172
 485  -81.0507
 486  -14.47055
 487  478.451
 488  -325.5521
 489  -356.2822
 490  -55.70618
 491  229.6309
 492  103.4059
 493  -340.2456
 494  -369.163
 495  -422.9041
 496  -670.2343
 497  -902.7784
 498  -978.454
 499  -872.2397
 500  -374.9534
 501  43.49644
 502  -55.43789
 503  -376.1154
 504  -126.8458
 505  -458.8737
 506  -249.4606
 507  193.2006
 508  -113.8078
 509  -534.2396
 510  -302.7031
 511  -356.6081
