# Input file       =  1205065935.111248-PSRB0329-2ms-sampling-dd.dat
# Candidate        =  PSR_0332+5434
# Telescope        =  AR
# Epoch_topo       =  58191.522617028335
# Epoch_bary       =  N/A
# T_sample         =  0.002
# Data Folded      =  7340032
# Data Avg         =  -4.00455818534615e-10
# Data StdDev      =  13.8897826748433 
# Profile Bins     =  512
# Profile Avg      =  0.877990395445555
# Profile StdDev   =  1663.06585427239 
# Reduced chi-sqr  =  1.484
# Prob(Noise)      <  6.25e-12   (~6.8 sigma)
# P_topo (ms)      =  714.577754116658  +/- 0.000387
# P'_topo (s/s)    =  -0                +/- 2.04e-10
# P''_topo (s/s^2) =  0                 +/- 9.03e-14
# P_bary (ms)      =  N/A
# P'_bary (s/s)    =  N/A
# P''_bary (s/s^2) =  N/A
# P_orb (s)        =  N/A
# asin(i)/c (s)    =  N/A
# eccentricity     =  N/A
# w (rad)          =  N/A
# T_peri           =  N/A
######################################################
   0  -1293.789
   1  -620.4877
   2  48.5805
   3  151.6605
   4  330.1104
   5  -59.5364
   6  -513.879
   7  -809.9927
   8  -712.8228
   9  -555.6201
  10  -803.2231
  11  -443.261
  12  -172.6676
  13  -936.2422
  14  -1338.82
  15  -810.2153
  16  -636.9868
  17  -164.1447
  18  -515.9551
  19  -430.893
  20  -284.6061
  21  -237.7766
  22  -314.9848
  23  -489.2729
  24  -470.2672
  25  -1072.368
  26  -990.1205
  27  -306.097
  28  -284.8603
  29  -249.4724
  30  259.5097
  31  799.56
  32  1308.336
  33  1112.423
  34  770.9716
  35  1905.632
  36  2826.19
  37  3709.042
  38  2012.15
  39  1684.275
  40  1374.547
  41  1052.266
  42  1336.582
  43  1285.659
  44  1817.869
  45  2980.939
  46  2651.941
  47  2107.265
  48  761.9529
  49  1040.25
  50  925.3546
  51  797.0323
  52  32.41644
  53  -20.72065
  54  419.8138
  55  1077.272
  56  1516.899
  57  1499.274
  58  1757.195
  59  1744.947
  60  2341.76
  61  1671.825
  62  1268.139
  63  1486.46
  64  1739.895
  65  2720.631
  66  2523.581
  67  2484.749
  68  2048.607
  69  2224.827
  70  1991.309
  71  840.8542
  72  797.973
  73  1232.556
  74  1091.526
  75  1618.714
  76  1631.906
  77  1506.557
  78  2079.652
  79  2375.171
  80  2365.255
  81  2226.967
  82  2339.452
  83  2930.254
  84  2764.633
  85  1136.145
  86  1689.541
  87  2842.913
  88  5207.446
  89  5756.677
  90  5023.618
  91  3331.411
  92  1399.616
  93  1274.538
  94  2032.004
  95  3308.667
  96  4061.773
  97  4146.571
  98  3157.523
  99  2346.825
 100  1763.344
 101  2176.339
 102  3768.96
 103  4612.266
 104  5011.551
 105  3458.701
 106  2728.542
 107  2309.226
 108  3837.641
 109  4305.1
 110  4355.227
 111  3606.324
 112  2286.503
 113  1068.69
 114  -25.19457
 115  230.4967
 116  692.4291
 117  504.1884
 118  529.3519
 119  204.3474
 120  -80.27969
 121  -234.8904
 122  -154.7457
 123  93.5406
 124  571.4978
 125  347.8902
 126  369.4628
 127  447.7106
 128  183.1035
 129  393.6412
 130  1415.746
 131  2399.722
 132  2897.224
 133  2526.559
 134  2054.256
 135  2050.556
 136  1828.627
 137  1662.375
 138  2058.47
 139  802.6202
 140  1385.691
 141  2578.956
 142  3354.985
 143  2007.831
 144  1483.735
 145  1248.96
 146  411.234
 147  -218.9722
 148  -102.5365
 149  -564.1583
 150  -1101.669
 151  -1532.732
 152  -1181.175
 153  -771.5277
 154  -543.7698
 155  -154.3679
 156  -80.75632
 157  -261.0822
 158  -568.4595
 159  -32.454
 160  180.2394
 161  -376.8411
 162  -585.3695
 163  -432.9001
 164  -260.1008
 165  -339.8902
 166  -456.7917
 167  -578.6976
 168  -752.3321
 169  -525.4901
 170  -837.46
 171  -746.4332
 172  -649.7629
 173  137.0188
 174  1394.521
 175  1210.168
 176  1198.279
 177  639.4088
 178  1176.812
 179  848.4786
 180  1144.265
 181  1211.258
 182  503.7227
 183  779.3625
 184  1181.345
 185  1848.875
 186  1300.267
 187  1437.871
 188  1539.076
 189  1905.988
 190  1319.104
 191  210.5168
 192  33.38033
 193  -219.5466
 194  -224.1869
 195  -373.7319
 196  -493.5374
 197  22.94621
 198  573.0958
 199  1003.04
 200  153.2065
 201  -165.1519
 202  -480.7755
 203  612.977
 204  566.0729
 205  590.5107
 206  -241.2023
 207  -1012.798
 208  -994.5788
 209  -774.6857
 210  0.1530221
 211  571.3835
 212  853.0866
 213  1024.807
 214  117.0257
 215  222.338
 216  -84.83822
 217  883.3784
 218  1269.393
 219  1567.648
 220  560.0787
 221  282.3721
 222  -154.8581
 223  -292.5234
 224  -27.28405
 225  521.7035
 226  503.7617
 227  418.441
 228  347.6862
 229  -1129.555
 230  -1908.021
 231  -602.921
 232  949.7912
 233  1457.174
 234  1126.25
 235  357.8824
 236  -999.8986
 237  -613.2442
 238  -100.7251
 239  -458.742
 240  -1123.163
 241  -896.5231
 242  -806.4513
 243  -1000.777
 244  -893.1175
 245  -1001.664
 246  -194.3495
 247  -119.4161
 248  -779.8719
 249  -1434.098
 250  -1909.649
 251  -1759.38
 252  -1997.048
 253  -2128.57
 254  -2009.986
 255  -1282.913
 256  -1086.062
 257  -1500.919
 258  -1807.623
 259  -2086.035
 260  -1287.093
 261  -836.3329
 262  -722.631
 263  -603.1324
 264  -245.9214
 265  -1139.93
 266  -1540.009
 267  -2222.972
 268  -2121.35
 269  -1092.126
 270  -338.5438
 271  -81.29028
 272  -1386.807
 273  -1461.084
 274  -1387.226
 275  -1324.896
 276  -1166.627
 277  -1170.057
 278  -1170.78
 279  -1328.213
 280  -1446.858
 281  -1398.507
 282  -2140.661
 283  -2193.397
 284  -1649.529
 285  -1411.264
 286  -2059.431
 287  -1972.497
 288  -2141.814
 289  -1727.621
 290  -2071.019
 291  -986.7503
 292  -407.4878
 293  -526.4382
 294  -814.7105
 295  -1998.953
 296  -2404.097
 297  -2321.811
 298  -772.1125
 299  -736.2128
 300  -1525.135
 301  -1629.734
 302  -2333.008
 303  -2312.642
 304  -2373.085
 305  -1762.787
 306  -1855.454
 307  -2128.88
 308  -2081.199
 309  -2361.271
 310  -2492.414
 311  -2762.01
 312  -1604.362
 313  -1197.919
 314  -1557.762
 315  -2220.477
 316  -2630.42
 317  -2424.636
 318  -2547.549
 319  -1938.336
 320  -1834.991
 321  -1632.036
 322  -1864.511
 323  -2322.438
 324  -2361.765
 325  -2387.118
 326  -1811.229
 327  -1612.744
 328  -1739.594
 329  -1890.824
 330  -1624.987
 331  -1104.969
 332  -721.8699
 333  84.53719
 334  4.706604
 335  -46.77696
 336  -430.445
 337  -512.8343
 338  -806.7076
 339  -1237.518
 340  -669.5908
 341  -200.2472
 342  475.6278
 343  205.6205
 344  -547.2852
 345  -663.0432
 346  -410.7781
 347  -423.8679
 348  -248.5513
 349  -243.012
 350  -700.2272
 351  -901.87
 352  -790.8938
 353  -862.1805
 354  -926.6918
 355  -717.4234
 356  -621.678
 357  -932.2827
 358  -1116.383
 359  -1515.004
 360  -962.8509
 361  -812.6534
 362  -1124.13
 363  -1823.287
 364  -2202.685
 365  -2206.452
 366  -2291.074
 367  -2045.019
 368  -2186.209
 369  -1823.016
 370  -1336.851
 371  -871.8407
 372  -1480.104
 373  -1904.389
 374  -1539.882
 375  -1117.745
 376  -1105.281
 377  -1376.837
 378  -1723.988
 379  -1547.863
 380  -789.465
 381  -762.0557
 382  -1409.122
 383  -1282.844
 384  -1144.262
 385  -772.1138
 386  -1116.601
 387  -1484.877
 388  -1129.187
 389  -508.2373
 390  -636.6297
 391  -527.4779
 392  -1191.739
 393  -519.4366
 394  -331.1598
 395  -289.4621
 396  -705.7347
 397  -1366.828
 398  -500.3892
 399  405.2784
 400  1361.963
 401  1118.754
 402  433.5768
 403  -195.7675
 404  -1093.129
 405  -1595.956
 406  -1811.498
 407  -1325.004
 408  -871.5936
 409  -848.7584
 410  -545.251
 411  -819.66
 412  -804.8747
 413  -638.7749
 414  -459.3408
 415  -1177.937
 416  -1545.537
 417  -1417.228
 418  -138.8393
 419  -42.35421
 420  -47.80265
 421  -696.2245
 422  -1055.026
 423  -422.2296
 424  -109.7532
 425  -59.1601
 426  -940.1269
 427  -1076.774
 428  -1016.424
 429  -988.2037
 430  -599.2808
 431  -436.794
 432  810.3085
 433  1417.718
 434  2210.861
 435  1452.884
 436  922.2163
 437  1107.43
 438  742.9028
 439  442.9743
 440  -107.1823
 441  -198.5246
 442  85.98556
 443  -16.96962
 444  -241.9877
 445  -484.7039
 446  -685.6002
 447  -701.2433
 448  -156.2268
 449  -263.058
 450  188.7299
 451  31.23738
 452  262.9079
 453  412.0337
 454  243.7395
 455  -154.5753
 456  -333.7452
 457  -124.1972
 458  -373.6829
 459  328.5308
 460  1261.644
 461  1924.448
 462  2136.663
 463  1456.93
 464  1386.766
 465  -106.2433
 466  1639.86
 467  2075.981
 468  2513.75
 469  1518.323
 470  997.4953
 471  686.8485
 472  -407.6156
 473  24.97504
 474  138.1849
 475  -34.5614
 476  -653.7323
 477  591.9073
 478  86.44637
 479  12.42881
 480  -545.3513
 481  -853.0372
 482  -298.0688
 483  -118.5902
 484  336.1373
 485  -0.8240646
 486  336.3612
 487  810.3752
 488  414.4661
 489  184.8587
 490  -210.6332
 491  -260.2948
 492  -312.9791
 493  -578.5233
 494  -888.6876
 495  -798.6844
 496  -380.1064
 497  -874.1241
 498  -1016.104
 499  -1371.635
 500  -1476.244
 501  -1880.235
 502  -1649.708
 503  -1093.951
 504  -1063.803
 505  -481.5643
 506  -56.15319
 507  460.886
 508  465.2127
 509  97.26013
 510  -288.5005
 511  -642.6985
