# Input file       =  1205826898.111558_cleaned.dat
# Candidate        =  PSR_0332+5434
# Telescope        =  AR
# Epoch_topo       =  58200.330059161548
# Epoch_bary       =  N/A
# T_sample         =  0.002
# Data Folded      =  7143424
# Data Avg         =  0.219854627362102
# Data StdDev      =  6.10501547022817 
# Profile Bins     =  512
# Profile Avg      =  3067.30277920028 
# Profile StdDev   =  721.115785583252 
# Reduced chi-sqr  =  3.552
# Prob(Noise)      <  2.81e-145   (~25.6 sigma)
# P_topo (ms)      =  714.574242226987  +/- 1.56e-05
# P'_topo (s/s)    =  -0                +/- 8.48e-12
# P''_topo (s/s^2) =  0                 +/- 3.84e-15
# P_bary (ms)      =  N/A
# P'_bary (s/s)    =  N/A
# P''_bary (s/s^2) =  N/A
# P_orb (s)        =  N/A
# asin(i)/c (s)    =  N/A
# eccentricity     =  N/A
# w (rad)          =  N/A
# T_peri           =  N/A
######################################################
   0  2414.958
   1  2290.646
   2  2359.161
   3  2716.52
   4  2800.852
   5  3419.831
   6  3197.864
   7  2538.717
   8  2026.055
   9  1801.177
  10  2432.394
  11  3268.688
  12  4065.544
  13  4649.371
  14  4326.456
  15  3585.53
  16  2988.683
  17  2322.6
  18  2405.212
  19  2118.95
  20  2307.933
  21  2849.976
  22  3019.564
  23  2544.871
  24  1342.74
  25  1529.102
  26  2426.356
  27  3651.454
  28  4646.522
  29  5078.121
  30  5061.476
  31  4466.675
  32  3973.94
  33  3704.797
  34  3852.907
  35  4582.072
  36  4837.258
  37  4645.728
  38  3951.671
  39  2937.59
  40  1842.022
  41  905.905
  42  1606.699
  43  2877.017
  44  4002.32
  45  4356.971
  46  4896.51
  47  4992.896
  48  3553.817
  49  2435.094
  50  1974.313
  51  2236.049
  52  2400.817
  53  3248.803
  54  3567.793
  55  3357.814
  56  2250.104
  57  1512.061
  58  1448.458
  59  2006.978
  60  3017.758
  61  4290.024
  62  5474.549
  63  4863.485
  64  3687.09
  65  2946.123
  66  2082.954
  67  1859.203
  68  2069.176
  69  2112.812
  70  2930.2
  71  3475.152
  72  3527.021
  73  2538.37
  74  1324.768
  75  1768.01
  76  2246.77
  77  3446.488
  78  4341.117
  79  5022.427
  80  5079.318
  81  3936.676
  82  3055.345
  83  2333.711
  84  2227.476
  85  2164.197
  86  2409.003
  87  3135.063
  88  3142.583
  89  2461.67
  90  2013.68
  91  2108.165
  92  2333.104
  93  3115.978
  94  3782.342
  95  4666.378
  96  4826.637
  97  4036.635
  98  3156.729
  99  2385.172
 100  2563.638
 101  2965.709
 102  2675.303
 103  2400.017
 104  2646.061
 105  2678.802
 106  2246.409
 107  2271.088
 108  2202.654
 109  2680.837
 110  3593.007
 111  4395.445
 112  4806.35
 113  4462.103
 114  4005.365
 115  2579.786
 116  1892.241
 117  2491.934
 118  2761.405
 119  3458.111
 120  3541.28
 121  3024.018
 122  2556.781
 123  1811.964
 124  2194.56
 125  2204.498
 126  3181.324
 127  3994.551
 128  4630.072
 129  4696.587
 130  3983.365
 131  3310.09
 132  2662.688
 133  2076.829
 134  2465.207
 135  2976.71
 136  3206.969
 137  3541.609
 138  2706.664
 139  2176.983
 140  2062.561
 141  1840.053
 142  2455.28
 143  3138.699
 144  4598.324
 145  5218.645
 146  5197.205
 147  4299.327
 148  2542.145
 149  2039.39
 150  1630.535
 151  2393.156
 152  2924.744
 153  3359.552
 154  3515.214
 155  2637.081
 156  2448.411
 157  1441.689
 158  2163.688
 159  2868.337
 160  3661.152
 161  4842.448
 162  4644.909
 163  4354.118
 164  3396.792
 165  2825.241
 166  2620.975
 167  2405.721
 168  2250.774
 169  2346.361
 170  3173.896
 171  3400.864
 172  2694.874
 173  1761.229
 174  1646.316
 175  2448.397
 176  3579.175
 177  4588.07
 178  4739.625
 179  4759.427
 180  3581.231
 181  3016.473
 182  2714.782
 183  2273.393
 184  2483.38
 185  2747.922
 186  3067.83
 187  2891.042
 188  2721.407
 189  1946.942
 190  1627.728
 191  2551.867
 192  2644.236
 193  3942.923
 194  4348.43
 195  4312.928
 196  4302.166
 197  3286.51
 198  2655.784
 199  1754.913
 200  2066.469
 201  2557.544
 202  3188.471
 203  3350.01
 204  2778.872
 205  2417.874
 206  1666.732
 207  1830.808
 208  2801.758
 209  3719.011
 210  4650.44
 211  5027.94
 212  4363.937
 213  3230.436
 214  2850.978
 215  1999.588
 216  2422.805
 217  2596.261
 218  2963.305
 219  3222.777
 220  3604.222
 221  2830.584
 222  1590.023
 223  1759.586
 224  1928.028
 225  2834.243
 226  3756.632
 227  4401.058
 228  4800.769
 229  3915.438
 230  3125.438
 231  2411.216
 232  2207.167
 233  2154.782
 234  2289.959
 235  3128.761
 236  3343.772
 237  2951.625
 238  2203.452
 239  1645.8
 240  1674.401
 241  2232.131
 242  3443.078
 243  4138.245
 244  4633.742
 245  4220.411
 246  3903.47
 247  3042.735
 248  2449.394
 249  2849.221
 250  2956.865
 251  2833.27
 252  2887.232
 253  3376.547
 254  2661.09
 255  2049.284
 256  1812.096
 257  1986.861
 258  2771.129
 259  3516.098
 260  4727.475
 261  5012.315
 262  4087.322
 263  3106.025
 264  2300.379
 265  2107.089
 266  2022.785
 267  2509.793
 268  2900.777
 269  3315.546
 270  3008.692
 271  2144.115
 272  1565.721
 273  1700.073
 274  2350.126
 275  3400.717
 276  4250.577
 277  4620.049
 278  4624.236
 279  4219.461
 280  2953.582
 281  2245.883
 282  2119.434
 283  2547.288
 284  2869.79
 285  3372.205
 286  3387.813
 287  2787.823
 288  1876.922
 289  1584.334
 290  1734.686
 291  2449.4
 292  3534.018
 293  4552.078
 294  4950.135
 295  4645.494
 296  4235.603
 297  2723.466
 298  2258.867
 299  2452.749
 300  2747.428
 301  2908.786
 302  3235.957
 303  2633.106
 304  2044.407
 305  1453.823
 306  1701.622
 307  2549.319
 308  3259.399
 309  4360.325
 310  4631.268
 311  4365.616
 312  3834.516
 313  2983.11
 314  2355.675
 315  2375.873
 316  2838.762
 317  2711.26
 318  3201.291
 319  3271.748
 320  2847.276
 321  2346.298
 322  2098.98
 323  2365.322
 324  2804.457
 325  4050.503
 326  5223.571
 327  5107.012
 328  4325.856
 329  3319.099
 330  2592.238
 331  2082.384
 332  2070.323
 333  2603.804
 334  3282.057
 335  3641.996
 336  3114.403
 337  2512.945
 338  1659.046
 339  1805.905
 340  2330.98
 341  3144.318
 342  4508.238
 343  5326.649
 344  5367.1
 345  4194.042
 346  2948.208
 347  2235.967
 348  2199.036
 349  2661.254
 350  2928.331
 351  3091.92
 352  3323.638
 353  2981.258
 354  1998.249
 355  1931.303
 356  1985.761
 357  2503.485
 358  3869.675
 359  5200.02
 360  5366.461
 361  4704.404
 362  3419.395
 363  2341.201
 364  1948.907
 365  2342.256
 366  2653.256
 367  3016.624
 368  3316.048
 369  3243.573
 370  2551.247
 371  1955.417
 372  1890.961
 373  2298.021
 374  3080.701
 375  3649.748
 376  4166.416
 377  4538.596
 378  4407.394
 379  3412.68
 380  2713.223
 381  2535.697
 382  2995.097
 383  2825.062
 384  3045.18
 385  3240.116
 386  2481.942
 387  1729.381
 388  1751.421
 389  2190.603
 390  2902.129
 391  3605.43
 392  4615.012
 393  5267.268
 394  4706.018
 395  3143.401
 396  2702.047
 397  2360.917
 398  2851.455
 399  2846.641
 400  3149.05
 401  3582.525
 402  3013.795
 403  2294.712
 404  1528.515
 405  1818.252
 406  2306.681
 407  3267.763
 408  4597.846
 409  5227.116
 410  5148.027
 411  3860.425
 412  2888.213
 413  2179.64
 414  2128.071
 415  2402.217
 416  2759.768
 417  3226.629
 418  3482.295
 419  3293.708
 420  2206.196
 421  1666.245
 422  1882.304
 423  2666.74
 424  3788.62
 425  4775.574
 426  5183.521
 427  4628.185
 428  3894.682
 429  2634.382
 430  2666.298
 431  3434.461
 432  3104.25
 433  3290.396
 434  3351.831
 435  3253.079
 436  2670.969
 437  1784.422
 438  1997.063
 439  2520.646
 440  3504.619
 441  4246.999
 442  5009.514
 443  4935.5
 444  4474.396
 445  3205.5
 446  2350.487
 447  2212.499
 448  2320.694
 449  2751.3
 450  3529.332
 451  3193.456
 452  2521.896
 453  2236.428
 454  1736.108
 455  1859.189
 456  2992.745
 457  3426.951
 458  4326.519
 459  4195.542
 460  3930.657
 461  3532.294
 462  2633.081
 463  2842.92
 464  2841.169
 465  2892.799
 466  2865.654
 467  3140.092
 468  2987.39
 469  2267.658
 470  2142.145
 471  1709.633
 472  2225.875
 473  3121.304
 474  4314.436
 475  5098.594
 476  5093.53
 477  4256.628
 478  2695.846
 479  1799.79
 480  1654.174
 481  2354.266
 482  2905.353
 483  3467.983
 484  3546.818
 485  3312.71
 486  2129.337
 487  1271.608
 488  1549.15
 489  2609.841
 490  3704.503
 491  4543.259
 492  4976.945
 493  4796.983
 494  3629.533
 495  2258.367
 496  1793.437
 497  2137.658
 498  2495.592
 499  2594.668
 500  3248.825
 501  3158.302
 502  2731.45
 503  2016.084
 504  1437.7
 505  1861.549
 506  2863.628
 507  4090.912
 508  4580.887
 509  5251.554
 510  4556.297
 511  3304.039
