# Input file       =  1206257845.112525_cleaned.dat
# Candidate        =  PSR_0332+5434
# Telescope        =  AR
# Epoch_topo       =  58205.317871672742
# Epoch_bary       =  N/A
# T_sample         =  0.002
# Data Folded      =  7143424
# Data Avg         =  0.258586550035318
# Data StdDev      =  5.07277613981732 
# Profile Bins     =  256
# Profile Avg      =  7215.58796397832 
# Profile StdDev   =  847.381404012493 
# Reduced chi-sqr  =  4.269
# Prob(Noise)      <  2.38e-103   (~21.6 sigma)
# P_topo (ms)      =  714.571717956875  +/- 1.79e-05
# P'_topo (s/s)    =  -0                +/- 9.73e-12
# P''_topo (s/s^2) =  0                 +/- 4.41e-15
# P_bary (ms)      =  N/A
# P'_bary (s/s)    =  N/A
# P''_bary (s/s^2) =  N/A
# P_orb (s)        =  N/A
# asin(i)/c (s)    =  N/A
# eccentricity     =  N/A
# w (rad)          =  N/A
# T_peri           =  N/A
######################################################
   0  5849.705
   1  7283.446
   2  5551.271
   3  4327.528
   4  5743.918
   5  8956.209
   6  8593.927
   7  6145.688
   8  5727.517
   9  7881.455
  10  6840.115
  11  4810.066
  12  4708.047
  13  8694.821
  14  9933.354
  15  7119.577
  16  5696.386
  17  6242.354
  18  7334.516
  19  5931.637
  20  5143.81
  21  7923.507
  22  9775.619
  23  8229.85
  24  6886.627
  25  6722.81
  26  7592.067
  27  5215.806
  28  4748.936
  29  6292.818
  30  10157.89
  31  9143.277
  32  6378.814
  33  6161.654
  34  7617.518
  35  6404.925
  36  5991.894
  37  6042.239
  38  9146.395
  39  8895.707
  40  7144.129
  41  6568.903
  42  7507.652
  43  6745.293
  44  4969.309
  45  4897.402
  46  8432.126
  47  10290.62
  48  7813.156
  49  6367.335
  50  7170.581
  51  7750.729
  52  5403.257
  53  5740.832
  54  7823.79
  55  9757.629
  56  8704.55
  57  7642.045
  58  6979.148
  59  7768.886
  60  5997.403
  61  5073.081
  62  7240.079
  63  10132.41
  64  9454.856
  65  7007.521
  66  6120.32
  67  7680.25
  68  6914.542
  69  5407.766
  70  5277.533
  71  9113.773
  72  9690.634
  73  6924.127
  74  6241.872
  75  8078.891
  76  7488.292
  77  6226.481
  78  5420.492
  79  8786.288
  80  10079.37
  81  7359.377
  82  6620.415
  83  7344.842
  84  7754.993
  85  5579.732
  86  5246.555
  87  7040.979
  88  9104.864
  89  8081.472
  90  7007.73
  91  6486.328
  92  6475.732
  93  5464.048
  94  5433.735
  95  6570.615
  96  9771.265
  97  8372.834
  98  7138.488
  99  6248.376
 100  7961.672
 101  6540.512
 102  4656.129
 103  5088.109
 104  8921.449
 105  9139.096
 106  6833.386
 107  5632.072
 108  6612.623
 109  6944.379
 110  5311.714
 111  4872.301
 112  8375.239
 113  10110.75
 114  7248.945
 115  6017.707
 116  6980.449
 117  7793.881
 118  5851.589
 119  4820.926
 120  7871.479
 121  10313.14
 122  8815.319
 123  6886.542
 124  6912.411
 125  8289.528
 126  6291.701
 127  6315.128
 128  6884.634
 129  9848.197
 130  9308.696
 131  7360.097
 132  6779.106
 133  8189.083
 134  6846.369
 135  5296.128
 136  6019.998
 137  10349.85
 138  9419.535
 139  7319.669
 140  6318.04
 141  7459.628
 142  7597.445
 143  5537.333
 144  5123.149
 145  7626.617
 146  10154.58
 147  8229.539
 148  7584.285
 149  6789.331
 150  9577.955
 151  9723.154
 152  8287.489
 153  8320.192
 154  10484.54
 155  8179.849
 156  6441.458
 157  6583.721
 158  8629.36
 159  7504.744
 160  5214.755
 161  5920.877
 162  9920.913
 163  9417.487
 164  8100.668
 165  5881.25
 166  6987.961
 167  7276.459
 168  6340.796
 169  6141.333
 170  9068.675
 171  9916.649
 172  7793.71
 173  6870.262
 174  7572.331
 175  7819.275
 176  6087.595
 177  5931.784
 178  8355.814
 179  10304.86
 180  8543.247
 181  6180.645
 182  6473.647
 183  7770.733
 184  5727.855
 185  5322.586
 186  7045.293
 187  9948.737
 188  7984.787
 189  6773.18
 190  7259.455
 191  8122.033
 192  6102.096
 193  5036.634
 194  6012.331
 195  10014.68
 196  9088.412
 197  6585.64
 198  5545.267
 199  7295.938
 200  7461.631
 201  5052.889
 202  5430.004
 203  8757.847
 204  9368.894
 205  7831.96
 206  6099.895
 207  6909.893
 208  7549.879
 209  6279.617
 210  5433.326
 211  7841.588
 212  10768.46
 213  9104.126
 214  6376.06
 215  6980.142
 216  7765.168
 217  5582.985
 218  5220.674
 219  7235.054
 220  9597.059
 221  9002.271
 222  6857.765
 223  6509.816
 224  8010.024
 225  6214.817
 226  4722.462
 227  6335.747
 228  10304.6
 229  9339.479
 230  6908.356
 231  6424.998
 232  7202.826
 233  6670.529
 234  4549.05
 235  5575.171
 236  8384.578
 237  9128.523
 238  6790.263
 239  5604.672
 240  6709.631
 241  6520.598
 242  5230.512
 243  4579.839
 244  7570.994
 245  10046.67
 246  7251.217
 247  6244.375
 248  5838.655
 249  7856.735
 250  5571.259
 251  4897.654
 252  5784.475
 253  9220.966
 254  8491.426
 255  6474.368
