# Input file       =  1206013894.110423_cleaned.dat
# Candidate        =  PSR_0332+5434
# Telescope        =  AR
# Epoch_topo       =  58202.494364703969
# Epoch_bary       =  N/A
# T_sample         =  0.002
# Data Folded      =  7340032
# Data Avg         =  0.498071515221714
# Data StdDev      =  6.14507208118364 
# Profile Bins     =  256
# Profile Avg      =  14276.1635218644 
# Profile StdDev   =  1040.53328098419 
# Reduced chi-sqr  =  0.990
# Prob(Noise)      <  0.535   (~0.0 sigma)
# P_topo (ms)      =  714.573205461121  +/- 0.0011
# P'_topo (s/s)    =  -0                +/- 5.81e-10
# P''_topo (s/s^2) =  0                 +/- 2.56e-13
# P_bary (ms)      =  N/A
# P'_bary (s/s)    =  N/A
# P''_bary (s/s^2) =  N/A
# P_orb (s)        =  N/A
# asin(i)/c (s)    =  N/A
# eccentricity     =  N/A
# w (rad)          =  N/A
# T_peri           =  N/A
######################################################
   0  12630.87
   1  12652.17
   2  12650.49
   3  12854.29
   4  12244.79
   5  12666.99
   6  13498.96
   7  13312.46
   8  12675.56
   9  13070.16
  10  13340.42
  11  13884.63
  12  14418.03
  13  12932.61
  14  13416.21
  15  14063.2
  16  13756.63
  17  13441.8
  18  13162.06
  19  13431.33
  20  13879.82
  21  12943.29
  22  13374.2
  23  13401.64
  24  13925.75
  25  14079.02
  26  13312.45
  27  13478.81
  28  13957.91
  29  13694.43
  30  13250.74
  31  13817.47
  32  14796.81
  33  14395.78
  34  14907.11
  35  14344.73
  36  14714.43
  37  15343.41
  38  15139.79
  39  14539.67
  40  14804.17
  41  14815.73
  42  13919.82
  43  15111.97
  44  14599.71
  45  14588.81
  46  14217.26
  47  15016.6
  48  14471.68
  49  14133.15
  50  14156.07
  51  14135.06
  52  14772.64
  53  14739.04
  54  13592.28
  55  13562.63
  56  13499.36
  57  13587.75
  58  13962.77
  59  14159.82
  60  14572.01
  61  15057.44
  62  15076.34
  63  15132.1
  64  14894.52
  65  14688.78
  66  14569.1
  67  14718.52
  68  14210.15
  69  14057.19
  70  13948.72
  71  13879.83
  72  14189.11
  73  14542.64
  74  14126.32
  75  14366.28
  76  14381.38
  77  14614.53
  78  14299.3
  79  14293.21
  80  13941.67
  81  13937.56
  82  13493.64
  83  13748.39
  84  14303.03
  85  14562.01
  86  15005.83
  87  14345.25
  88  14241.09
  89  15054.01
  90  14867.79
  91  14500.93
  92  14573.11
  93  14984.67
  94  13546.06
  95  14144.08
  96  13932.96
  97  14370.27
  98  14288.47
  99  15298.61
 100  15196.63
 101  15491.23
 102  15173.02
 103  14588.32
 104  14297.26
 105  14889.93
 106  14897.61
 107  15104.19
 108  14759.73
 109  14594.47
 110  14823.23
 111  14865.71
 112  14356.46
 113  14652.25
 114  14394.89
 115  14312.76
 116  14262.29
 117  14713.96
 118  14343.72
 119  14460.85
 120  14689.19
 121  14554.51
 122  14370.13
 123  15308.27
 124  14843.5
 125  14729.72
 126  14871.14
 127  15152.04
 128  14843.63
 129  14505.62
 130  14275.52
 131  13801.35
 132  13956.6
 133  13394.02
 134  14260.36
 135  14627
 136  14607.78
 137  15542.05
 138  15249.82
 139  15424.05
 140  15189.49
 141  15603.87
 142  15749.16
 143  15353.07
 144  15613.95
 145  14336.13
 146  14823.74
 147  15355.84
 148  14841.25
 149  15147.17
 150  17002.94
 151  18355.75
 152  18491
 153  15738.47
 154  15152.91
 155  15233.76
 156  15137.14
 157  15427.69
 158  15324.9
 159  15856.58
 160  15321.03
 161  14525.09
 162  14747.58
 163  15298.09
 164  14676.89
 165  14530.69
 166  14666.72
 167  14453.25
 168  13494.73
 169  14413.1
 170  14461.98
 171  13968.78
 172  13924.88
 173  14716.83
 174  14416.54
 175  14446.4
 176  14041.59
 177  14780.19
 178  14500.16
 179  14174.62
 180  13163.56
 181  13828.87
 182  13696.22
 183  13312.42
 184  14063.8
 185  14706.19
 186  14086.02
 187  13841.58
 188  14134.54
 189  14258.45
 190  14674.67
 191  15849.6
 192  16199.48
 193  15640.42
 194  16361.91
 195  15180.97
 196  15068.28
 197  14510.84
 198  14171
 199  13772.16
 200  14543.08
 201  13984.09
 202  14012.97
 203  13598.05
 204  13858.02
 205  13837.17
 206  13751.55
 207  14790.67
 208  13497.71
 209  13389.3
 210  13490.24
 211  13514.78
 212  13527.39
 213  13387.61
 214  13108.46
 215  13795.39
 216  12816.51
 217  12853.94
 218  12593.4
 219  12240.85
 220  12429.51
 221  13357.76
 222  13815.27
 223  12855.4
 224  13788.63
 225  14106.75
 226  13932.69
 227  14183.73
 228  14178.78
 229  14410.93
 230  14051.53
 231  14458.05
 232  14907.09
 233  15827.13
 234  15507.63
 235  15049.57
 236  14769.87
 237  15031.7
 238  14008.67
 239  14327.62
 240  13883.88
 241  13110.79
 242  13704.18
 243  13021.7
 244  12694.32
 245  12370.76
 246  12777.06
 247  13307.28
 248  12876.55
 249  13594.02
 250  13375.49
 251  13666.06
 252  13276.82
 253  13601.48
 254  12756.29
 255  12087.72
