# Input file       =  1206373540.10942_cleaned.dat
# Candidate        =  PSR_0332+5434
# Telescope        =  AR
# Epoch_topo       =  58206.656934136809
# Epoch_bary       =  N/A
# T_sample         =  0.002
# Data Folded      =  7340032
# Data Avg         =  0.0327151698794343
# Data StdDev      =  1.00006686529085 
# Profile Bins     =  512
# Profile Avg      =  469.065994576591 
# Profile StdDev   =  119.741042361068 
# Reduced chi-sqr  =  1.299
# Prob(Noise)      <  5.47e-06   (~4.4 sigma)
# P_topo (ms)      =  714.57133656086   +/- 0.000195
# P'_topo (s/s)    =  -0                +/- 1.03e-10
# P''_topo (s/s^2) =  0                 +/- 4.55e-14
# P_bary (ms)      =  N/A
# P'_bary (s/s)    =  N/A
# P''_bary (s/s^2) =  N/A
# P_orb (s)        =  N/A
# asin(i)/c (s)    =  N/A
# eccentricity     =  N/A
# w (rad)          =  N/A
# T_peri           =  N/A
######################################################
   0  1122.815
   1  1007.694
   2  721.2545
   3  484.1803
   4  488.2182
   5  447.2322
   6  461.3656
   7  547.9438
   8  529.1344
   9  481.4786
  10  453.1393
  11  560.1472
  12  623.5695
  13  577.4847
  14  536.115
  15  462.5373
  16  484.2005
  17  489.2044
  18  366.4992
  19  289.6622
  20  444.182
  21  425.4997
  22  390.2295
  23  408.1966
  24  472.8987
  25  482.6995
  26  521.6326
  27  581.4943
  28  523.0013
  29  596.2551
  30  483.4699
  31  439.9727
  32  357.8531
  33  353.5138
  34  463.0433
  35  453.2004
  36  383.9253
  37  302.1611
  38  431.8076
  39  549.5803
  40  534.457
  41  443.2105
  42  412.8571
  43  314.0818
  44  334.6974
  45  462.5353
  46  479.3064
  47  416.8261
  48  470.9048
  49  434.3819
  50  370.8073
  51  435.8159
  52  378.1431
  53  349.6741
  54  336.0105
  55  425.8175
  56  386.4147
  57  397.252
  58  418.8893
  59  475.0725
  60  533.3436
  61  492.5352
  62  537.6591
  63  459.9047
  64  419.3492
  65  511.5347
  66  547.0234
  67  584.2524
  68  433.14
  69  362.8746
  70  351.0495
  71  393.6584
  72  511.8311
  73  507.2405
  74  417.1945
  75  423.7403
  76  440.1952
  77  514.2064
  78  583.0512
  79  599.54
  80  473.4477
  81  526.0326
  82  591.0397
  83  602.1684
  84  553.597
  85  426.9805
  86  416.6161
  87  580.6965
  88  588.7841
  89  614.0945
  90  604.2691
  91  599.1044
  92  484.491
  93  483.4248
  94  460.281
  95  322.7607
  96  417.4535
  97  345.7508
  98  461.3605
  99  481.5148
 100  387.5219
 101  400.9805
 102  525.1577
 103  532.0804
 104  449.265
 105  460.2132
 106  611.6077
 107  609.4146
 108  460.442
 109  536.4162
 110  583.1998
 111  514.8104
 112  436.2502
 113  402.3757
 114  448.874
 115  371.5752
 116  347.7495
 117  373.2595
 118  419.1758
 119  517.864
 120  525.3362
 121  544.6811
 122  379.0915
 123  385.5622
 124  429.4594
 125  413.111
 126  492.8061
 127  559.4022
 128  568.6827
 129  503.9821
 130  471.1147
 131  398.2294
 132  410.5679
 133  559.1856
 134  593.0379
 135  457.8362
 136  364.4757
 137  394.3956
 138  386.0978
 139  526.6977
 140  523.8476
 141  472.6908
 142  473.3426
 143  484.2375
 144  548.1981
 145  562.9152
 146  521.23
 147  662.0525
 148  565.6686
 149  560.8229
 150  516.7983
 151  464.3333
 152  553.176
 153  626.789
 154  621.0386
 155  531.6322
 156  466.9571
 157  399.6671
 158  466.4048
 159  415.493
 160  505.4117
 161  482.2866
 162  422.1476
 163  471.6674
 164  508.5089
 165  451.8573
 166  476.1512
 167  529.1476
 168  566.1057
 169  567.7975
 170  506.4166
 171  537.8185
 172  486.9593
 173  496.3646
 174  520.5317
 175  570.193
 176  499.6162
 177  449.7246
 178  504.1849
 179  417.4509
 180  473.1368
 181  489.9128
 182  458.3433
 183  519.8145
 184  327.4003
 185  300.2712
 186  419.4957
 187  652.3156
 188  643.0218
 189  569.1083
 190  471.0739
 191  371.4105
 192  370.2245
 193  429.605
 194  342.988
 195  419.8433
 196  483.9579
 197  528.923
 198  486.5836
 199  401.2841
 200  382.0489
 201  573.3439
 202  544.3478
 203  526.5351
 204  592.0541
 205  560.6882
 206  502.2826
 207  499.1399
 208  492.3245
 209  614.8384
 210  602.8818
 211  503.0175
 212  470.2271
 213  617.3702
 214  589.9303
 215  596.6895
 216  623.8022
 217  419.9644
 218  476.189
 219  543.2647
 220  467.9471
 221  486.8518
 222  420.1976
 223  419.4024
 224  448.3815
 225  449.4572
 226  288.9373
 227  331.4149
 228  466.3746
 229  606.9026
 230  522.0641
 231  457.1781
 232  489.9529
 233  443.2159
 234  491.3447
 235  399.2701
 236  392.0305
 237  379.7336
 238  281.5849
 239  318.5659
 240  427.251
 241  317.7614
 242  280.1065
 243  408.8166
 244  384.6842
 245  418.1979
 246  367.3587
 247  369.103
 248  378.044
 249  404.8847
 250  425.7178
 251  511.2885
 252  563.8301
 253  510.2556
 254  381.1429
 255  371.5335
 256  403.2046
 257  433.1959
 258  456.7027
 259  436.757
 260  372.5603
 261  484.4386
 262  477.891
 263  554.2618
 264  650.2169
 265  562.73
 266  524.2982
 267  506.9508
 268  638.0805
 269  558.3063
 270  496.6339
 271  546.6278
 272  481.7417
 273  555.0723
 274  545.1898
 275  467.734
 276  554.1865
 277  471.9255
 278  423.0137
 279  436.7133
 280  390.6288
 281  416.6471
 282  387.2163
 283  412.2395
 284  389.2621
 285  464.681
 286  429.3632
 287  344.9994
 288  339.5574
 289  429.8755
 290  408.1058
 291  367.6351
 292  317.203
 293  404.6501
 294  451.256
 295  459.6268
 296  462.9461
 297  436.4572
 298  416.5262
 299  467.0268
 300  420.7365
 301  412.7368
 302  356.3046
 303  465.464
 304  456.1397
 305  476.7405
 306  506.8744
 307  444.7717
 308  500.6564
 309  345.1856
 310  382.3243
 311  432.6209
 312  538.3987
 313  578.9811
 314  466.898
 315  423.3508
 316  397.5686
 317  444.6003
 318  382.8385
 319  448.3799
 320  555.6812
 321  407.1312
 322  394.483
 323  361.1807
 324  393.7544
 325  400.0558
 326  335.3979
 327  364.7688
 328  465.8456
 329  425.7549
 330  571.4287
 331  421.4949
 332  392.9124
 333  408.1874
 334  527.7624
 335  529.7116
 336  511.0889
 337  487.5049
 338  408.4578
 339  403.8293
 340  393.3152
 341  443.0786
 342  394.0324
 343  378.8088
 344  392.7348
 345  355.6105
 346  332.3109
 347  395.6721
 348  330.1984
 349  372.4311
 350  497.7915
 351  537.0235
 352  502.7232
 353  537.7999
 354  618.4245
 355  533.7034
 356  323.5893
 357  270.3313
 358  360.0738
 359  382.0521
 360  391.1528
 361  406.9569
 362  355.4797
 363  312.5692
 364  250.2645
 365  264.7267
 366  302.8461
 367  359.297
 368  472.7503
 369  462.3995
 370  476.3203
 371  424.5629
 372  409.9076
 373  349.7053
 374  384.5263
 375  425.5682
 376  382.7257
 377  396.5936
 378  400.009
 379  276.3612
 380  358.8111
 381  389.8797
 382  536.3364
 383  438.7783
 384  347.9044
 385  481.9903
 386  560.9805
 387  550.6074
 388  502.7849
 389  463.1359
 390  406.6926
 391  429.6339
 392  389.9421
 393  532.1476
 394  390.3061
 395  418.4696
 396  431.7015
 397  405.8599
 398  420.6769
 399  510.7596
 400  381.8332
 401  395.0506
 402  424.0749
 403  369.0994
 404  339.9631
 405  340.2697
 406  392.5206
 407  450.0115
 408  599.3889
 409  525.5086
 410  507.6345
 411  562.1116
 412  476.152
 413  456.4616
 414  480.4069
 415  531.8315
 416  584.9468
 417  575.5983
 418  553.3751
 419  387.4521
 420  438.93
 421  575.0159
 422  573.5945
 423  496.3587
 424  541.6346
 425  448.5442
 426  509.1494
 427  520.3224
 428  429.0754
 429  475.8558
 430  541.9672
 431  496.7124
 432  584.245
 433  621.1461
 434  579.9726
 435  531.2401
 436  504.3653
 437  492.139
 438  450.0423
 439  335.4901
 440  310.4386
 441  402.9743
 442  388.7013
 443  335.5999
 444  444.3266
 445  407.2554
 446  432.5405
 447  402.1093
 448  503.202
 449  468.849
 450  418.1956
 451  552.496
 452  485.5637
 453  494.5521
 454  503.5259
 455  535.39
 456  569.7114
 457  490.5699
 458  469.0612
 459  624.4442
 460  629.53
 461  473.6013
 462  376.5529
 463  392.2917
 464  387.8728
 465  262.1046
 466  371.668
 467  429.0895
 468  405.2175
 469  524.4505
 470  393.0914
 471  377.0481
 472  422.7046
 473  403.4258
 474  403.4768
 475  442.2093
 476  418.5335
 477  590.1605
 478  512.0704
 479  430.555
 480  423.6299
 481  428.4546
 482  382.4087
 483  527.5074
 484  613.6669
 485  463.4767
 486  418.3535
 487  446.6078
 488  541.7797
 489  481.6436
 490  453.6785
 491  495.4707
 492  597.2333
 493  593.325
 494  543.1164
 495  554.3823
 496  594.8514
 497  691.8712
 498  638.7339
 499  532.9241
 500  471.9037
 501  501.5899
 502  572.3211
 503  531.2493
 504  436.2205
 505  421.559
 506  433.454
 507  458.1057
 508  637.1255
 509  818.4116
 510  1015.159
 511  1107.854
