# Input file       =  1206171627.11937_cleaned.dat
# Candidate        =  PSR_0332+5434
# Telescope        =  AR
# Epoch_topo       =  58204.319978233449
# Epoch_bary       =  N/A
# T_sample         =  0.002
# Data Folded      =  7208960
# Data Avg         =  0.272041572521397
# Data StdDev      =  6.57788022553014 
# Profile Bins     =  512
# Profile Avg      =  3830.51291462606 
# Profile StdDev   =  780.525846029969 
# Reduced chi-sqr  =  2.865
# Prob(Noise)      <  9.05e-93   (~20.4 sigma)
# P_topo (ms)      =  714.572250675113  +/- 1.43e-05
# P'_topo (s/s)    =  -0                +/- 7.69e-12
# P''_topo (s/s^2) =  0                 +/- 3.46e-15
# P_bary (ms)      =  N/A
# P'_bary (s/s)    =  N/A
# P''_bary (s/s^2) =  N/A
# P_orb (s)        =  N/A
# asin(i)/c (s)    =  N/A
# eccentricity     =  N/A
# w (rad)          =  N/A
# T_peri           =  N/A
######################################################
   0  5169.985
   1  3852.277
   2  2472.343
   3  3141.771
   4  3617.524
   5  3874.237
   6  3496.269
   7  4542.01
   8  4509.806
   9  3163.302
  10  2005.507
  11  1870.404
  12  3323.388
  13  3866.166
  14  3902.396
  15  5144.202
  16  5684.902
  17  4749.101
  18  3133.289
  19  2143.87
  20  2592.777
  21  3221.383
  22  3798.509
  23  4595.841
  24  5249.333
  25  4898.729
  26  2778.918
  27  1825.705
  28  2474.343
  29  3210.015
  30  3277.605
  31  4653.082
  32  5627.817
  33  5707.383
  34  4325.575
  35  2977.804
  36  2966.439
  37  3561.257
  38  3498.28
  39  3323.365
  40  4131.943
  41  4512.101
  42  3565.348
  43  2396.596
  44  2807.832
  45  3596.697
  46  3815.546
  47  3920.014
  48  4810.022
  49  5244.635
  50  4546.467
  51  3142.529
  52  2762.846
  53  3625.941
  54  4341.302
  55  4055.417
  56  4529.681
  57  4971.976
  58  4272.744
  59  3008.403
  60  1725.39
  61  2435.19
  62  3862.51
  63  4009.962
  64  4440.357
  65  5182.876
  66  4939.071
  67  4167.225
  68  3031.615
  69  3509.384
  70  4358.903
  71  3964.476
  72  3500.771
  73  4557.427
  74  4688.065
  75  4027.02
  76  2363.869
  77  2627.169
  78  3830.537
  79  3991.253
  80  3872.421
  81  4751.994
  82  5176.466
  83  4290.919
  84  3140.44
  85  3082.002
  86  3654.804
  87  4160.232
  88  4356.673
  89  4560.083
  90  5255.528
  91  4646.81
  92  2650.8
  93  1724.704
  94  2580.507
  95  3427.312
  96  4206.233
  97  5007.112
  98  5631.652
  99  5256.179
 100  3527.563
 101  2393.793
 102  2547.095
 103  3343.087
 104  3955.798
 105  3743.597
 106  4883.296
 107  4968.519
 108  4114.825
 109  2566.061
 110  2006.609
 111  3221.502
 112  3821.312
 113  3958.238
 114  4548.839
 115  5373.033
 116  4627.369
 117  3689.863
 118  3018.68
 119  3464.144
 120  4381.105
 121  3737.025
 122  4409.069
 123  5370.572
 124  4783.926
 125  2840.824
 126  2111.391
 127  2561.722
 128  3656.404
 129  3999.516
 130  4310.418
 131  5448.236
 132  5352.87
 133  3911.128
 134  2958.073
 135  2554.893
 136  3694.397
 137  3698.075
 138  3891.058
 139  4419.964
 140  4883.017
 141  4072.419
 142  2641.246
 143  2490.636
 144  3371.128
 145  3698.615
 146  3540.864
 147  4153.263
 148  5203.49
 149  4865.894
 150  3311.641
 151  2926.672
 152  3675.378
 153  4190.172
 154  4295.023
 155  3970.283
 156  4466.545
 157  4000.684
 158  2547.795
 159  1961.87
 160  2665.086
 161  4059.11
 162  4085.656
 163  4363.2
 164  5385.596
 165  5189.534
 166  4327.402
 167  2596.622
 168  2651.82
 169  3011.781
 170  3472.232
 171  3842.559
 172  4876.515
 173  5219.896
 174  3886.805
 175  2431.742
 176  2025.79
 177  2921.592
 178  3537.121
 179  4000.454
 180  4964.165
 181  5460.91
 182  4859.944
 183  3198.106
 184  2693.651
 185  3598.129
 186  4441.58
 187  4624.548
 188  4640.263
 189  4941.528
 190  4104.484
 191  2937.363
 192  2181.487
 193  2738.078
 194  4226.894
 195  4086.177
 196  4565.398
 197  5323.28
 198  5454.862
 199  3748.336
 200  2684.106
 201  2827.064
 202  3522.654
 203  4087.695
 204  4038.93
 205  4728.481
 206  4990.178
 207  3842.82
 208  2472.666
 209  1849.784
 210  2477.466
 211  3593.799
 212  3937.56
 213  4914.062
 214  5663.892
 215  4994.74
 216  3592.777
 217  3018.165
 218  3488.918
 219  3857.417
 220  3591.758
 221  3881.718
 222  4855.754
 223  4342.064
 224  2989.88
 225  1964.057
 226  2519.354
 227  3545.874
 228  3949.627
 229  4260.26
 230  4951.764
 231  4986.301
 232  4287.886
 233  3044.129
 234  2712.214
 235  3959.494
 236  4527.232
 237  4282.183
 238  4087.938
 239  4618.95
 240  3783.72
 241  2482.418
 242  2107.084
 243  2729.018
 244  3666.311
 245  3908.566
 246  4903.179
 247  5868.178
 248  5087.85
 249  3771.87
 250  2295.081
 251  2973.671
 252  3375.585
 253  3270.368
 254  3774.512
 255  4799.013
 256  4501.644
 257  3063.391
 258  1923.786
 259  2466.02
 260  3468.217
 261  3635.973
 262  4120.323
 263  4838.186
 264  4860.99
 265  3889.231
 266  2706.084
 267  2462.138
 268  3817.98
 269  4257.243
 270  4062.219
 271  4422.424
 272  4791.018
 273  4166.221
 274  1902.683
 275  2012.306
 276  3180.373
 277  4027.756
 278  4308.911
 279  4664.122
 280  5513.525
 281  5119.743
 282  3346.6
 283  2501.639
 284  2914.611
 285  3549.788
 286  3194.85
 287  3985.49
 288  4809.656
 289  4405.647
 290  2763.108
 291  2004.721
 292  2611.969
 293  3377.556
 294  3740.959
 295  3918.569
 296  4883.205
 297  5199.662
 298  4529.517
 299  3089.427
 300  2634.683
 301  3302.852
 302  4089.919
 303  4201.773
 304  4498.476
 305  4752.652
 306  3635.796
 307  2328.59
 308  2326.339
 309  2952.014
 310  4033.475
 311  4490.332
 312  4596.228
 313  5811.139
 314  5289.067
 315  4036.58
 316  2961.892
 317  3328.783
 318  4008.965
 319  3809.393
 320  4308.81
 321  5070.324
 322  4553.559
 323  3054.77
 324  2086.424
 325  2275.23
 326  3428.05
 327  3757.731
 328  4173.579
 329  5483.866
 330  5715.785
 331  4576.058
 332  2952.085
 333  2835.464
 334  3688.791
 335  3782.36
 336  3803.437
 337  4562.342
 338  4923.905
 339  3899.031
 340  2658.588
 341  2034.086
 342  2952.046
 343  3867.074
 344  4061.951
 345  4823.16
 346  5404.733
 347  4784.71
 348  3184.279
 349  2374.646
 350  2488.58
 351  3690.634
 352  3932.198
 353  3636.074
 354  4643.505
 355  4366.451
 356  3190.214
 357  2072.371
 358  2122.637
 359  3172.195
 360  3259.646
 361  4075.352
 362  5243.114
 363  5454.88
 364  4796.809
 365  3075.716
 366  2617.36
 367  3396.676
 368  3707.319
 369  3763.411
 370  4115.814
 371  4607.084
 372  4001.597
 373  2772.426
 374  2771.908
 375  3533.085
 376  4070.352
 377  4129.615
 378  5033.22
 379  5511.746
 380  4991.358
 381  4032.167
 382  2687.327
 383  2725.883
 384  3274.318
 385  3335.66
 386  3831.595
 387  4937.555
 388  5289.419
 389  3751.977
 390  2055.018
 391  2129.588
 392  2794.801
 393  3769.646
 394  4090.415
 395  4972.168
 396  5256.442
 397  4303.566
 398  3207.516
 399  3065.043
 400  3739.565
 401  3759.375
 402  3427.521
 403  4110.25
 404  4972.509
 405  3887.171
 406  2816.687
 407  2563.077
 408  3234.436
 409  3564.508
 410  3970.552
 411  4848.292
 412  5235.668
 413  4637.061
 414  3622.553
 415  2719.42
 416  3255.21
 417  3767.349
 418  4069.312
 419  3593.75
 420  4753.634
 421  4605.869
 422  3006.751
 423  2117.153
 424  2485.676
 425  3002.449
 426  3485.092
 427  4071.493
 428  5118.271
 429  5495.903
 430  4373.209
 431  3327.358
 432  2741.501
 433  3505.235
 434  3922.886
 435  3476.319
 436  3842.454
 437  4352.773
 438  4170.583
 439  2665.88
 440  2493.203
 441  3017.395
 442  3729.172
 443  3871.773
 444  4527.636
 445  5213.86
 446  5126.947
 447  4162.487
 448  3460.063
 449  4029.653
 450  5983.133
 451  5835.908
 452  6303.15
 453  6348.503
 454  5899.137
 455  3754.369
 456  1879.086
 457  2489.164
 458  3270.626
 459  3777.553
 460  3915.818
 461  5261.479
 462  6131.186
 463  4892.637
 464  3731.917
 465  3229.76
 466  3667.434
 467  3386.74
 468  3186.876
 469  4158.149
 470  5051.507
 471  4605.716
 472  3155.268
 473  2727.773
 474  2862.229
 475  3574.03
 476  3723.301
 477  4601.419
 478  4893.833
 479  4699.369
 480  3803.297
 481  2693.223
 482  3354.03
 483  4256.605
 484  4437.324
 485  4177.585
 486  4970.191
 487  4794.273
 488  2951.746
 489  1939.762
 490  2762.872
 491  4188.775
 492  4576.538
 493  4151.851
 494  4814.677
 495  5251.412
 496  4616.638
 497  3207.935
 498  2789.64
 499  3594.297
 500  4162.951
 501  3895.086
 502  4394.779
 503  5262.987
 504  4468.676
 505  3144.365
 506  2328.757
 507  2678.779
 508  3260.547
 509  3752.124
 510  4324.87
 511  5204.112
