# Input file       =  1206114991.108777_cleaned.dat
# Candidate        =  PSR_0332+5434
# Telescope        =  AR
# Epoch_topo       =  58203.664468851588
# Epoch_bary       =  N/A
# T_sample         =  0.002
# Data Folded      =  7340032
# Data Avg         =  0.0313873828168063
# Data StdDev      =  1.0000565757757  
# Profile Bins     =  512
# Profile Avg      =  450.09624984401  
# Profile StdDev   =  119.739810366176 
# Reduced chi-sqr  =  1.172
# Prob(Noise)      <  0.00428   (~2.6 sigma)
# P_topo (ms)      =  714.572945084624  +/- 0.000296
# P'_topo (s/s)    =  -0                +/- 1.56e-10
# P''_topo (s/s^2) =  0                 +/- 6.89e-14
# P_bary (ms)      =  N/A
# P'_bary (s/s)    =  N/A
# P''_bary (s/s^2) =  N/A
# P_orb (s)        =  N/A
# asin(i)/c (s)    =  N/A
# eccentricity     =  N/A
# w (rad)          =  N/A
# T_peri           =  N/A
######################################################
   0  524.8472
   1  574.7239
   2  463.0398
   3  453.7683
   4  529.52
   5  577.2044
   6  589.6258
   7  542.2069
   8  484.8976
   9  496.6012
  10  541.7509
  11  540.85
  12  436.2333
  13  506.5513
  14  480.3647
  15  338.8743
  16  449.637
  17  405.1553
  18  387.1785
  19  419.3893
  20  408.7714
  21  388.8886
  22  356.5123
  23  476.3661
  24  461.8277
  25  442.3992
  26  482.0992
  27  509.5472
  28  546.1343
  29  493.5149
  30  446.9689
  31  515.0493
  32  459.2832
  33  491.3203
  34  485.3287
  35  516.078
  36  485.0839
  37  360.4403
  38  321.4767
  39  435.2746
  40  428.2915
  41  518.6859
  42  498.2971
  43  495.2809
  44  494.9836
  45  496.1685
  46  469.3777
  47  559.9725
  48  522.1151
  49  477.0989
  50  530.8486
  51  527.6489
  52  428.6539
  53  466.7803
  54  481.6265
  55  488.5445
  56  432.1743
  57  421.9544
  58  507.0873
  59  531.0635
  60  556.1177
  61  496.7697
  62  353.0105
  63  465.7666
  64  481.085
  65  455.2051
  66  428.0042
  67  583.883
  68  611.4074
  69  466.32
  70  438.1631
  71  485.7254
  72  451.6204
  73  447.6787
  74  448.2087
  75  462.3671
  76  417.004
  77  407.5714
  78  361.2697
  79  381.5705
  80  438.0545
  81  546.5182
  82  501.0141
  83  506.7019
  84  486.9327
  85  480.6983
  86  465.0562
  87  462.4176
  88  532.807
  89  424.4599
  90  345.8739
  91  318.9336
  92  375.0877
  93  421.9426
  94  489.8366
  95  510.1017
  96  440.9539
  97  476.7403
  98  443.922
  99  450.6138
 100  505.4552
 101  528.2907
 102  482.5187
 103  413.1338
 104  391.0258
 105  450.857
 106  378.3512
 107  361.2009
 108  375.2254
 109  452.126
 110  449.7864
 111  458.251
 112  497.9217
 113  491.8522
 114  454.6009
 115  466.3195
 116  556.7473
 117  575.5056
 118  520.1399
 119  392.8349
 120  429.4488
 121  483.3843
 122  505.3036
 123  668.6402
 124  551.0695
 125  461.7945
 126  512.8258
 127  519.5674
 128  499.5922
 129  478.5088
 130  510.4391
 131  447.2259
 132  425.7454
 133  427.8379
 134  342.3246
 135  404.2615
 136  493.9135
 137  416.6031
 138  380.9861
 139  336.4066
 140  489.6371
 141  572.3777
 142  595.5238
 143  512.5945
 144  529.0607
 145  457.8391
 146  384.7784
 147  471.3273
 148  403.8183
 149  368.0423
 150  504.3408
 151  534.7273
 152  499.2372
 153  375.079
 154  326.0037
 155  329.2385
 156  350.9723
 157  408.4938
 158  428.2729
 159  373.8708
 160  436.9058
 161  512.597
 162  391.4772
 163  394.4308
 164  433.2459
 165  476.2458
 166  526.7433
 167  539.8791
 168  517.3504
 169  471.3924
 170  532.8002
 171  437.0425
 172  358.1925
 173  299.5507
 174  327.3782
 175  286.3272
 176  337.9954
 177  394.0305
 178  353.0896
 179  430.0662
 180  457.6701
 181  467.0504
 182  468.0251
 183  466.5099
 184  385.6042
 185  327.1235
 186  390.2103
 187  407.1452
 188  348.3908
 189  327.2925
 190  441.0264
 191  520.9605
 192  512.701
 193  506.8672
 194  567.057
 195  364.5705
 196  397.3768
 197  533.2791
 198  513.9164
 199  573.2476
 200  489.6571
 201  422.9236
 202  413.4846
 203  458.0381
 204  522.5731
 205  601.5695
 206  511.2634
 207  481.4013
 208  484.902
 209  501.101
 210  528.2363
 211  475.6823
 212  454.5045
 213  543.2747
 214  434.4581
 215  487.9335
 216  547.3785
 217  535.5126
 218  603.4689
 219  746.6562
 220  877.2209
 221  1071.526
 222  1133.975
 223  1000.035
 224  929.3047
 225  737.3521
 226  476.0229
 227  331.2953
 228  386.0566
 229  444.7056
 230  422.6822
 231  417.1617
 232  533.8796
 233  494.6957
 234  341.7203
 235  359.2351
 236  447.395
 237  508.7216
 238  435.5774
 239  297.3011
 240  369.6977
 241  544.2179
 242  481.0514
 243  411.6187
 244  417.1245
 245  443.9934
 246  442.9299
 247  408.385
 248  474.8847
 249  529.6583
 250  368.8986
 251  512.0638
 252  525.2302
 253  468.2065
 254  542.3856
 255  428.7994
 256  416.9317
 257  426.3176
 258  474.0518
 259  415.7468
 260  403.3123
 261  464.6286
 262  489.4502
 263  367.4806
 264  310.8479
 265  448.5946
 266  460.0003
 267  560.1992
 268  568.925
 269  520.7979
 270  487.546
 271  464.5602
 272  398.983
 273  397.8203
 274  441.9794
 275  378.1531
 276  423.7071
 277  476.6762
 278  568.5391
 279  523.6709
 280  432.0295
 281  409.4423
 282  496.183
 283  497.7026
 284  496.8421
 285  501.6405
 286  513.7
 287  476.0603
 288  413.5728
 289  603.553
 290  616.8629
 291  569.9751
 292  544.222
 293  498.1437
 294  443.9694
 295  606.1954
 296  634.1951
 297  587.8109
 298  512.6046
 299  554.813
 300  491.5509
 301  445.3734
 302  470.053
 303  293.5107
 304  508.0277
 305  505.4387
 306  437.2595
 307  371.3835
 308  526.4445
 309  482.4189
 310  437.1407
 311  484.821
 312  489.2658
 313  480.6576
 314  464.5771
 315  523.5082
 316  539.1712
 317  517.0024
 318  397.7798
 319  378.4759
 320  542.6395
 321  395.0389
 322  453.621
 323  408.6736
 324  243.6661
 325  339.6346
 326  462.116
 327  475.44
 328  440.9001
 329  424.1414
 330  528.8603
 331  505.7321
 332  365.2389
 333  402.2434
 334  377.424
 335  468.37
 336  440.1594
 337  413.2272
 338  432.9601
 339  473.9973
 340  456.1328
 341  444.2996
 342  414.707
 343  370.5141
 344  384.0284
 345  369.6814
 346  437.4687
 347  464.8536
 348  456.171
 349  531.7856
 350  498.5705
 351  406.5216
 352  399.9753
 353  364.3932
 354  308.3636
 355  347.7592
 356  370.267
 357  298.8364
 358  322.8149
 359  353.6624
 360  296.8975
 361  401.0197
 362  378.3528
 363  370.0904
 364  420.6605
 365  411.844
 366  547.4807
 367  487.1334
 368  431.9612
 369  443.1726
 370  376.5011
 371  490.7382
 372  427.0903
 373  426.5923
 374  448.8606
 375  339.2457
 376  304.6604
 377  324.764
 378  365.0966
 379  447.2726
 380  319.0011
 381  384.774
 382  430.6456
 383  290.1464
 384  333.8765
 385  383.5319
 386  342.7955
 387  392.6229
 388  302.5481
 389  317.3074
 390  410.7941
 391  389.7525
 392  482.623
 393  372.2198
 394  308.7689
 395  411.9165
 396  405.7097
 397  337.8865
 398  292.7759
 399  315.3022
 400  387.7508
 401  302.8655
 402  366.8521
 403  457.4039
 404  472.1341
 405  517.4899
 406  411.8078
 407  347.4543
 408  404.36
 409  421.7826
 410  449.3586
 411  431.124
 412  479.1858
 413  434.9386
 414  306.9524
 415  217.6388
 416  263.3336
 417  405.7475
 418  401.834
 419  414.8514
 420  423.5459
 421  409.1656
 422  314.3454
 423  290.1878
 424  296.5844
 425  274.3015
 426  306.3263
 427  377.0775
 428  366.4917
 429  383.9834
 430  434.1653
 431  350.5278
 432  379.6051
 433  376.5047
 434  420.138
 435  462.0086
 436  399.1436
 437  450.6874
 438  415.3465
 439  365.9388
 440  365.0717
 441  434.2746
 442  578.5942
 443  498.9007
 444  385.0673
 445  512.0143
 446  498.9469
 447  461.9055
 448  510.7344
 449  526.2225
 450  511.2081
 451  481.6057
 452  498.5529
 453  535.4838
 454  503.5405
 455  393.9299
 456  452.0182
 457  399.5922
 458  303.8401
 459  394.5223
 460  391.211
 461  450.1179
 462  461.7836
 463  529.5624
 464  502.8575
 465  298.7383
 466  437.2441
 467  498.9576
 468  485.2017
 469  579.5278
 470  616.4201
 471  557.5347
 472  483.3144
 473  423.2137
 474  335.6189
 475  423.9093
 476  486.0621
 477  320.0928
 478  366.3816
 479  398.6452
 480  404.0797
 481  459.4647
 482  350.5699
 483  322.0498
 484  367.5756
 485  355.8968
 486  414.8737
 487  417.0647
 488  513.8839
 489  488.2969
 490  472.4495
 491  459.8063
 492  464.8342
 493  474.6969
 494  354.1853
 495  374.7022
 496  337.2576
 497  413.7828
 498  393.3072
 499  426.1762
 500  371.5558
 501  307.1637
 502  371.2797
 503  475.2538
 504  501.6689
 505  398.4675
 506  372.62
 507  373.9738
 508  349.4955
 509  441.9498
 510  529.974
 511  482.0339
