# Input file       =  1206028808.107821-PSRB0329-2ms-sampling-dd.dat
# Candidate        =  PSR_0332+5434
# Telescope        =  AR
# Epoch_topo       =  58202.666980414593
# Epoch_bary       =  N/A
# T_sample         =  0.002
# Data Folded      =  7340032
# Data Avg         =  -2.65618827059506e-09
# Data StdDev      =  92.4345495880277 
# Profile Bins     =  512
# Profile Avg      =  -0.228734709565942
# Profile StdDev   =  11067.4692882933 
# Reduced chi-sqr  =  1.076
# Prob(Noise)      <  0.113   (~1.2 sigma)
# P_topo (ms)      =  714.573454280968  +/- 0.000478
# P'_topo (s/s)    =  -0                +/- 2.52e-10
# P''_topo (s/s^2) =  0                 +/- 1.11e-13
# P_bary (ms)      =  N/A
# P'_bary (s/s)    =  N/A
# P''_bary (s/s^2) =  N/A
# P_orb (s)        =  N/A
# asin(i)/c (s)    =  N/A
# eccentricity     =  N/A
# w (rad)          =  N/A
# T_peri           =  N/A
######################################################
   0  -6022.683
   1  -4740.079
   2  -3310.248
   3  -1143.074
   4  -1576.649
   5  -1726.489
   6  -2023.765
   7  -3337.365
   8  -595.6419
   9  647.7923
  10  2553.322
  11  -420.875
  12  52.17178
  13  -746.204
  14  -2084.594
  15  -77.83583
  16  4312.595
  17  12702.32
  18  11168.19
  19  10054.34
  20  4019.81
  21  -2384.949
  22  -2432.231
  23  6113.085
  24  13297.04
  25  13292.72
  26  10932.94
  27  2380.514
  28  -1602.064
  29  -3653.463
  30  4860.051
  31  9976.486
  32  11647.8
  33  10584.37
  34  3759.642
  35  -578.6915
  36  -4396.277
  37  3450.54
  38  7129.45
  39  9980.773
  40  7132.946
  41  3856.96
  42  704.2271
  43  -4900.301
  44  -761.4163
  45  2015.413
  46  5814.099
  47  4147.606
  48  2809.901
  49  1206.389
  50  -4233.006
  51  256.326
  52  3020.975
  53  6829.174
  54  4955.453
  55  3249.153
  56  -374.6394
  57  -5737.083
  58  -1486.87
  59  4082.923
  60  8021.343
  61  6095.253
  62  4612.59
  63  192.1667
  64  -3925.934
  65  -4402.926
  66  -437.1548
  67  309.6564
  68  -703.4899
  69  -1687.264
  70  -3550.797
  71  -4270.337
  72  -4751.096
  73  -4450.112
  74  -3935.528
  75  -4449.603
  76  -3249.967
  77  -1819.563
  78  -795.4642
  79  -1554.671
  80  -1667.933
  81  -2287.138
  82  -3365.42
  83  1102.02
  84  3627.194
  85  8535.91
  86  8744.381
  87  6930.961
  88  4941.3
  89  13.68974
  90  3388.404
  91  8682.699
  92  17560
  93  14991.81
  94  11958.69
  95  5847.196
  96  2051.392
  97  244.278
  98  5510.337
  99  9682.82
 100  11908.43
 101  13077.67
 102  8771.06
 103  4732.819
 104  1845.888
 105  5692.98
 106  8674.66
 107  10564.86
 108  10348.82
 109  4996.766
 110  2230.391
 111  -1261.738
 112  -1575.73
 113  -2.108813
 114  2045.593
 115  3242.099
 116  2547.808
 117  1978.416
 118  -606.4634
 119  415.3084
 120  2490.104
 121  6836.232
 122  10353.78
 123  8132.397
 124  5827.945
 125  169.7298
 126  1129.479
 127  3631.097
 128  6615.286
 129  5951.272
 130  6894.363
 131  7004.183
 132  6902.594
 133  6823.464
 134  5799.952
 135  7434.842
 136  5254.718
 137  9841.998
 138  6209.296
 139  4386.562
 140  3270.712
 141  6199.487
 142  7017.612
 143  6607.456
 144  7242.722
 145  2563.44
 146  465.6607
 147  -2286.414
 148  1308.586
 149  4498.606
 150  5651.541
 151  6030.2
 152  1287.402
 153  -785.4743
 154  -4180.384
 155  -1092.439
 156  382.8098
 157  977.109
 158  399.4451
 159  -1908.681
 160  -2500.163
 161  -3944.202
 162  -1862.873
 163  101.1252
 164  1863.4
 165  1596.714
 166  -1076.366
 167  -3266.238
 168  -4223.594
 169  -2253.946
 170  -932.7938
 171  1167.025
 172  -228.8094
 173  -1133.163
 174  -1795.237
 175  -3318.389
 176  -2377.132
 177  -806.5297
 178  3841.299
 179  2144.77
 180  460.9314
 181  -2001.018
 182  -3687.128
 183  -3070.479
 184  343.5385
 185  3362.241
 186  2549.23
 187  1428.666
 188  -1662.197
 189  -925.4172
 190  1585.609
 191  8377.276
 192  11838.22
 193  11865.57
 194  5902.202
 195  -2295.915
 196  -358.3307
 197  6273.199
 198  8317.5
 199  9087.162
 200  8516.707
 201  411.6046
 202  -64.65187
 203  701.1495
 204  1838.274
 205  2684.539
 206  3326.896
 207  4656.717
 208  3443.027
 209  2289.867
 210  2350.237
 211  2608.995
 212  5707.415
 213  7955.917
 214  9471.525
 215  8460.045
 216  10311.49
 217  14412.22
 218  25884
 219  29856.56
 220  34373.87
 221  37047.04
 222  21646.71
 223  18764.8
 224  27433.56
 225  32843.6
 226  28821.11
 227  25282.2
 228  16155.62
 229  8286.933
 230  1146.336
 231  -806.2457
 232  -3351.533
 233  -5209.841
 234  -3548.666
 235  -1418.736
 236  -585.8947
 237  -722.9261
 238  -2417.298
 239  -3231.626
 240  -4964.775
 241  -3890.99
 242  -2634.394
 243  -3190.123
 244  -4146.447
 245  -5921.102
 246  -5527.274
 247  -5406.399
 248  -4034.695
 249  -3321.081
 250  -3646.012
 251  -3893.688
 252  -4362.518
 253  -3959.599
 254  -4568.149
 255  -3194.093
 256  -2166.348
 257  -1969.396
 258  -3643.844
 259  -3414.582
 260  -2338.013
 261  -1840.138
 262  -1488.459
 263  -1289.358
 264  -2235.26
 265  -4116.717
 266  -2624.276
 267  -2206.346
 268  -3825.281
 269  -3923.951
 270  -2861.291
 271  -3021.747
 272  -3666.194
 273  -3536.259
 274  -2766.758
 275  -2422.773
 276  -1849.376
 277  -632.4538
 278  -913.2482
 279  -1849.551
 280  -2168.418
 281  -2271.971
 282  -3593.196
 283  -4680.915
 284  -3928.808
 285  -4024.367
 286  -4747.571
 287  -5573.985
 288  -5960.821
 289  -6218.205
 290  -6218.697
 291  -4996.148
 292  -3960.984
 293  -3676.989
 294  -4296.818
 295  -4952.13
 296  -5789.088
 297  -6301.288
 298  -5475.791
 299  -4837.43
 300  -5076.63
 301  -5815.359
 302  -6535.357
 303  -6333.128
 304  -7236.276
 305  -6226.14
 306  -5250.91
 307  -4501.962
 308  -5299.669
 309  -6407.153
 310  -5737.165
 311  -6469.01
 312  -5580.217
 313  -4884.823
 314  -4104.571
 315  -4685.656
 316  -6047.255
 317  -6722.493
 318  -7104.729
 319  -7569.645
 320  -6863.192
 321  -6548.072
 322  -6405.682
 323  -6588.074
 324  -7263.114
 325  -7832.533
 326  -8489.788
 327  -7627.292
 328  -7188.47
 329  -7629.533
 330  -7627.9
 331  -7770.117
 332  -7544.39
 333  -6854.023
 334  -5770.21
 335  -4335.515
 336  -2469.294
 337  -2632.919
 338  -3330.8
 339  -4109.333
 340  -5085.768
 341  -3328.152
 342  -1264.753
 343  -881.124
 344  -1762.099
 345  -3907.575
 346  -3143.933
 347  -3397.231
 348  -2308.416
 349  -1319.366
 350  -2685.441
 351  -3352.252
 352  -4488.153
 353  -5536.67
 354  -5041.392
 355  -3560.849
 356  -1776.777
 357  -1610.186
 358  -2733.074
 359  -4770.336
 360  -6206.48
 361  -5257.285
 362  -4516.415
 363  -3903.529
 364  -4501.35
 365  -5399.286
 366  -5837.017
 367  -6598.008
 368  -6790.283
 369  -6585.115
 370  -6543.14
 371  -6444.371
 372  -6962.423
 373  -6622.836
 374  -5444.512
 375  -5076.388
 376  -4691.362
 377  -4458.997
 378  -6126.817
 379  -6383.479
 380  -6519.628
 381  -5101.918
 382  -5321.438
 383  -5176.637
 384  -4091.342
 385  -4273.968
 386  -4526.375
 387  -5268.786
 388  -5703.821
 389  -5443.231
 390  -4701.119
 391  -3815.981
 392  -3676.528
 393  -3225.76
 394  -4804.113
 395  -5341.335
 396  -5156.604
 397  -5798.219
 398  -6154.839
 399  -5706.699
 400  -6162.584
 401  -7072.824
 402  -7410.979
 403  -7396.916
 404  -7066.675
 405  -6544.897
 406  -6508.955
 407  -6780.442
 408  -7165.581
 409  -7962.588
 410  -7539.24
 411  -7004.392
 412  -7006.539
 413  -6898.964
 414  -6172.587
 415  -7148.637
 416  -3837.002
 417  3044.564
 418  11511.02
 419  17136.63
 420  23169.22
 421  34255.89
 422  30543.64
 423  30428.74
 424  40221.21
 425  27765.14
 426  29016.66
 427  38401.75
 428  42073.8
 429  36942.93
 430  29435.92
 431  12995.48
 432  5646.303
 433  529.6699
 434  922.9071
 435  -1990.145
 436  -4137.794
 437  -6037.621
 438  -7326.182
 439  -7379.44
 440  -6880.659
 441  -5843.948
 442  -6197.567
 443  -6325.838
 444  -6799.207
 445  -7478.62
 446  -7931.868
 447  -7047.927
 448  -6662.47
 449  -6530.657
 450  -7668.877
 451  -7870.46
 452  -7775.366
 453  -7482.577
 454  -6596.855
 455  -5690.257
 456  -5385.878
 457  -5369.927
 458  -5649.772
 459  -5831.375
 460  -6738.441
 461  -5659.202
 462  -4848.88
 463  -4042.785
 464  -5282.481
 465  -5469.479
 466  -6025.317
 467  -6042.556
 468  -6247.572
 469  -6002.931
 470  -5832.024
 471  -5570.799
 472  -5738.333
 473  -5678.392
 474  -5628.21
 475  -6049.546
 476  -6540.771
 477  -5402.159
 478  -5767.386
 479  -5354.389
 480  -4689.179
 481  -5447.026
 482  -6348.198
 483  -7201.003
 484  -6616.958
 485  -5868.625
 486  -4704.868
 487  -4912.576
 488  -5540.845
 489  -6577.449
 490  -7014.274
 491  -6536.363
 492  -6030.974
 493  -5483.768
 494  -5623.742
 495  -5693.505
 496  -5833.467
 497  -5922.688
 498  -5489.893
 499  -4752.937
 500  -4416.756
 501  -4585.619
 502  -4898.501
 503  -5413.596
 504  -4950.227
 505  -4839.694
 506  -4459.812
 507  -4144.349
 508  -4508.202
 509  -4510.364
 510  -5276.744
 511  -5931.93
