# Input file       =  1206287371.110199-PSRB0329-2ms-sampling-dd.dat
# Candidate        =  PSR_0332+5434
# Telescope        =  AR
# Epoch_topo       =  58205.659607756934
# Epoch_bary       =  N/A
# T_sample         =  0.002
# Data Folded      =  7340032
# Data Avg         =  4.42091558349657e-10
# Data StdDev      =  10.3974995902734 
# Profile Bins     =  512
# Profile Avg      =  0.519288325284014
# Profile StdDev   =  1244.92419666961 
# Reduced chi-sqr  =  0.756
# Prob(Noise)      <  1   (~0.0 sigma)
# P_topo (ms)      =  714.571886556817  +/- 0.000232
# P'_topo (s/s)    =  -0                +/- 1.22e-10
# P''_topo (s/s^2) =  0                 +/- 5.4e-14
# P_bary (ms)      =  N/A
# P'_bary (s/s)    =  N/A
# P''_bary (s/s^2) =  N/A
# P_orb (s)        =  N/A
# asin(i)/c (s)    =  N/A
# eccentricity     =  N/A
# w (rad)          =  N/A
# T_peri           =  N/A
######################################################
   0  208.4425
   1  361.5704
   2  737.4683
   3  344.7014
   4  92.29782
   5  657.7618
   6  289.7886
   7  294.301
   8  847.6192
   9  852.0479
  10  728.9047
  11  191.2783
  12  466.5486
  13  696.1471
  14  313.408
  15  -480.846
  16  -680.6815
  17  -676.6611
  18  -703.6234
  19  -726.1874
  20  -614.5727
  21  -129.1206
  22  428.231
  23  277.4419
  24  -245.5595
  25  -727.1828
  26  340.7388
  27  208.0232
  28  172.0019
  29  690.6778
  30  311.1271
  31  -523.2421
  32  -770.3497
  33  -714.0117
  34  -329.5046
  35  -623.2514
  36  -315.919
  37  -1035.294
  38  -1139.58
  39  -333.0186
  40  -703.8079
  41  -96.97157
  42  451.4247
  43  1553.304
  44  836.6949
  45  -522.1225
  46  136.1168
  47  -0.7514144
  48  1035.208
  49  513.0228
  50  663.9929
  51  120.1753
  52  -176.5305
  53  104.5602
  54  -500.1737
  55  -129.8408
  56  -95.20667
  57  -158.3396
  58  -842.9224
  59  -756.079
  60  -492.1642
  61  -1470.062
  62  29.28496
  63  629.5772
  64  -352.622
  65  -160.1003
  66  79.16477
  67  327.6297
  68  1349.689
  69  1649.859
  70  962.2139
  71  -150.1229
  72  -442.4424
  73  -86.69904
  74  -133.7671
  75  782.4808
  76  1544.177
  77  692.9351
  78  -162.8663
  79  -1307.26
  80  -1510.07
  81  -1407.306
  82  -193.5797
  83  717.2167
  84  577.0502
  85  319.7489
  86  126.2757
  87  -653.1596
  88  -953.194
  89  -1086.35
  90  -834.2761
  91  -1096.013
  92  -166.3297
  93  266.2281
  94  155.9048
  95  -398.2265
  96  -800.5787
  97  -325.3776
  98  -839.9041
  99  -951.2437
 100  -874.14
 101  -903.6154
 102  -1074.988
 103  -1359.895
 104  -917.1672
 105  -242.99
 106  271.8847
 107  -36.2424
 108  -1112.637
 109  -1132.449
 110  -890.4233
 111  -484.5031
 112  -775.6357
 113  -301.3339
 114  -356.1638
 115  -495.1701
 116  -1796.653
 117  -1662.657
 118  -1567.597
 119  -1180.084
 120  -1100.133
 121  -679.0657
 122  117.5789
 123  -863.7648
 124  -660.4216
 125  -110.5022
 126  258.571
 127  948.1927
 128  2119.302
 129  1950.182
 130  1120.131
 131  153.1797
 132  43.48956
 133  -83.62343
 134  -84.75926
 135  416.3949
 136  674.5175
 137  250.1134
 138  430.5281
 139  433.0069
 140  115.5404
 141  -542.4322
 142  -494.5031
 143  -212.2885
 144  -644.3643
 145  -260.8152
 146  743.3333
 147  507.5768
 148  -298.2567
 149  -595.0972
 150  -948.6989
 151  -1823.307
 152  -1162.548
 153  -1074.314
 154  -565.0636
 155  -911.7692
 156  -945.6208
 157  -906.3002
 158  -399.3581
 159  -488.9096
 160  -402.8767
 161  -604.7773
 162  -366.599
 163  -619.6028
 164  -741.1708
 165  -212.9659
 166  -163.9463
 167  -500.6062
 168  -742.7974
 169  -724.6289
 170  -270.7827
 171  165.6617
 172  -495.1368
 173  -623.0075
 174  -124.9276
 175  -18.17715
 176  510.6308
 177  515.3443
 178  204.0143
 179  973.4562
 180  725.4757
 181  1080.793
 182  246.6172
 183  364.6803
 184  112.7788
 185  171.5132
 186  1155.5
 187  1720.691
 188  459.6385
 189  31.39784
 190  -211.349
 191  -426.9443
 192  -355.5351
 193  -353.2365
 194  -406.3706
 195  -495.7384
 196  -388.92
 197  -725.2031
 198  -384.631
 199  -479.5708
 200  -328.1252
 201  281.3976
 202  690.6927
 203  1339.415
 204  61.49314
 205  -206.8349
 206  282.1403
 207  842.9937
 208  1280.91
 209  1369.253
 210  1244.039
 211  -67.2677
 212  -945.6748
 213  -558.4709
 214  -358.6837
 215  542.5371
 216  984.7969
 217  1635.302
 218  1980.683
 219  895.6088
 220  923.1691
 221  -755.3902
 222  -336.4142
 223  613.6508
 224  167.1121
 225  746.5965
 226  1531.737
 227  1241.903
 228  595.0948
 229  596.8964
 230  311.9632
 231  232.4839
 232  45.58286
 233  980.2644
 234  713.1874
 235  447.3342
 236  1347.165
 237  953.0537
 238  452.7298
 239  995.9805
 240  1984.427
 241  2460.472
 242  1610.122
 243  1458.247
 244  1463.166
 245  831.3588
 246  719.5648
 247  968.9883
 248  1026.798
 249  981.2215
 250  1571.899
 251  1291.952
 252  749.3247
 253  -53.46317
 254  -478.7069
 255  -869.144
 256  -509.3446
 257  151.2367
 258  69.22095
 259  -172.0544
 260  -174.1131
 261  763.0269
 262  1014.282
 263  627.5125
 264  -9.098702
 265  -541.2002
 266  -580.151
 267  -515.217
 268  363.721
 269  720.364
 270  -204.1518
 271  -419.6045
 272  -683.4769
 273  -778.8396
 274  -321.518
 275  -77.51288
 276  327.9969
 277  889.3337
 278  1088.351
 279  758.72
 280  162.7968
 281  99.23441
 282  249.3481
 283  799.3389
 284  209.6868
 285  272.4901
 286  331.1437
 287  17.6867
 288  -626.3716
 289  -531.2294
 290  -342.2565
 291  117.5187
 292  -586.405
 293  287.369
 294  882.0462
 295  917.7291
 296  447.9618
 297  994.6976
 298  1235.316
 299  1328.454
 300  1071.781
 301  721.958
 302  976.9127
 303  1307.019
 304  1204.656
 305  1613.162
 306  2353.375
 307  852.2438
 308  24.77728
 309  1199.337
 310  2397.334
 311  1287.532
 312  770.3704
 313  1553.544
 314  1059.986
 315  54.88805
 316  604.2503
 317  505.0106
 318  -547.7321
 319  191.9268
 320  -395.8242
 321  -547.3088
 322  -979.7584
 323  -1280.328
 324  -1155.814
 325  -1349.562
 326  -1165.017
 327  -478.241
 328  -181.1616
 329  81.9408
 330  -94.55501
 331  -634.05
 332  -618.5308
 333  -611.514
 334  -288.5401
 335  164.2658
 336  659.3728
 337  181.1403
 338  224.3046
 339  -159.19
 340  -269.1377
 341  108.853
 342  -886.7032
 343  -801.7679
 344  -456.2508
 345  473.8826
 346  1732.421
 347  1994.314
 348  90.64496
 349  -475.0565
 350  290.2551
 351  -572.8461
 352  -523.0867
 353  -184.5104
 354  -336.9305
 355  -853.9437
 356  -692.8782
 357  -363.3064
 358  -523.1392
 359  -897.8588
 360  -1037.844
 361  -1422.919
 362  -1560.502
 363  -1144.621
 364  -328.7502
 365  -165.8425
 366  -709.7136
 367  -464.961
 368  -30.20145
 369  -13.56582
 370  173.1785
 371  374.843
 372  155.5411
 373  208.5593
 374  467.4825
 375  -239.2817
 376  582.0535
 377  928.1423
 378  1358.25
 379  966.5607
 380  56.15955
 381  -370.6737
 382  -433.83
 383  -836.356
 384  -773.7009
 385  -769.9551
 386  -562.3572
 387  -939.1572
 388  -743.3424
 389  -480.6728
 390  -165.7608
 391  446.9467
 392  838.1102
 393  1472.664
 394  753.2282
 395  1022.407
 396  930.6109
 397  1298.664
 398  2558.41
 399  1736.046
 400  854.534
 401  339.6569
 402  274.2057
 403  -120.6242
 404  57.41624
 405  449.8853
 406  401.6236
 407  275.2529
 408  258.9884
 409  342.3056
 410  53.00452
 411  -805.0479
 412  -902.5396
 413  -213.1588
 414  -230.8156
 415  458.4407
 416  498.3926
 417  -69.8394
 418  -1035.505
 419  -922.0817
 420  -531.0989
 421  -575.0069
 422  -591.3147
 423  168.2119
 424  59.73968
 425  -260.6844
 426  -465.3552
 427  -929.6925
 428  -609.527
 429  -921.8313
 430  -794.6884
 431  -667.4156
 432  -297.4084
 433  -519.74
 434  -329.6331
 435  -850.4689
 436  -871.2624
 437  -585.1512
 438  -59.08118
 439  -397.464
 440  -310.0395
 441  9.631121
 442  -517.6909
 443  -737.329
 444  -368.9337
 445  -425.3353
 446  -527.8843
 447  -32.89402
 448  235.6324
 449  -165.8936
 450  -379.8867
 451  -1089.022
 452  -1816.276
 453  -1710.702
 454  -660.7025
 455  48.02497
 456  442.6272
 457  35.85597
 458  -1258.849
 459  -980.8373
 460  380.2539
 461  1333.878
 462  533.3581
 463  470.036
 464  462.6082
 465  72.22348
 466  385.9886
 467  732.7958
 468  -55.50985
 469  -914.9084
 470  -1157.623
 471  -571.9987
 472  -288.1357
 473  18.36783
 474  35.33509
 475  726.4535
 476  663.9586
 477  -212.3259
 478  -263.5792
 479  -199.602
 480  -15.17054
 481  314.1801
 482  -417.1567
 483  211.9163
 484  970.2762
 485  1880.691
 486  968.7305
 487  -530.3354
 488  -1360.886
 489  -725.6714
 490  79.29107
 491  -744.092
 492  -818.8335
 493  -1140.588
 494  -906.8875
 495  -1495.01
 496  -1132.509
 497  -1197.495
 498  -944.4904
 499  -93.76954
 500  -401.1609
 501  161.953
 502  -234.6595
 503  -560.3528
 504  -1007.031
 505  -612.2092
 506  -382.4934
 507  -157.617
 508  455.4599
 509  554.993
 510  573.8729
 511  453.9561
