# Input file       =  1206272451.117398_cleaned.dat
# Candidate        =  PSR_0332+5434
# Telescope        =  AR
# Epoch_topo       =  58205.486922655073
# Epoch_bary       =  N/A
# T_sample         =  0.002
# Data Folded      =  7340032
# Data Avg         =  -0.0135843788795801
# Data StdDev      =  1.00032703058726 
# Profile Bins     =  512
# Profile Avg      =  -194.738447003107
# Profile StdDev   =  119.772192741967 
# Reduced chi-sqr  =  0.981
# Prob(Noise)      <  0.611   (~0.0 sigma)
# P_topo (ms)      =  714.571643844376  +/- 0.000506
# P'_topo (s/s)    =  -0                +/- 2.67e-10
# P''_topo (s/s^2) =  0                 +/- 1.18e-13
# P_bary (ms)      =  N/A
# P'_bary (s/s)    =  N/A
# P''_bary (s/s^2) =  N/A
# P_orb (s)        =  N/A
# asin(i)/c (s)    =  N/A
# eccentricity     =  N/A
# w (rad)          =  N/A
# T_peri           =  N/A
######################################################
   0  -267.8954
   1  -258.7728
   2  -257.5995
   3  -281.1278
   4  -193.8178
   5  -284.2596
   6  -299.0983
   7  -162.7562
   8  -232.0456
   9  -326.5142
  10  -341.4681
  11  -285.2508
  12  -235.7913
  13  -255.7272
  14  -292.59
  15  -317.856
  16  -280.9122
  17  -312.9105
  18  -366.2505
  19  -360.8698
  20  -316.1637
  21  -286.4739
  22  -212.7061
  23  -177.7197
  24  -238.8308
  25  -313.4299
  26  -234.7308
  27  -250.4856
  28  -258.4558
  29  -326.5665
  30  -303.8299
  31  -273.843
  32  -284.6374
  33  -241.8099
  34  -211.4516
  35  -187.101
  36  -219.0484
  37  -288.2758
  38  -303.4064
  39  -240.0839
  40  -263.4163
  41  -256.792
  42  -223.9691
  43  -262.8986
  44  -227.3272
  45  -295.7346
  46  -296.4125
  47  -204.5292
  48  -229.3665
  49  -214.1563
  50  -220.101
  51  -201.4714
  52  -275.0978
  53  -201.6124
  54  -202.9378
  55  -175.9929
  56  -201.4201
  57  -220.0745
  58  -253.1018
  59  -204.635
  60  -193.5625
  61  -140.4118
  62  -205.7773
  63  -252.8677
  64  -185.5368
  65  -185.9686
  66  -190.9438
  67  -250.5385
  68  -254.3069
  69  -275.0797
  70  -237.963
  71  -236.8857
  72  -257.8457
  73  -209.3019
  74  -196.1287
  75  -155.6021
  76  -116.8696
  77  -214.7591
  78  -198.8674
  79  -275.8363
  80  -201.2172
  81  -184.0726
  82  -212.6958
  83  -237.3965
  84  -236.0508
  85  -194.587
  86  -216.885
  87  -161.7849
  88  -167.3767
  89  -189.0636
  90  -226.7528
  91  -191.7757
  92  -172.9906
  93  -209.454
  94  -223.3338
  95  -106.6175
  96  -93.30946
  97  -101.4092
  98  -137.6988
  99  -201.6351
 100  -113.143
 101  -39.16246
 102  -126.1209
 103  -234.3591
 104  -243.3777
 105  -262.0283
 106  -162.4111
 107  -131.9363
 108  -160.5384
 109  -215.0094
 110  -141.0223
 111  -183.936
 112  -168.9464
 113  -211.8551
 114  -139.5681
 115  -153.4598
 116  -143.382
 117  -138.3712
 118  -147.6588
 119  -150.4276
 120  -126.0931
 121  -155.6955
 122  -168.2456
 123  -99.98421
 124  -133.3487
 125  -177.7409
 126  -171.5516
 127  -140.2387
 128  -120.399
 129  -112.6059
 130  -135.9625
 131  -41.92894
 132  -17.91282
 133  -81.62428
 134  -72.27631
 135  -74.17025
 136  -55.52596
 137  -63.08878
 138  9.503502
 139  -21.68524
 140  -82.32311
 141  -116.0426
 142  -74.1503
 143  -128.4252
 144  -113.0879
 145  -228.435
 146  -171.3463
 147  -186.9324
 148  -149.4843
 149  -155.3741
 150  -222.9319
 151  -181.3032
 152  -173.1439
 153  -186.3147
 154  -191.6436
 155  -193.9818
 156  -120.6239
 157  -186.8711
 158  -203.8019
 159  -203.9601
 160  -115.61
 161  -193.4854
 162  -214.9531
 163  -153.6758
 164  -219.9768
 165  -221.9025
 166  -236.9809
 167  -290.3464
 168  -231.1525
 169  -257.9118
 170  -284.8486
 171  -279.4943
 172  -312.7954
 173  -331.9141
 174  -313.1193
 175  -401.4416
 176  -353.7602
 177  -336.4908
 178  -281.653
 179  -299.4495
 180  -295.3326
 181  -312.8232
 182  -303.8555
 183  -284.2565
 184  -305.1571
 185  -323.4784
 186  -279.437
 187  -286.9229
 188  -291.5668
 189  -287.8656
 190  -295.9786
 191  -246.6586
 192  -292.0165
 193  -325.4592
 194  -274.9555
 195  -250.9374
 196  -248.5145
 197  -309.653
 198  -276.863
 199  -245.3386
 200  -169.3516
 201  -133.6413
 202  -206.9622
 203  -222.125
 204  -164.7066
 205  -109.435
 206  -149.0998
 207  -173.3345
 208  -206.5066
 209  -208.99
 210  -211.6351
 211  -249.9544
 212  -197.3506
 213  -109.8106
 214  -137.5805
 215  -166.9316
 216  -209.6094
 217  -302.1728
 218  -293.7707
 219  -239.9325
 220  -257.0743
 221  -205.75
 222  -154.2511
 223  -172.5518
 224  -130.0502
 225  -114.5843
 226  -95.13998
 227  -135.4503
 228  -144.3134
 229  -50.54653
 230  -71.52388
 231  -144.136
 232  -228.4935
 233  -191.4745
 234  -196.134
 235  -199.8442
 236  -208.0422
 237  -238.9377
 238  -216.5145
 239  -214.1792
 240  -257.7671
 241  -230.2337
 242  -167.3586
 243  -190.8193
 244  -167.8226
 245  -106.4447
 246  -78.48607
 247  -170.0819
 248  -167.6831
 249  -187.6877
 250  -184.446
 251  -165.2494
 252  -200.4819
 253  -157.2642
 254  -123.0807
 255  -210.8062
 256  -201.1195
 257  -161.3388
 258  -188.7493
 259  -229.1988
 260  -194.7044
 261  -91.80066
 262  -123.2266
 263  -118.1328
 264  -125.886
 265  -168.969
 266  -138.8846
 267  -82.84195
 268  -110.3318
 269  -180.8131
 270  -132.0781
 271  -221.2507
 272  -239.5863
 273  -257.8464
 274  -165.9102
 275  -97.63752
 276  -136.8769
 277  -186.7396
 278  -198.7038
 279  -131.1811
 280  -111.5132
 281  -137.8982
 282  -159.1296
 283  -109.4288
 284  -182.3979
 285  -207.4949
 286  -236.6979
 287  -199.5338
 288  -205.7706
 289  -225.5583
 290  -139.7021
 291  -102.6961
 292  -119.7228
 293  -136.1932
 294  -115.3156
 295  -93.12733
 296  -128.5795
 297  -149.378
 298  -144.9693
 299  -159.6315
 300  -123.9568
 301  -152.2908
 302  -126.3573
 303  -118.8856
 304  -223.4609
 305  -230.0562
 306  -287.6503
 307  -255.0644
 308  -219.5107
 309  -152.3838
 310  -175.3029
 311  -227.3943
 312  -183.2689
 313  -166.4059
 314  -184.03
 315  -126.8832
 316  -158.3172
 317  -206.4779
 318  -197.6194
 319  -165.4683
 320  -231.3734
 321  -205.9092
 322  -158.6596
 323  -232.4762
 324  -219.3377
 325  -256.3466
 326  -273.1203
 327  -240.9021
 328  -194.2855
 329  -207.4052
 330  -216.7486
 331  -258.3795
 332  -270.3868
 333  -146.6324
 334  -204.2533
 335  -115.1418
 336  -136.7489
 337  -204.0561
 338  -194.2863
 339  -157.162
 340  -126.1467
 341  -97.13301
 342  -96.93891
 343  -77.14068
 344  -156.2668
 345  -142.7394
 346  -240.7286
 347  -191.5073
 348  -113.371
 349  -128.7101
 350  -178.1044
 351  -241.7884
 352  -308.9996
 353  -259.0589
 354  -190.1655
 355  -192.3153
 356  -175.7304
 357  -215.9019
 358  -217.5481
 359  -262.9106
 360  -225.2104
 361  -164.7479
 362  -258.9436
 363  -341.0238
 364  -358.4755
 365  -306.7935
 366  -278.866
 367  -264.7073
 368  -255.5582
 369  -275.06
 370  -302.8338
 371  -302.4022
 372  -246.6272
 373  -317.0511
 374  -243.8896
 375  -137.7003
 376  -140.7185
 377  -248.0645
 378  -304.728
 379  -284.3877
 380  -398.6414
 381  -361.0503
 382  -347.7932
 383  -193.8696
 384  -226.453
 385  -293.6524
 386  -272.7373
 387  -305.9769
 388  -422.8456
 389  -308.1393
 390  -282.4679
 391  -267.6815
 392  -335.5852
 393  -325.6722
 394  -347.8837
 395  -374.3003
 396  -248.1637
 397  -181.6337
 398  -185.4739
 399  -253.7303
 400  -205.6221
 401  -153.3006
 402  -169.9456
 403  -236.2554
 404  -248.2871
 405  -185.2671
 406  -231.1331
 407  -163.9361
 408  -150.5734
 409  -89.66946
 410  -85.61192
 411  -214.0868
 412  -160.2202
 413  -180.5883
 414  -177.4361
 415  -183.4356
 416  -199.2054
 417  -138.4128
 418  -73.53481
 419  -54.30774
 420  -94.24997
 421  -177.3257
 422  -126.5905
 423  -87.19188
 424  -118.0319
 425  -178.9095
 426  -203.6248
 427  -175.3124
 428  -173.9907
 429  -270.5435
 430  -102.9041
 431  -55.15214
 432  -60.04442
 433  -46.90013
 434  -100.1351
 435  -164.7707
 436  -161.4608
 437  -125.7842
 438  -197.3294
 439  -141.4743
 440  -91.02998
 441  -33.93103
 442  -36.88972
 443  -57.2167
 444  -35.72181
 445  -175.7788
 446  -22.05398
 447  177.2424
 448  229.2403
 449  409.8651
 450  273.6422
 451  146.9356
 452  33.88755
 453  -187.1554
 454  -339.3872
 455  -332.8734
 456  -236.8529
 457  -191.9195
 458  -227.7734
 459  -142.1805
 460  -177.7697
 461  -160.9493
 462  -135.1049
 463  -203.2921
 464  -135.2022
 465  -39.92582
 466  -107.6019
 467  -173.4967
 468  -187.7504
 469  -240.8425
 470  -176.2378
 471  -180.7343
 472  -149.24
 473  -165.5357
 474  -73.48314
 475  -157.3242
 476  -210.1904
 477  -187.2872
 478  -125.4514
 479  -215.1774
 480  -203.5555
 481  -185.7952
 482  -184.5668
 483  -80.88049
 484  -123.7999
 485  -165.7085
 486  -260.5433
 487  -293.4073
 488  -267.1518
 489  -278.3709
 490  -261.3236
 491  -250.8091
 492  -244.328
 493  -148.0308
 494  -142.9907
 495  -206.7421
 496  -158.0712
 497  -181.6101
 498  -165.1838
 499  -144.4681
 500  -192.418
 501  -194.7888
 502  -219.3121
 503  -240.3955
 504  -254.9286
 505  -273.2516
 506  -233.7943
 507  -302.703
 508  -303.6556
 509  -317.9624
 510  -338.004
 511  -346.8655
