# Input file       =  1206272451.117398_cleaned.dat
# Candidate        =  PSR_0332+5434
# Telescope        =  AR
# Epoch_topo       =  58205.486922655073
# Epoch_bary       =  N/A
# T_sample         =  0.002
# Data Folded      =  7340032
# Data Avg         =  -0.0477031935193485
# Data StdDev      =  6.35089446653895 
# Profile Bins     =  512
# Profile Avg      =  -683.823439477384
# Profile StdDev   =  760.411878187111 
# Reduced chi-sqr  =  0.533
# Prob(Noise)      <  1   (~0.0 sigma)
# P_topo (ms)      =  714.571643919089  +/- 0.00104
# P'_topo (s/s)    =  -0                +/- 5.47e-10
# P''_topo (s/s^2) =  0                 +/- 2.42e-13
# P_bary (ms)      =  N/A
# P'_bary (s/s)    =  N/A
# P''_bary (s/s^2) =  N/A
# P_orb (s)        =  N/A
# asin(i)/c (s)    =  N/A
# eccentricity     =  N/A
# w (rad)          =  N/A
# T_peri           =  N/A
######################################################
   0  -392.614
   1  -292.4483
   2  -297.1958
   3  -570.2694
   4  -872.6937
   5  -443.6084
   6  -514.8061
   7  -394.7035
   8  -488.2718
   9  -414.7817
  10  98.05683
  11  -419.1443
  12  -671.4055
  13  -536.4008
  14  -268.4089
  15  -596.6561
  16  -483.4796
  17  -539.2517
  18  -897.3698
  19  -844.7607
  20  -855.2116
  21  -984.7241
  22  -640.9018
  23  -944.6431
  24  -762.4389
  25  -903.322
  26  -1170.857
  27  -1060.81
  28  -851.6059
  29  -1349.563
  30  -1361.885
  31  -1246.284
  32  -1049.3
  33  -1252.156
  34  -1138.64
  35  -1280.298
  36  -1460.085
  37  -1327.281
  38  -1631.983
  39  -1695.858
  40  -1491.416
  41  -1563.586
  42  -1304.421
  43  -1280.7
  44  -1415.738
  45  -1252.184
  46  -1524.2
  47  -1627.121
  48  -1477.839
  49  -1237.452
  50  -1149.45
  51  -1375.983
  52  -1287.922
  53  -1287.26
  54  -1075.331
  55  -785.2899
  56  -1207.859
  57  -1049.345
  58  -644.8986
  59  -420.1529
  60  -680.9672
  61  -900.6948
  62  -909.3661
  63  -827.6328
  64  -771.6114
  65  -778.3363
  66  -428.354
  67  -252.0143
  68  -415.9855
  69  -669.0078
  70  -965.074
  71  -1301.497
  72  -1204.783
  73  -860.5985
  74  -881.8891
  75  -827.4498
  76  -780.5906
  77  -699.5027
  78  -397.5492
  79  -293.3973
  80  -295.2022
  81  -582.902
  82  -286.0361
  83  208.5248
  84  -4.04485
  85  -466.04
  86  -768.8013
  87  -439.6033
  88  -401.6232
  89  -613.5384
  90  -825.4055
  91  -633.4968
  92  -595.5599
  93  -566.3135
  94  -850.7911
  95  -705.9987
  96  -605.6138
  97  -674.9241
  98  -432.084
  99  -12.59275
 100  217.0061
 101  -404.0167
 102  -547.0377
 103  -586.1667
 104  -575.0609
 105  -245.9503
 106  -388.2309
 107  -282.975
 108  -452.0381
 109  -738.0844
 110  -828.265
 111  -427.015
 112  -528.1043
 113  -758.2374
 114  -637.5549
 115  -349.8452
 116  -431.1665
 117  -354.0837
 118  -591.4228
 119  -668.6946
 120  -498.3661
 121  -288.4312
 122  -657.5814
 123  -872.2444
 124  -516.6842
 125  -872.9354
 126  -975.9749
 127  -1072.013
 128  -584.4378
 129  -490.2929
 130  -761.6513
 131  -782.1163
 132  -761.147
 133  -455.0194
 134  -690.7693
 135  -803.613
 136  -843.9359
 137  -756.9467
 138  -1007.227
 139  -932.5345
 140  -1278.554
 141  -774.785
 142  -820.1552
 143  -1051.186
 144  -612.3004
 145  -408.5971
 146  -462.8429
 147  -609.2949
 148  -635.5322
 149  -501.9954
 150  -677.5239
 151  -547.5364
 152  -482.909
 153  -310.9578
 154  -133.0539
 155  -347.2522
 156  -296.9832
 157  -302.9221
 158  -545.0602
 159  -625.686
 160  -946.4109
 161  -604.6397
 162  -537.1258
 163  -406.9805
 164  -634.7555
 165  -625.3726
 166  -503.7842
 167  -622.8858
 168  -676.709
 169  -364.1233
 170  -672.7565
 171  -936.6541
 172  -639.5389
 173  -625.7284
 174  -797.6551
 175  -483.3073
 176  -504.3846
 177  -939.0735
 178  -804.3463
 179  -1136.531
 180  -1280.048
 181  -1168.564
 182  -883.5771
 183  -888.373
 184  -857.4493
 185  -1060.23
 186  -992.613
 187  -776.2542
 188  -748.1292
 189  -302.8887
 190  -592.3002
 191  -1009.511
 192  -1016.493
 193  -570.8373
 194  -362.6244
 195  -248.4535
 196  -335.7646
 197  -441.1803
 198  -824.8755
 199  -866.2834
 200  -1039.277
 201  -663.3625
 202  -334.295
 203  -500.7272
 204  -885.4139
 205  -1236.643
 206  -1304.576
 207  -980.7396
 208  -704.2499
 209  -609.387
 210  -815.7604
 211  -1125.548
 212  -1085.187
 213  -1186.708
 214  -896.0492
 215  -863.6937
 216  -1278.363
 217  -1500.861
 218  -1397.913
 219  -1190.917
 220  -1252.004
 221  -963.3523
 222  -1101.343
 223  -988.0286
 224  -1000.488
 225  -946.468
 226  -885.6581
 227  -958.4786
 228  -586.544
 229  -267.8475
 230  -291.9704
 231  -647.4742
 232  -880.2228
 233  -891.5827
 234  -1138.744
 235  -786.2289
 236  -644.936
 237  -19.68459
 238  -153.907
 239  -583.4983
 240  -621.6586
 241  -814.1691
 242  -1055.65
 243  -647.2624
 244  -573.963
 245  -567.8685
 246  -997.3223
 247  -1108.758
 248  -1209.104
 249  -978.3596
 250  -502.3876
 251  -454.2229
 252  -651.9495
 253  -740.5629
 254  -668.0293
 255  -606.6116
 256  -715.791
 257  -964.4377
 258  -719.6897
 259  -489.9312
 260  -800.6721
 261  -380.1086
 262  -304.7578
 263  -256.6952
 264  -293.1709
 265  -506.3351
 266  -221.4141
 267  -287.4635
 268  -463.4986
 269  -500.4803
 270  -345.7326
 271  -152.4487
 272  -186.4599
 273  8.178714
 274  -58.33793
 275  -404.4243
 276  -221.7804
 277  -127.0541
 278  -147.3866
 279  -543.8509
 280  -815.749
 281  -722.2252
 282  -828.4675
 283  -870.7034
 284  -274.104
 285  -326.6594
 286  -244.7965
 287  -228.9861
 288  -413.1513
 289  -711.2036
 290  -625.8786
 291  -604.7708
 292  -705.0055
 293  -556.5243
 294  -236.3414
 295  -45.78589
 296  -92.03971
 297  45.1737
 298  -119.0929
 299  -431.2155
 300  20.38834
 301  658.3293
 302  1010.193
 303  1865.502
 304  1282.185
 305  678.8939
 306  77.00859
 307  -884.853
 308  -1427.768
 309  -1071.193
 310  -688.3532
 311  -608.4801
 312  -777.7386
 313  -690.6857
 314  -742.869
 315  -624.3262
 316  -477.4455
 317  -604.8038
 318  -189.5759
 319  123.3288
 320  -443.2772
 321  -609.7854
 322  -745.1511
 323  -822.2963
 324  -806.4731
 325  -566.3428
 326  -309.3252
 327  -341.1176
 328  -177.5847
 329  -633.9453
 330  -813.6633
 331  -650.5419
 332  -784.2608
 333  -1232.982
 334  -999.5627
 335  -823.8188
 336  -689.5853
 337  -382.0604
 338  -610.4233
 339  -941.8775
 340  -1281.965
 341  -1325.276
 342  -1188.397
 343  -1164.071
 344  -1128.716
 345  -1112.068
 346  -1118.226
 347  -543.6904
 348  -740.0324
 349  -843.3867
 350  -751.3856
 351  -1033.754
 352  -794.0392
 353  -893.0734
 354  -697.5718
 355  -812.424
 356  -845.7408
 357  -1074.209
 358  -1175.147
 359  -1106.977
 360  -1143.329
 361  -1411.622
 362  -1315.924
 363  -1497.693
 364  -1573.182
 365  -1285.491
 366  -1005.418
 367  -1133.225
 368  -1243.266
 369  -1134.715
 370  -866.2523
 371  -1165.677
 372  -1130.602
 373  -715.8555
 374  -962.4033
 375  -1347.275
 376  -1130.765
 377  -1078.138
 378  -1019.606
 379  -905.7764
 380  -963.6189
 381  -1050.085
 382  -806.3063
 383  -995.4469
 384  -1126.086
 385  -1195.584
 386  -993.6506
 387  -1120.106
 388  -816.8761
 389  -669.59
 390  -940.7877
 391  -990.7029
 392  -662.8389
 393  -727.4286
 394  -915.9944
 395  -1170.975
 396  -1124.564
 397  -1004.04
 398  -1131.463
 399  -635.8938
 400  -644.8497
 401  -783.3951
 402  -745.4565
 403  -919.7
 404  -955.998
 405  -793.0477
 406  -878.6283
 407  -732.4606
 408  -850.6525
 409  -899.4163
 410  -834.423
 411  -967.4816
 412  -835.9787
 413  -588.5869
 414  -569.5063
 415  -506.0152
 416  -454.8407
 417  -520.5349
 418  -842.8564
 419  -610.9648
 420  -564.1066
 421  -490.0912
 422  -687.1324
 423  -738.6479
 424  -660.7234
 425  -612.2905
 426  -649.4427
 427  -388.2072
 428  -694.2493
 429  -877.1993
 430  -708.5715
 431  -735.8046
 432  -596.3391
 433  -814.5765
 434  -1075.567
 435  -1037.529
 436  -1072.933
 437  -903.3784
 438  -864.4869
 439  -638.7601
 440  -786.8751
 441  -462.3804
 442  -329.0742
 443  -510.7948
 444  -750.7812
 445  -964.2936
 446  -656.2849
 447  -676.4106
 448  -803.8723
 449  -1048.532
 450  -935.994
 451  -680.5966
 452  -601.6173
 453  -314.9423
 454  -407.8391
 455  -729.9909
 456  -865.6011
 457  -594.3369
 458  -508.4538
 459  -558.6083
 460  -491.2628
 461  -15.62705
 462  -77.15035
 463  -124.4905
 464  -509.3432
 465  -632.4257
 466  -250.0713
 467  -47.77863
 468  -582.4507
 469  -772.8679
 470  -970.7361
 471  -988.2415
 472  -507.8401
 473  -310.4335
 474  -411.6489
 475  -536.6713
 476  -690.1208
 477  -991.0562
 478  -751.4357
 479  -725.0869
 480  -415.2982
 481  -441.3433
 482  -390.2108
 483  -609.3976
 484  -805.7939
 485  -572.7593
 486  -601.0978
 487  -520.2628
 488  -432.5121
 489  -405.0203
 490  -539.7189
 491  -640.5614
 492  -561.3985
 493  -400.9865
 494  -117.34
 495  -47.11847
 496  -220.7458
 497  142.2299
 498  72.67982
 499  -54.79748
 500  66.73811
 501  130.4901
 502  185.8169
 503  4.751955
 504  297.1657
 505  122.5502
 506  -1.315537
 507  33.58311
 508  -21.09027
 509  -190.3745
 510  -282.0403
 511  -731.7905
