# Input file       =  1206100079.114177_cleaned.dat
# Candidate        =  PSR_0332+5434
# Telescope        =  AR
# Epoch_topo       =  58203.491876321496
# Epoch_bary       =  N/A
# T_sample         =  0.002
# Data Folded      =  7340032
# Data Avg         =  0.381469899940255
# Data StdDev      =  6.01723487246575 
# Profile Bins     =  1024
# Profile Avg      =  2734.18362334684 
# Profile StdDev   =  509.443425689915 
# Reduced chi-sqr  =  0.987
# Prob(Noise)      <  0.614   (~0.0 sigma)
# P_topo (ms)      =  714.572698461452  +/- 0.000279
# P'_topo (s/s)    =  -0                +/- 1.47e-10
# P''_topo (s/s^2) =  0                 +/- 6.49e-14
# P_bary (ms)      =  N/A
# P'_bary (s/s)    =  N/A
# P''_bary (s/s^2) =  N/A
# P_orb (s)        =  N/A
# asin(i)/c (s)    =  N/A
# eccentricity     =  N/A
# w (rad)          =  N/A
# T_peri           =  N/A
######################################################
   0  2819.704
   1  2998.486
   2  3155.222
   3  3139.948
   4  2965.932
   5  2908.211
   6  2900.89
   7  2945.604
   8  2842.298
   9  2743.379
  10  2773.502
  11  2818.105
  12  2931.054
  13  2927.297
  14  2855.107
  15  2955.72
  16  2996.879
  17  3203.808
  18  3136.712
  19  3110.835
  20  3161.083
  21  3265.746
  22  3275.273
  23  3200.296
  24  3031.694
  25  3012.94
  26  2864.546
  27  2840.427
  28  2800.131
  29  2740.781
  30  2631.242
  31  2720.271
  32  2808.371
  33  2892.408
  34  2877.597
  35  2927.464
  36  2951.89
  37  2925.169
  38  2975.99
  39  2927.792
  40  2772.646
  41  2689.221
  42  2745.828
  43  2808.937
  44  2776.02
  45  2808.583
  46  2933.022
  47  2927.975
  48  2964.596
  49  2902.989
  50  2728.253
  51  2569.211
  52  2623.855
  53  2671.621
  54  2697.766
  55  2819.307
  56  2931.324
  57  2887.46
  58  2860.887
  59  2744.224
  60  2742.728
  61  2729.715
  62  2777.911
  63  2726.12
  64  2727.318
  65  2635.478
  66  2633.828
  67  2570.009
  68  2437.313
  69  2375.311
  70  2452.08
  71  2508.177
  72  2504.439
  73  2601.618
  74  2752.511
  75  2676.906
  76  2447.094
  77  2376.784
  78  2614.324
  79  2694.22
  80  2699.76
  81  2579.674
  82  2535.532
  83  2444.555
  84  2449.12
  85  2493.453
  86  2497.242
  87  2537.159
  88  2570.448
  89  2489.865
  90  2339.454
  91  2323.924
  92  2429.448
  93  2476.138
  94  2485.498
  95  2481.714
  96  2410.748
  97  2366.709
  98  2235.191
  99  2270.812
 100  2286.633
 101  2306.877
 102  2298.436
 103  2241.58
 104  2307.653
 105  2218.463
 106  2320.249
 107  2295.936
 108  2380.852
 109  2184.077
 110  2090.308
 111  2093.061
 112  2093.247
 113  2214.398
 114  2279.851
 115  2397.535
 116  2401.968
 117  2396.404
 118  2470.874
 119  2408.621
 120  2409.781
 121  2293.331
 122  2220.099
 123  2210.317
 124  2177.57
 125  2245.064
 126  2328.185
 127  2392.366
 128  2406.473
 129  2403.856
 130  2381.14
 131  2294.715
 132  2192.175
 133  2202.542
 134  2260.686
 135  2365.26
 136  2408.836
 137  2373.184
 138  2241.279
 139  2273.166
 140  2292.887
 141  2345.066
 142  2320.583
 143  2373.417
 144  2429.057
 145  2450.63
 146  2393.336
 147  2438.201
 148  2582.313
 149  2745.438
 150  2711.606
 151  2563.833
 152  2565.947
 153  2776.493
 154  2689.863
 155  2652.982
 156  2671.258
 157  2778.585
 158  2881.252
 159  2987.293
 160  3050.096
 161  2997.126
 162  2836.238
 163  2679.677
 164  2620.319
 165  2636.852
 166  2738.299
 167  2848.655
 168  2925.355
 169  3009.758
 170  3026.225
 171  3043.686
 172  2983.509
 173  3069.408
 174  3095.136
 175  3074.049
 176  3052.164
 177  2950.847
 178  2912.558
 179  2892.577
 180  2985.743
 181  2975.143
 182  3043.847
 183  3060.797
 184  3060.499
 185  3013.555
 186  3045.768
 187  3021.842
 188  2976
 189  3025.795
 190  2959.224
 191  2932.545
 192  2920.08
 193  2984.059
 194  2985.98
 195  3061.244
 196  3002.452
 197  2901.383
 198  2782.552
 199  2869.267
 200  2927.489
 201  2874.738
 202  2776.612
 203  2745.721
 204  2659.46
 205  2805.271
 206  2844.612
 207  2810.769
 208  2624.814
 209  2582.054
 210  2613.912
 211  2655.67
 212  2625.197
 213  2719.893
 214  2691.666
 215  2656.506
 216  2481.232
 217  2422.261
 218  2412.681
 219  2404.24
 220  2545.349
 221  2495.379
 222  2560.116
 223  2547.454
 224  2624.678
 225  2515.39
 226  2486.142
 227  2512.862
 228  2581.557
 229  2562.975
 230  2500.198
 231  2523.349
 232  2374.258
 233  2389.741
 234  2425.312
 235  2504.604
 236  2509.832
 237  2325.139
 238  2462.598
 239  2467.529
 240  2445.756
 241  2337.423
 242  2339.378
 243  2369.742
 244  2420.749
 245  2387.518
 246  2402.704
 247  2469.726
 248  2557.424
 249  2562.508
 250  2462.716
 251  2376.363
 252  2354.347
 253  2359.398
 254  2459.361
 255  2413.365
 256  2325.225
 257  2169.048
 258  2187.891
 259  2218.536
 260  2274.872
 261  2432.434
 262  2556.83
 263  2587.1
 264  2524.858
 265  2454.699
 266  2370.117
 267  2315.471
 268  2376.308
 269  2467.782
 270  2526.272
 271  2606.778
 272  2611.969
 273  2613.841
 274  2506.81
 275  2543.193
 276  2583.47
 277  2575.927
 278  2523.205
 279  2463.276
 280  2420.105
 281  2424.669
 282  2445.926
 283  2548.734
 284  2683.668
 285  2754.687
 286  2816.338
 287  2788.348
 288  2774.081
 289  2722.156
 290  2744.503
 291  2705.618
 292  2593.82
 293  2649.434
 294  2745.145
 295  2672.589
 296  2664.256
 297  2822.466
 298  2892.543
 299  2880.238
 300  2966.644
 301  3003.106
 302  2968.471
 303  2893.864
 304  2913
 305  2865.268
 306  2837.988
 307  2808.594
 308  2848.759
 309  2808.352
 310  2712.936
 311  2762.45
 312  2845.09
 313  2789.48
 314  2529.405
 315  2585.102
 316  2688.565
 317  2725.688
 318  2776.018
 319  2837.987
 320  2872.179
 321  2820.458
 322  2825.794
 323  2907.903
 324  2912.078
 325  2937.217
 326  2890.886
 327  2848.962
 328  2744.226
 329  2727.875
 330  2835.738
 331  2874.75
 332  3038.206
 333  3051.138
 334  3107.864
 335  2974.331
 336  2958.778
 337  2975.704
 338  3056.2
 339  3008.112
 340  3006.069
 341  2905.154
 342  2825.619
 343  2664.972
 344  2674.017
 345  2742.786
 346  2736.92
 347  2694.385
 348  2717.736
 349  2825.009
 350  2931.367
 351  2935.21
 352  2908.919
 353  2795.556
 354  2692.797
 355  2691.487
 356  2666.75
 357  2765.369
 358  2691.579
 359  2532.597
 360  2408.453
 361  2376.338
 362  2583
 363  2660.228
 364  2661.761
 365  2576.642
 366  2611.043
 367  2617.026
 368  2570.026
 369  2508.731
 370  2513.966
 371  2574.593
 372  2534.304
 373  2478.549
 374  2324.595
 375  2299.184
 376  2199.557
 377  2210.836
 378  2188.578
 379  2320.242
 380  2219.358
 381  2089.682
 382  1991.965
 383  2050.657
 384  2228.792
 385  2363.953
 386  2386.289
 387  2420.212
 388  2418.06
 389  2489.544
 390  2468.311
 391  2453.807
 392  2362.782
 393  2375.765
 394  2354.056
 395  2246.064
 396  2098.346
 397  2045.492
 398  2105.087
 399  2187.249
 400  2179.82
 401  2214.336
 402  2215.895
 403  2295.926
 404  2322.869
 405  2302.298
 406  2292.251
 407  2159.641
 408  2142.071
 409  2039.569
 410  2104.843
 411  2299.954
 412  2380.567
 413  2297.25
 414  2245.195
 415  2263.57
 416  2200.632
 417  2215.625
 418  2206.634
 419  2307.094
 420  2303.295
 421  2353.244
 422  2475.477
 423  2488.062
 424  2480.344
 425  2518.187
 426  2554.694
 427  2581.183
 428  2634.938
 429  2743.551
 430  2810.57
 431  2831.737
 432  2690.127
 433  2566.039
 434  2605.95
 435  2719.454
 436  2733.58
 437  2731.307
 438  2665.832
 439  2651.169
 440  2569.611
 441  2505.564
 442  2458.045
 443  2611.238
 444  2629.211
 445  2525.634
 446  2532.541
 447  2612.225
 448  2659.188
 449  2580.664
 450  2468.897
 451  2424.664
 452  2501.594
 453  2524.994
 454  2563.627
 455  2528.953
 456  2583.772
 457  2617.356
 458  2606.026
 459  2683.177
 460  2669.801
 461  2647.371
 462  2455.139
 463  2398.945
 464  2374.226
 465  2485.108
 466  2503.265
 467  2546.35
 468  2525.518
 469  2491.741
 470  2502.316
 471  2555.904
 472  2529.689
 473  2460.364
 474  2426.29
 475  2370.467
 476  2427.434
 477  2456.537
 478  2354.994
 479  2318.715
 480  2447.903
 481  2622.97
 482  2653.705
 483  2750.577
 484  2870.048
 485  2914.908
 486  2839.079
 487  2769.554
 488  2782.472
 489  2859.672
 490  3048.003
 491  3077.967
 492  3093.366
 493  2854.294
 494  2963.864
 495  2953.005
 496  3015.948
 497  3083.243
 498  3056.537
 499  2904.073
 500  2808.609
 501  2923.149
 502  3089.708
 503  3043.891
 504  3040.811
 505  2908.819
 506  2831.984
 507  2796.732
 508  2794.814
 509  2888.774
 510  2895.885
 511  2867.988
 512  2753.401
 513  2693.767
 514  2736.352
 515  2781.159
 516  2881.605
 517  2896.406
 518  2864.579
 519  2800.885
 520  2654.682
 521  2521.063
 522  2502.363
 523  2593.156
 524  2694.426
 525  2731.333
 526  2749.686
 527  2703.945
 528  2659.042
 529  2680.687
 530  2804.167
 531  2849.724
 532  2858.273
 533  2774.536
 534  2595.557
 535  2503.122
 536  2396.594
 537  2390.724
 538  2423.538
 539  2418.342
 540  2376.185
 541  2396.92
 542  2574.598
 543  2622.799
 544  2573.385
 545  2493.448
 546  2639.068
 547  2657.295
 548  2676.296
 549  2537.301
 550  2520.902
 551  2617.566
 552  2721.607
 553  2742.579
 554  2734.393
 555  2769.58
 556  2814.4
 557  2818.942
 558  2768.593
 559  2740.705
 560  2762.479
 561  2745.181
 562  2734.488
 563  2636.942
 564  2576.273
 565  2701.384
 566  2779.984
 567  2781.303
 568  2876.311
 569  2899.074
 570  2907.386
 571  2722.403
 572  2645.169
 573  2644.612
 574  2645.191
 575  2748.239
 576  2642.06
 577  2536.584
 578  2510.11
 579  2659.65
 580  2796.813
 581  2821.786
 582  2847.235
 583  2814.582
 584  2852.487
 585  2782.146
 586  2790.783
 587  2893.816
 588  3014.843
 589  3068.863
 590  3110.742
 591  3073.271
 592  3123.009
 593  3109.495
 594  3083.052
 595  3095.78
 596  3071.232
 597  3099.721
 598  3121.307
 599  3135.019
 600  3249.029
 601  3373.545
 602  3618.554
 603  3704.322
 604  3905.594
 605  3943.314
 606  4037.804
 607  4043.925
 608  4141.092
 609  4101.399
 610  3924.565
 611  3643.975
 612  3466.706
 613  3383.822
 614  3353.08
 615  3119.053
 616  3031.571
 617  3070.944
 618  3157.183
 619  3058.54
 620  3144.76
 621  3102.961
 622  3153.359
 623  3131.156
 624  3087.618
 625  2931.129
 626  2823.837
 627  2914.99
 628  2953.371
 629  2884.524
 630  2826.02
 631  2795.512
 632  2875.228
 633  2880.184
 634  2984.9
 635  2998.877
 636  2993.617
 637  2926.494
 638  2988.607
 639  3027.2
 640  3186.726
 641  3111.215
 642  3065.836
 643  3031.594
 644  3071.746
 645  2999.43
 646  2919.164
 647  2807.623
 648  2753.1
 649  2636.695
 650  2689.044
 651  2814.287
 652  2800.021
 653  2930.882
 654  2929.102
 655  2998.585
 656  2987.599
 657  2988.708
 658  2990.11
 659  2944.662
 660  2869.439
 661  2927.096
 662  2918.716
 663  2772.468
 664  2585.501
 665  2493.42
 666  2454.061
 667  2449.031
 668  2424.502
 669  2461.8
 670  2403.724
 671  2346.145
 672  2325.557
 673  2425.045
 674  2487.656
 675  2473.523
 676  2507.087
 677  2486.813
 678  2532.969
 679  2613.148
 680  2682.737
 681  2674.296
 682  2600.683
 683  2575.083
 684  2502.898
 685  2549.358
 686  2692.248
 687  2846.585
 688  2848.259
 689  2851.812
 690  2621.772
 691  2463.467
 692  2309.325
 693  2454.014
 694  2542.526
 695  2636.335
 696  2690.378
 697  2753.46
 698  2790.206
 699  2838.869
 700  2884.499
 701  2924.566
 702  2935.469
 703  2873.705
 704  2821.389
 705  2769.178
 706  2758.627
 707  2789.646
 708  2838.844
 709  2931.687
 710  2949.906
 711  2915.981
 712  2795.075
 713  2829.789
 714  2827.382
 715  2873.281
 716  2784.625
 717  2790.67
 718  2882.117
 719  2996.789
 720  2950.579
 721  2946.664
 722  2911.432
 723  2935.646
 724  2959.769
 725  2992.303
 726  3024.945
 727  3006.524
 728  3026.359
 729  3041.633
 730  2970.5
 731  2835.644
 732  2807.824
 733  2970.199
 734  3015.115
 735  3034.397
 736  2982.618
 737  2963.294
 738  3007.836
 739  3164.232
 740  3173.474
 741  3103.444
 742  2997.708
 743  2970.125
 744  3002.828
 745  3145.45
 746  3154.718
 747  3171.539
 748  3046.344
 749  2919.604
 750  2849.605
 751  2903.042
 752  2915.625
 753  2881.396
 754  2867.121
 755  2922.418
 756  3057.78
 757  3155.467
 758  3080.857
 759  3087.007
 760  3050.238
 761  2980.745
 762  2991.923
 763  3073.684
 764  3027.933
 765  2788.251
 766  2759.175
 767  2807.978
 768  2827.926
 769  2908.113
 770  2980.29
 771  3102.75
 772  3097.569
 773  3065.217
 774  3122.462
 775  3079.779
 776  2950.438
 777  2765.214
 778  2796.428
 779  2911.928
 780  3082.694
 781  3083.51
 782  2978.406
 783  2998.68
 784  3061.536
 785  2987.775
 786  2989.071
 787  2994.2
 788  3115.695
 789  2979.477
 790  2922.848
 791  2834.759
 792  2776.837
 793  2866.987
 794  3019.99
 795  3015.368
 796  2968.699
 797  2830.426
 798  2848.048
 799  2779.349
 800  2894.547
 801  2927.42
 802  2716.026
 803  2563.395
 804  2462.479
 805  2716.239
 806  2707.786
 807  2765.407
 808  2677.182
 809  2686.522
 810  2703.062
 811  2727.541
 812  2669.045
 813  2593.085
 814  2427.365
 815  2381.339
 816  2373.535
 817  2516.441
 818  2507.951
 819  2675.304
 820  2762.167
 821  2627.922
 822  2556.1
 823  2539.61
 824  2570.434
 825  2399.781
 826  2412.795
 827  2585.699
 828  2629.512
 829  2671.497
 830  2639.156
 831  2748.559
 832  2644.91
 833  2767.136
 834  2789.661
 835  2743.459
 836  2534.859
 837  2518.433
 838  2618.738
 839  2565.602
 840  2643.17
 841  2598.498
 842  2658.605
 843  2701.492
 844  2871.865
 845  2930.722
 846  2953.028
 847  3002.488
 848  2897.543
 849  2822.925
 850  2806.421
 851  2882.948
 852  2913.406
 853  2871.312
 854  2883.113
 855  2817.833
 856  2862.162
 857  3005.427
 858  3096.451
 859  3003.166
 860  2774.466
 861  2859.068
 862  2895.002
 863  2791.147
 864  2706.297
 865  2734.126
 866  2802.503
 867  2631.305
 868  2589.967
 869  2614.698
 870  2704.858
 871  2628.999
 872  2756.968
 873  2783.089
 874  2810.691
 875  2722.333
 876  2737.338
 877  2623.855
 878  2632.575
 879  2703.663
 880  2735.306
 881  2756.755
 882  2737.489
 883  2806.272
 884  2871.427
 885  2912.653
 886  2910.423
 887  2950.648
 888  2874.304
 889  2773.817
 890  2781.257
 891  2888.666
 892  2865.548
 893  2845.501
 894  2909.439
 895  3069.263
 896  3106.681
 897  3068.742
 898  2998.645
 899  3018.71
 900  3115.451
 901  3114.709
 902  3109.203
 903  3146.614
 904  3169.784
 905  3080.857
 906  3069.776
 907  3002.037
 908  2970.652
 909  2999.615
 910  3001.257
 911  3009.87
 912  3066.777
 913  3079.615
 914  3156.876
 915  3290.692
 916  3323.518
 917  3205.37
 918  3125.7
 919  3138.882
 920  3188.794
 921  3105.421
 922  3062.117
 923  2980.049
 924  2953.391
 925  2891.573
 926  2849.25
 927  2858.045
 928  2930.922
 929  2986.091
 930  3209.817
 931  3305.39
 932  3294.663
 933  3140.211
 934  3063.053
 935  3077.833
 936  3045.008
 937  3022.249
 938  2925.895
 939  2821.709
 940  2772.813
 941  2817.016
 942  2860.942
 943  2835.646
 944  2755.999
 945  2798.037
 946  2789.092
 947  2693.245
 948  2597.067
 949  2503.458
 950  2640.995
 951  2825.053
 952  2824.534
 953  2692.028
 954  2609.595
 955  2523.887
 956  2464.329
 957  2529.361
 958  2487.912
 959  2615.992
 960  2590.239
 961  2658.791
 962  2625.362
 963  2543.868
 964  2588.043
 965  2700.563
 966  2740.464
 967  2717.335
 968  2547.64
 969  2488.83
 970  2340.417
 971  2388.218
 972  2437.366
 973  2497.965
 974  2540.002
 975  2593.375
 976  2567.196
 977  2553.206
 978  2590.861
 979  2717.937
 980  2672.647
 981  2624.802
 982  2671.729
 983  2847.971
 984  2733.31
 985  2540.102
 986  2479.132
 987  2599.922
 988  2551.033
 989  2564.61
 990  2648.551
 991  2820.075
 992  2758.159
 993  2763.522
 994  2754.544
 995  2826.271
 996  2782.478
 997  2824.822
 998  2766.288
 999  2752.808
1000  2888.561
1001  2940.168
1002  2946.823
1003  2864.601
1004  2890.459
1005  2813.792
1006  2839.366
1007  2760.122
1008  2826.113
1009  2886.461
1010  2851.879
1011  2846.615
1012  2797.585
1013  2756.539
1014  2734.213
1015  2717.991
1016  2786.691
1017  2789.879
1018  2809.708
1019  2741.603
1020  2801.892
1021  2782.393
1022  2833.385
1023  2725.449
