# Input file       =  1206186294.114467_cleaned.dat
# Candidate        =  PSR_0332+5434
# Telescope        =  AR
# Epoch_topo       =  58204.489735121148
# Epoch_bary       =  N/A
# T_sample         =  0.002
# Data Folded      =  7340032
# Data Avg         =  0.0152785884091027
# Data StdDev      =  1.00026035917323 
# Profile Bins     =  512
# Profile Avg      =  218.565208731944 
# Profile StdDev   =  119.764209971125 
# Reduced chi-sqr  =  1.280
# Prob(Noise)      <  1.81e-05   (~4.1 sigma)
# P_topo (ms)      =  714.572177164468  +/- 0.000257
# P'_topo (s/s)    =  -0                +/- 1.35e-10
# P''_topo (s/s^2) =  0                 +/- 5.98e-14
# P_bary (ms)      =  N/A
# P'_bary (s/s)    =  N/A
# P''_bary (s/s^2) =  N/A
# P_orb (s)        =  N/A
# asin(i)/c (s)    =  N/A
# eccentricity     =  N/A
# w (rad)          =  N/A
# T_peri           =  N/A
######################################################
   0  680.5054
   1  687.8079
   2  555.5035
   3  360.7339
   4  325.1699
   5  205.4634
   6  162.4679
   7  223.4032
   8  206.0684
   9  214.1684
  10  207.3214
  11  253.0677
  12  268.8004
  13  221.722
  14  253.5816
  15  314.0937
  16  283.356
  17  209.1442
  18  183.1013
  19  198.6063
  20  143.303
  21  140.0383
  22  179.3545
  23  137.3053
  24  187.2542
  25  79.23389
  26  109.7751
  27  122.2742
  28  209.4739
  29  235.143
  30  175.246
  31  108.9866
  32  98.33788
  33  95.15714
  34  124.3865
  35  130.8005
  36  143.1963
  37  131.649
  38  188.568
  39  167.1752
  40  235.0804
  41  199.3043
  42  182.0786
  43  124.8798
  44  112.2988
  45  172.2757
  46  201.6355
  47  175.7368
  48  226.987
  49  191.8944
  50  189.5139
  51  279.6435
  52  257.3836
  53  233.1615
  54  217.1038
  55  239.4744
  56  221.2043
  57  249.3921
  58  207.5691
  59  172.6962
  60  189.5714
  61  166.0558
  62  199.237
  63  190.3083
  64  200.978
  65  204.104
  66  247.2891
  67  192.2956
  68  255.9709
  69  233.3426
  70  193.2283
  71  131.7952
  72  139.1973
  73  262.0732
  74  152.6012
  75  199.657
  76  269.2115
  77  201.8977
  78  198.0228
  79  99.27703
  80  165.9344
  81  134.5893
  82  103.4586
  83  155.75
  84  158.3226
  85  138.3248
  86  38.43379
  87  25.59553
  88  74.76194
  89  66.88286
  90  85.50359
  91  71.67519
  92  42.64597
  93  93.61745
  94  137.4562
  95  211.8574
  96  125.4201
  97  157.8625
  98  171.9504
  99  112.2718
 100  110.7184
 101  84.30052
 102  123.3056
 103  112.7731
 104  81.41036
 105  112.9888
 106  83.78037
 107  129.6025
 108  117.5003
 109  51.21989
 110  150.2737
 111  227.6985
 112  213.6943
 113  185.1831
 114  189.0317
 115  167.2043
 116  156.5012
 117  186.8869
 118  192.7735
 119  292.1313
 120  220.67
 121  253.7026
 122  284.2183
 123  270.3677
 124  254.9243
 125  187.8222
 126  254.4877
 127  300.3771
 128  268.5705
 129  221.6914
 130  349.898
 131  319.7371
 132  286.643
 133  260.0369
 134  186.0888
 135  215.521
 136  231.8832
 137  277.2177
 138  250.7334
 139  292.7672
 140  270.1878
 141  295.6486
 142  212.3823
 143  223.1755
 144  212.5546
 145  182.9287
 146  158.1549
 147  199.5001
 148  136.1178
 149  196.3657
 150  223.4304
 151  169.9061
 152  164.6792
 153  132.2394
 154  190.7797
 155  128.0992
 156  178.887
 157  152.2105
 158  97.91686
 159  89.32519
 160  135.4296
 161  81.38243
 162  125.9298
 163  134.4836
 164  206.1646
 165  231.7607
 166  176.0016
 167  154.1809
 168  74.94421
 169  132.8419
 170  159.1511
 171  86.36513
 172  66.13927
 173  113.3972
 174  133.6848
 175  140.3331
 176  120.2408
 177  92.36129
 178  102.7062
 179  137.6726
 180  173.2862
 181  130.3881
 182  131.9472
 183  81.0598
 184  101.7129
 185  99.27741
 186  90.50617
 187  70.8024
 188  56.67348
 189  107.8603
 190  118.0211
 191  148.1874
 192  86.41136
 193  56.42349
 194  124.1543
 195  231.0653
 196  169.9436
 197  158.8037
 198  251.8107
 199  186.8699
 200  249.9188
 201  232.9271
 202  240.2991
 203  260.6385
 204  317.8223
 205  364.6631
 206  276.2277
 207  304.817
 208  350.0695
 209  355.6184
 210  376.6953
 211  303.3373
 212  243.4641
 213  373.2321
 214  332.2778
 215  282.3781
 216  251.4672
 217  291.6055
 218  345.7596
 219  343.4095
 220  353.8323
 221  385.5773
 222  274.3629
 223  238.8103
 224  278.9337
 225  230.9086
 226  289.2806
 227  261.1997
 228  296.5828
 229  293.3235
 230  273.8875
 231  337.6468
 232  247.0902
 233  127.2641
 234  108.9502
 235  189.2058
 236  122.0301
 237  3.678296
 238  23.12533
 239  78.87266
 240  135.2819
 241  83.58709
 242  68.23206
 243  132.2354
 244  20.8327
 245  57.77588
 246  61.63303
 247  84.34008
 248  116.8846
 249  173.7152
 250  108.048
 251  109.3007
 252  79.15526
 253  113.8067
 254  80.50685
 255  163.5365
 256  217.8925
 257  233.1798
 258  213.9775
 259  174.2617
 260  249.9085
 261  153.2005
 262  113.8024
 263  131.7081
 264  140.5129
 265  165.1049
 266  267.3516
 267  299.025
 268  227.6727
 269  212.088
 270  269.8634
 271  248.4011
 272  334.1591
 273  333.6273
 274  316.0624
 275  260.4348
 276  276.5343
 277  337.5267
 278  277.013
 279  299.9202
 280  304.3824
 281  313.5341
 282  367.3617
 283  370.589
 284  289.7397
 285  245.4629
 286  331.5482
 287  389.473
 288  328.7143
 289  335.5051
 290  411.5687
 291  380.5617
 292  269.4926
 293  246.5686
 294  284.3617
 295  262.4333
 296  279.7833
 297  174.9405
 298  237.8727
 299  203.8269
 300  172.0098
 301  213.5384
 302  213.6228
 303  252.9201
 304  60.48756
 305  110.3406
 306  181.8554
 307  258.3128
 308  236.0331
 309  189.4355
 310  138.3876
 311  153.0837
 312  219.4074
 313  221.3741
 314  171.9651
 315  257.5156
 316  184.3794
 317  184.472
 318  180.6287
 319  189.7845
 320  173.8906
 321  177.1602
 322  227.1651
 323  186.2376
 324  230.0917
 325  212.2187
 326  246.0675
 327  260.4584
 328  224.5922
 329  208.9803
 330  210.9436
 331  249.9972
 332  245.8918
 333  198.7076
 334  213.6866
 335  235.4853
 336  227.396
 337  270.2935
 338  305.915
 339  269.9216
 340  267.9874
 341  296.5356
 342  260.5526
 343  244.4285
 344  214.3443
 345  341.9777
 346  359.5512
 347  333.1044
 348  271.7488
 349  295.4285
 350  233.433
 351  245.6892
 352  397.5544
 353  348.7337
 354  232.4601
 355  360.7283
 356  281.9291
 357  268.4395
 358  238.3937
 359  312.7844
 360  337.2762
 361  301.1135
 362  370.6487
 363  411.1356
 364  367.6753
 365  263.4911
 366  220.3858
 367  209.359
 368  154.0616
 369  162.5424
 370  156.9636
 371  142.9198
 372  178.8993
 373  119.5191
 374  126.0634
 375  195.9181
 376  122.2744
 377  68.80051
 378  75.87702
 379  72.63707
 380  128.04
 381  164.4617
 382  105.7358
 383  125.6693
 384  102.6269
 385  143.4466
 386  141.4925
 387  75.2193
 388  127.6011
 389  171.2037
 390  148.3245
 391  173.6029
 392  136.3219
 393  100.1592
 394  59.03053
 395  51.45401
 396  72.05292
 397  163.9351
 398  157.0036
 399  300.8273
 400  335.4255
 401  303.152
 402  224.9999
 403  184.2303
 404  243.2085
 405  350.6604
 406  301.8235
 407  221.0726
 408  201.9158
 409  174.6707
 410  94.78289
 411  186.1318
 412  280.2556
 413  259.2423
 414  213.3295
 415  242.7656
 416  323.699
 417  239.9197
 418  219.4939
 419  245.0266
 420  259.0931
 421  317.9278
 422  365.9688
 423  390.6974
 424  334.7208
 425  250.3504
 426  334.1494
 427  396.6913
 428  329.464
 429  331.0452
 430  425.4753
 431  434.9118
 432  397.8282
 433  363.4171
 434  450.1029
 435  433.9464
 436  393.0647
 437  299.0909
 438  297.4568
 439  408.9024
 440  461.6877
 441  364.7177
 442  261.4536
 443  230.2961
 444  217.677
 445  229.6591
 446  266.0727
 447  223.2755
 448  244.0394
 449  289.1651
 450  260.6581
 451  196.4357
 452  240.4654
 453  213.9305
 454  192.1037
 455  193.6118
 456  215.4204
 457  282.7536
 458  214.6504
 459  227.1956
 460  205.6146
 461  202.9917
 462  238.6516
 463  247.3265
 464  269.6758
 465  146.7088
 466  117.9082
 467  149.013
 468  151.1736
 469  132.9823
 470  165.7803
 471  281.5806
 472  229.6708
 473  79.85549
 474  133.6452
 475  228.3413
 476  232.7741
 477  155.3117
 478  128.4337
 479  214.1933
 480  198.8005
 481  226.4091
 482  299.3526
 483  187.4747
 484  155.8353
 485  200.2395
 486  176.2624
 487  243.9909
 488  293.1032
 489  261.6821
 490  310.9914
 491  333.602
 492  346.5963
 493  238.9725
 494  270.7016
 495  285.3882
 496  232.1051
 497  294.4157
 498  278.4381
 499  298.7216
 500  330.4329
 501  311.0004
 502  360.271
 503  315.4562
 504  265.9789
 505  304.1748
 506  450.759
 507  422.4929
 508  431.5694
 509  591.4309
 510  655.6705
 511  619.1257
