# Input file       =  1206257845.112525_cleaned.dat
# Candidate        =  PSR_0332+5434
# Telescope        =  AR
# Epoch_topo       =  58205.317871672742
# Epoch_bary       =  N/A
# T_sample         =  0.002
# Data Folded      =  7143424
# Data Avg         =  0.258586550035318
# Data StdDev      =  5.07277613981732 
# Profile Bins     =  512
# Profile Avg      =  3607.79398186526 
# Profile StdDev   =  599.189137028612 
# Reduced chi-sqr  =  3.434
# Prob(Noise)      <  6.55e-136   (~24.8 sigma)
# P_topo (ms)      =  714.571717844486  +/- 1.64e-05
# P'_topo (s/s)    =  -0                +/- 8.91e-12
# P''_topo (s/s^2) =  0                 +/- 4.04e-15
# P_bary (ms)      =  N/A
# P'_bary (s/s)    =  N/A
# P''_bary (s/s^2) =  N/A
# P_orb (s)        =  N/A
# asin(i)/c (s)    =  N/A
# eccentricity     =  N/A
# w (rad)          =  N/A
# T_peri           =  N/A
######################################################
   0  4182.33
   1  3589.162
   2  2847.683
   3  3201.295
   4  3102.365
   5  3112.371
   6  3643.656
   7  4509.776
   8  5185.955
   9  4853.299
  10  4561.191
  11  4034.314
  12  3478.362
  13  3331.141
  14  3397.802
  15  3838.73
  16  4268.841
  17  3960.754
  18  3056.897
  19  2786.121
  20  2549.569
  21  2668.94
  22  3204.347
  23  4512.019
  24  5540.107
  25  5325.696
  26  4383.963
  27  3862.024
  28  3528.98
  29  3017.874
  30  3258.672
  31  3525.493
  32  3883.211
  33  4019.752
  34  3661.01
  35  2888.534
  36  2761.222
  37  2471.114
  38  2583.054
  39  3243.514
  40  4149.554
  41  5090.353
  42  5106.376
  43  4342.592
  44  3933.436
  45  3965.167
  46  3710.904
  47  3187.114
  48  3541.595
  49  4347.277
  50  5040.416
  51  5020.125
  52  4824.308
  53  4259.396
  54  4073.507
  55  3847.562
  56  4368.063
  57  5282.54
  58  5179.771
  59  4512.073
  60  3826.203
  61  3552.123
  62  2997.886
  63  3089.181
  64  3417.163
  65  3845.253
  66  4653.126
  67  4220.45
  68  3484.602
  69  2832.303
  70  2499.067
  71  2443.055
  72  3242.064
  73  4545.254
  74  5174.611
  75  5112.319
  76  4437.342
  77  4427.22
  78  3778.875
  79  3249.862
  80  2733.823
  81  3004.12
  82  3831.941
  83  3943.032
  84  3409.49
  85  3144.617
  86  3220.239
  87  3032.151
  88  3073.207
  89  3847.121
  90  4968.725
  91  5156.913
  92  4860.349
  93  4312.147
  94  3638.732
  95  3342.591
  96  3541.025
  97  3552.83
  98  3911.051
  99  4279.604
 100  3654.794
 101  3161.296
 102  2995.633
 103  2786.018
 104  3051.931
 105  3761.741
 106  4465.461
 107  4946.742
 108  5285.52
 109  4656.491
 110  4047.365
 111  3504.668
 112  2828.144
 113  2944.635
 114  3367.843
 115  4041.847
 116  3800.009
 117  3099.609
 118  2690.166
 119  2668.969
 120  2669.392
 121  2842.644
 122  3977.295
 123  4789.801
 124  5100.666
 125  4353.727
 126  3798.694
 127  3546.959
 128  3251.754
 129  3457.609
 130  3739.394
 131  4162.729
 132  3981.175
 133  3556.206
 134  2691.07
 135  2520.729
 136  2543.088
 137  2673.701
 138  3158.777
 139  4320.649
 140  5477.144
 141  4988.561
 142  4310.156
 143  3740.168
 144  3005.261
 145  2703.879
 146  2816.335
 147  3215.465
 148  3858.708
 149  4121.372
 150  3525.878
 151  2681.881
 152  2449.814
 153  2532.299
 154  2774.908
 155  3884.728
 156  4690.842
 157  4881.134
 158  4546.776
 159  4097.021
 160  3824.7
 161  3388.634
 162  2805.787
 163  3024.922
 164  3710.667
 165  3941.322
 166  3720.928
 167  3310.626
 168  3033.969
 169  2865.548
 170  2580.481
 171  3269.59
 172  4283.57
 173  5489.208
 174  5261.109
 175  4993.338
 176  4301.957
 177  3434.629
 178  3032.775
 179  3238.136
 180  3652.992
 181  4035.011
 182  3791.203
 183  2945.225
 184  2708.42
 185  2590.5
 186  2627.535
 187  3010.15
 188  3976.851
 189  4671.877
 190  4857.615
 191  4848.31
 192  4283.096
 193  3814.265
 194  3181.328
 195  3181.863
 196  3320.762
 197  3553.696
 198  4280.225
 199  3824.763
 200  2679.511
 201  2288.006
 202  2357.806
 203  2786.393
 204  3356.839
 205  4723.286
 206  5470.723
 207  5110.278
 208  4388.365
 209  3579.906
 210  3426.337
 211  3347.323
 212  3095.37
 213  3263.176
 214  3785.814
 215  3849.896
 216  3074.055
 217  2266.897
 218  2260.428
 219  2580.311
 220  2925.493
 221  3582.268
 222  4591.184
 223  4626.164
 224  4574.813
 225  3662.132
 226  3259.392
 227  2968.231
 228  2650.865
 229  3190.113
 230  3437.92
 231  3663.169
 232  2949.267
 233  2780.395
 234  2512.007
 235  2197.588
 236  2363.979
 237  3019.521
 238  4217.956
 239  5204.229
 240  4964.919
 241  3930.693
 242  3439.631
 243  3301.327
 244  3028.862
 245  2699.004
 246  3034.413
 247  3864.389
 248  3945.327
 249  3117.867
 250  2621.187
 251  2546.273
 252  2357.096
 253  2338.679
 254  3233.874
 255  4332.732
 256  4809.884
 257  4583.839
 258  4032.782
 259  3430.368
 260  3145.638
 261  2821.264
 262  2958.355
 263  3411.628
 264  3829.943
 265  3205.425
 266  2566.257
 267  2163.331
 268  2135.771
 269  2391.28
 270  3205.971
 271  4135.125
 272  4639.443
 273  4708.987
 274  3977.991
 275  3694.006
 276  2697.154
 277  2592.393
 278  2967.858
 279  3554.573
 280  4247.597
 281  3913.043
 282  3105.964
 283  2701.486
 284  2230.797
 285  1845.475
 286  2676.357
 287  3778.476
 288  4630.132
 289  5230.343
 290  4855.078
 291  3888.703
 292  3376.277
 293  2924.396
 294  2822.146
 295  2830.485
 296  3296.353
 297  3897.427
 298  3476.822
 299  3195.558
 300  2824.282
 301  2541.683
 302  2569.747
 303  3190.07
 304  4467.051
 305  4896.494
 306  4921.505
 307  4562.876
 308  3806.695
 309  3537.745
 310  3433.585
 311  3153.614
 312  3439.152
 313  3953.349
 314  3714.567
 315  3032.039
 316  2338.94
 317  2353.483
 318  2344.716
 319  2610.346
 320  3481.937
 321  4604.69
 322  5367.8
 323  5002.245
 324  4374.124
 325  3354.165
 326  3113.188
 327  2941.362
 328  3150.352
 329  3580.092
 330  3992.803
 331  3692.803
 332  2848.74
 333  3037.09
 334  2975.642
 335  2851.041
 336  3070.404
 337  3993.526
 338  4969.211
 339  4820.26
 340  4240.428
 341  3888.257
 342  3347.158
 343  3189.154
 344  3353.011
 345  3545.362
 346  3899.358
 347  3839.758
 348  3036.394
 349  2563.241
 350  2483.753
 351  2299.069
 352  2511.563
 353  3411.778
 354  4681.905
 355  5567.344
 356  4829.608
 357  4347.878
 358  3631.848
 359  3163.803
 360  3228.122
 361  3277.228
 362  3741.024
 363  4252.442
 364  3653.847
 365  2863.905
 366  2624.726
 367  2771.299
 368  2926.442
 369  3412.92
 370  4188.879
 371  4829.249
 372  4879.952
 373  4689.063
 374  4130.958
 375  4119.385
 376  3624.74
 377  3198.769
 378  3670.14
 379  3887.693
 380  3948.391
 381  3372.723
 382  2749.177
 383  2538.396
 384  2532.867
 385  3084.95
 386  3901.127
 387  4832.068
 388  5213.711
 389  5061.064
 390  4524.501
 391  3901.247
 392  3221.761
 393  3124.007
 394  3028.092
 395  3524.796
 396  4015.982
 397  3930.71
 398  3142.333
 399  2890.201
 400  2587.394
 401  2405.424
 402  2775.877
 403  3669.267
 404  5152.316
 405  5302.115
 406  4547.182
 407  3808.575
 408  3260.734
 409  3017.276
 410  3205.659
 411  3550.792
 412  4346.423
 413  4116.58
 414  3530.217
 415  3400.405
 416  2908.93
 417  2579.87
 418  2782.916
 419  3622.82
 420  4896.45
 421  5362.974
 422  4814.603
 423  3980.723
 424  3533.492
 425  3391.731
 426  3225.223
 427  3482.922
 428  3730.376
 429  4262.209
 430  3675.575
 431  2874.589
 432  2694.046
 433  2786.814
 434  2528.775
 435  2786.883
 436  3983.145
 437  4500.965
 438  4602.346
 439  4347.857
 440  3869.216
 441  3589.979
 442  3443.288
 443  3276.863
 444  3241.682
 445  3237.198
 446  3244.397
 447  2876.503
 448  2620.045
 449  2746.23
 450  2733.397
 451  2621.193
 452  3683.249
 453  4544.184
 454  5140.821
 455  4676.728
 456  3869.763
 457  3759.268
 458  3428.438
 459  3415.315
 460  2892.638
 461  3477.346
 462  4286.843
 463  3847.506
 464  2990.544
 465  2223.55
 466  2393.704
 467  2357.149
 468  2638.636
 469  3985.852
 470  4723.234
 471  4882.753
 472  4334.436
 473  3678.977
 474  3280.311
 475  3046.926
 476  2668.644
 477  2820.008
 478  3634.048
 479  3833.07
 480  3261.071
 481  2729.756
 482  2619.264
 483  2400.237
 484  2460.525
 485  3296.936
 486  4700.708
 487  5287.852
 488  4937.296
 489  4047.489
 490  3394.094
 491  3056.647
 492  2975.546
 493  3041.782
 494  3822.737
 495  4113.498
 496  3737.292
 497  3021.707
 498  2889.257
 499  2697.118
 500  2161.837
 501  3253.731
 502  4300.304
 503  5189.416
 504  5171.921
 505  4456.967
 506  4428.44
 507  3645.263
 508  3347.133
 509  3292.371
 510  3575.926
 511  4061.369
