# Input file       =  1206085431.110653-PSRB0329-2ms-sampling-dd.dat
# Candidate        =  PSR_0332+5434
# Telescope        =  AR
# Epoch_topo       =  58203.322339243670
# Epoch_bary       =  N/A
# T_sample         =  0.002
# Data Folded      =  7208960
# Data Avg         =  -3.57270223123962e-10
# Data StdDev      =  7.54988735402435 
# Profile Bins     =  512
# Profile Avg      =  -0.332625294347335
# Profile StdDev   =  895.863410762529 
# Reduced chi-sqr  =  1.344
# Prob(Noise)      <  2.96e-07   (~5.0 sigma)
# P_topo (ms)      =  714.572769926372  +/- 2.64e-05
# P'_topo (s/s)    =  -0                +/- 1.42e-11
# P''_topo (s/s^2) =  0                 +/- 6.38e-15
# P_bary (ms)      =  N/A
# P'_bary (s/s)    =  N/A
# P''_bary (s/s^2) =  N/A
# P_orb (s)        =  N/A
# asin(i)/c (s)    =  N/A
# eccentricity     =  N/A
# w (rad)          =  N/A
# T_peri           =  N/A
######################################################
   0  -292.4787
   1  -684.9249
   2  -378.9655
   3  -37.09376
   4  140.4951
   5  -247.0169
   6  -808.1259
   7  -672.6716
   8  -734.8124
   9  -819.8103
  10  -479.3882
  11  473.974
  12  916.9275
  13  192.9902
  14  63.8001
  15  31.33287
  16  -396.0587
  17  -1207.119
  18  -467.6793
  19  205.8378
  20  386.0567
  21  -199.0141
  22  -1348.942
  23  -1267.581
  24  -1356.006
  25  -1127.389
  26  -978.6635
  27  262.9665
  28  456.9962
  29  53.83561
  30  -680.8477
  31  -1411.323
  32  -845.3754
  33  -995.9115
  34  -1057.764
  35  -294.9321
  36  303.5402
  37  -329.5118
  38  -1116.824
  39  -1086.67
  40  -998.7268
  41  -555.6024
  42  -706.1912
  43  132.176
  44  993.2256
  45  756.1258
  46  -71.81261
  47  -775.4988
  48  -281.0094
  49  -400.5202
  50  -451.2226
  51  -359.4508
  52  187.4799
  53  475.1982
  54  -529.9271
  55  -1090.094
  56  -1035.95
  57  -777.9725
  58  -914.8815
  59  -573.8057
  60  402.9613
  61  724.1263
  62  302.0334
  63  -486.7598
  64  -959.2578
  65  -651.7927
  66  -642.9539
  67  -372.5468
  68  -168.8542
  69  191.2335
  70  47.03765
  71  -452.7903
  72  -792.1627
  73  -921.2142
  74  -846.836
  75  -566.6639
  76  -153.3085
  77  609.2524
  78  830.408
  79  786.0265
  80  -2.305959
  81  44.61833
  82  199.4449
  83  82.15703
  84  -623.7656
  85  303.9998
  86  1299.757
  87  944.8901
  88  538.0148
  89  124.3124
  90  -17.57814
  91  -153.6149
  92  -274.4355
  93  941.5334
  94  1265.346
  95  1082.902
  96  452.1651
  97  380.5235
  98  59.63488
  99  -194.0843
 100  -125.9725
 101  570.7361
 102  540.6215
 103  123.8337
 104  -547.6164
 105  -1308.396
 106  -1173.403
 107  -597.6772
 108  -225.1178
 109  80.99706
 110  1037.127
 111  1146.699
 112  157.8362
 113  -288.482
 114  -380.1806
 115  -79.08988
 116  -158.362
 117  -203.3391
 118  280.957
 119  797.2633
 120  578.6769
 121  -419.1761
 122  -691.7824
 123  -707.1752
 124  -688.0023
 125  -341.1024
 126  580.5536
 127  935.2581
 128  642.1919
 129  -22.90366
 130  -263.4645
 131  -474.1504
 132  -818.0856
 133  -635.4497
 134  -474.2504
 135  531.6775
 136  406.5377
 137  -689.1328
 138  -1007.268
 139  -1349.286
 140  -1225.249
 141  -1167.991
 142  -33.43501
 143  900.5991
 144  1099.668
 145  -81.29014
 146  -1055.72
 147  -1191.776
 148  -1060.834
 149  -906.8951
 150  -695.0363
 151  -84.05972
 152  420.0294
 153  -89.14226
 154  -1272.555
 155  -1585.173
 156  -1382.599
 157  -1493.81
 158  -778.1296
 159  227.3096
 160  701.5577
 161  785.2299
 162  363.0412
 163  -195.3263
 164  -502.966
 165  -618.4509
 166  -542.5261
 167  -100.5086
 168  187.2933
 169  279.8384
 170  -117.1982
 171  -942.9492
 172  -1571.67
 173  -1571.833
 174  -1274.262
 175  -166.6774
 176  696.3242
 177  899.4711
 178  586.4815
 179  121.9835
 180  -94.59876
 181  -373.1699
 182  -534.6064
 183  -208.0544
 184  464.6564
 185  857.5207
 186  624.9656
 187  -192.166
 188  -567.2101
 189  -112.2202
 190  -373.6245
 191  -207.195
 192  511.3212
 193  1397.636
 194  889.8848
 195  675.5889
 196  128.0298
 197  -339.4735
 198  78.79356
 199  -143.5877
 200  461.7273
 201  1038.063
 202  798.1533
 203  123.7437
 204  -739.2541
 205  -436.5231
 206  -399.7901
 207  -512.5015
 208  -115.7335
 209  492.0676
 210  1310.932
 211  443.2607
 212  4.683017
 213  -316.7406
 214  -145.6901
 215  -420.0841
 216  56.98059
 217  708.095
 218  1301.332
 219  831.864
 220  -253.1856
 221  -503.3612
 222  -466.9126
 223  -335.9344
 224  106.267
 225  1224.339
 226  1806.158
 227  1444.29
 228  788.1232
 229  -73.05875
 230  -123.4365
 231  -60.13957
 232  -252.5534
 233  405.3124
 234  701.7648
 235  575.7231
 236  -216.9107
 237  -525.1068
 238  -770.5244
 239  -989.4342
 240  -1106.856
 241  -4.03873
 242  749.2025
 243  1200.64
 244  782.7781
 245  127.5349
 246  -454.1276
 247  -717.5985
 248  -694.6082
 249  -716.3942
 250  -235.9542
 251  457.4436
 252  36.30293
 253  -874.6896
 254  -1127.608
 255  -1289.879
 256  -1400.779
 257  -1165.954
 258  -26.88862
 259  737.2254
 260  300.2093
 261  356.6687
 262  -416.4479
 263  -739.3108
 264  -1200.185
 265  -556.4892
 266  -64.56318
 267  272.2702
 268  277.8245
 269  -411.4178
 270  -805.3466
 271  -836.3793
 272  -888.1771
 273  -1084.339
 274  -175.536
 275  733.8389
 276  539.7994
 277  40.99507
 278  -205.2003
 279  -203.6252
 280  -213.0394
 281  -383.2638
 282  -225.503
 283  302.4961
 284  482.6863
 285  491.138
 286  2.385807
 287  -728.2702
 288  -640.7413
 289  -224.2732
 290  66.0411
 291  600.0215
 292  1056.993
 293  1211.822
 294  518.3214
 295  -168.3439
 296  -129.2947
 297  -155.9945
 298  -241.8275
 299  250.3193
 300  575.5464
 301  615.6513
 302  37.89206
 303  -657.153
 304  -469.8433
 305  -603.6702
 306  -235.8116
 307  741.0527
 308  1582.366
 309  1339.4
 310  613.8583
 311  86.19513
 312  -324.0651
 313  -741.9478
 314  -835.7166
 315  -139.737
 316  630.2017
 317  911.1813
 318  471.039
 319  -518.7911
 320  -984.0977
 321  -1329.34
 322  -1186.757
 323  -364.6541
 324  378.5988
 325  1384.435
 326  1113.476
 327  334.0542
 328  -318.8347
 329  -514.9864
 330  -728.1746
 331  -897.025
 332  -342.7102
 333  324.7311
 334  430.7288
 335  -129.0921
 336  -594.7197
 337  -713.3849
 338  -949.3378
 339  -1368.776
 340  -671.4157
 341  105.8071
 342  504.3082
 343  71.86939
 344  -724.7607
 345  -733.0587
 346  -1162.255
 347  -1061.74
 348  -1045.686
 349  -239.7299
 350  77.52055
 351  -330.7792
 352  -1557.654
 353  -1532.012
 354  -1138.265
 355  -820.1342
 356  -569.8541
 357  -65.20026
 358  477.7972
 359  195.1493
 360  -394.0042
 361  -761.0685
 362  -829.4103
 363  -1040.485
 364  -1148.719
 365  -303.0309
 366  337.0594
 367  -76.6592
 368  -476.5079
 369  -602.814
 370  -838.5254
 371  -941.1182
 372  -991.2233
 373  -672.6124
 374  632.4304
 375  1101.589
 376  772.8179
 377  447.7151
 378  143.7444
 379  -326.6106
 380  -199.8026
 381  210.5439
 382  684.377
 383  1033.359
 384  598.1666
 385  -293.0607
 386  -644.4621
 387  -540.5891
 388  -510.2607
 389  138.3993
 390  860.1039
 391  1615.69
 392  1429.205
 393  764.148
 394  694.4838
 395  480.4686
 396  284.3176
 397  222.7801
 398  803.8503
 399  1432.205
 400  1728.777
 401  1298.086
 402  795.5896
 403  456.1979
 404  39.73573
 405  -101.404
 406  231.8506
 407  1780.308
 408  2190.623
 409  1820.319
 410  1439.458
 411  1776.084
 412  2283.253
 413  2029.802
 414  1812.212
 415  1949.993
 416  2034.806
 417  1275.305
 418  701.3865
 419  71.35519
 420  286.9767
 421  224.7526
 422  279.5693
 423  851.9368
 424  1514.807
 425  1911.932
 426  1202.066
 427  497.5237
 428  392.6729
 429  746.8419
 430  980.3843
 431  638.8153
 432  1050.123
 433  731.4607
 434  267.4255
 435  -244.5661
 436  -83.8875
 437  -85.81733
 438  33.58085
 439  256.5036
 440  1095.17
 441  1425.765
 442  677.0381
 443  408.0345
 444  83.83094
 445  -111.0948
 446  -132.1857
 447  -2.981419
 448  722.7347
 449  838.9028
 450  903.092
 451  298.7062
 452  -160.2544
 453  -665.4935
 454  -474.8712
 455  -274.474
 456  598.0311
 457  1177.066
 458  1355
 459  970.25
 460  84.33453
 461  431.8419
 462  -75.65749
 463  -60.85582
 464  415.3663
 465  920.9533
 466  911.7775
 467  243.6045
 468  -111.1849
 469  -597.7056
 470  -476.6155
 471  -337.9235
 472  111.0707
 473  1166.299
 474  1805.695
 475  928.7684
 476  11.33786
 477  -360.2179
 478  -24.79187
 479  -51.41668
 480  -424.4808
 481  197.4604
 482  371.128
 483  23.00467
 484  -242.1965
 485  -643.2961
 486  -603.4918
 487  -543.8433
 488  -290.7361
 489  538.7494
 490  1192.009
 491  1222.334
 492  192.8029
 493  -364.5822
 494  -729.7914
 495  -660.8782
 496  -371.3767
 497  -197.5717
 498  637.1647
 499  1098.184
 500  236.2913
 501  -249.079
 502  -444.6182
 503  -642.3141
 504  -781.1747
 505  -664.4476
 506  541.2188
 507  1018.992
 508  592.4493
 509  62.64127
 510  175.7805
 511  -0.8195662
