# Input file       =  1206358626.111749_cleaned.dat
# Candidate        =  PSR_0332+5434
# Telescope        =  AR
# Epoch_topo       =  58206.484318423019
# Epoch_bary       =  N/A
# T_sample         =  0.002
# Data Folded      =  7340032
# Data Avg         =  0.417585158808963
# Data StdDev      =  6.10138587247983 
# Profile Bins     =  1024
# Profile Avg      =  2993.20293549718 
# Profile StdDev   =  516.567989485583 
# Reduced chi-sqr  =  0.634
# Prob(Noise)      <  1   (~0.0 sigma)
# P_topo (ms)      =  714.571096941393  +/- 0.000519
# P'_topo (s/s)    =  -0                +/- 2.74e-10
# P''_topo (s/s^2) =  0                 +/- 1.21e-13
# P_bary (ms)      =  N/A
# P'_bary (s/s)    =  N/A
# P''_bary (s/s^2) =  N/A
# P_orb (s)        =  N/A
# asin(i)/c (s)    =  N/A
# eccentricity     =  N/A
# w (rad)          =  N/A
# T_peri           =  N/A
######################################################
   0  2849.093
   1  2817.27
   2  2735.277
   3  2732.655
   4  2900.851
   5  3062.741
   6  3044.417
   7  2915.474
   8  2876.92
   9  2994.432
  10  2929.959
  11  2881.761
  12  2917.388
  13  3017.51
  14  3164.564
  15  3075.687
  16  3047.237
  17  2928.834
  18  3020.365
  19  3057.393
  20  3137.269
  21  3117.008
  22  3041.014
  23  2918.953
  24  2882.97
  25  2945.425
  26  3047.38
  27  3150.027
  28  3185.118
  29  3205.865
  30  3166.061
  31  3136.251
  32  3206.318
  33  3263.01
  34  3192.906
  35  3092.805
  36  3154.562
  37  3175.206
  38  3147.15
  39  3147.719
  40  3128.65
  41  3212.786
  42  3240.479
  43  3208.638
  44  3137.894
  45  3096.454
  46  3189.522
  47  3278.203
  48  3246.922
  49  3228.002
  50  3254.611
  51  3276.966
  52  3290.126
  53  3286.941
  54  3243.51
  55  3368.385
  56  3291.017
  57  3105.131
  58  2959.556
  59  2905.321
  60  2926.658
  61  2927.401
  62  3112.197
  63  3220.039
  64  3221.941
  65  3043.196
  66  2991.278
  67  2920.36
  68  3069.306
  69  3161.784
  70  3176.002
  71  3030.796
  72  3126.388
  73  3211.389
  74  3392.522
  75  3337.764
  76  3269.158
  77  3296.271
  78  3200.301
  79  2952.456
  80  2767.248
  81  2725.562
  82  2766.351
  83  2826.565
  84  2924.933
  85  2866.15
  86  2912.384
  87  2928.728
  88  3034.586
  89  3136.819
  90  3200.056
  91  3245.242
  92  3218.518
  93  3013.869
  94  2948.176
  95  2959.982
  96  3008.583
  97  2966.658
  98  2927.981
  99  2915.53
 100  2941.941
 101  2894.953
 102  2862.776
 103  2939.289
 104  3073.462
 105  3177.303
 106  3188.518
 107  3158.344
 108  3093.382
 109  3015.499
 110  2909.533
 111  2890.369
 112  2971.708
 113  2950.155
 114  3011.386
 115  3021.232
 116  3026.452
 117  3019.315
 118  2923.108
 119  2935.44
 120  2843.352
 121  2808.086
 122  2846.796
 123  2922.486
 124  2971.516
 125  2970.231
 126  2881.664
 127  2724.862
 128  2677.974
 129  2766.782
 130  2890.229
 131  2935.036
 132  2980.941
 133  2967.346
 134  3008.534
 135  3010.923
 136  3035.802
 137  3107.519
 138  3193.779
 139  3188.518
 140  3027.614
 141  2971.512
 142  2963.594
 143  3107.042
 144  3105.475
 145  3140.522
 146  2996.848
 147  2894.523
 148  2850.652
 149  2820.319
 150  2754.74
 151  2778.36
 152  2729.848
 153  2762.355
 154  2629.439
 155  2578.986
 156  2572.494
 157  2747.422
 158  2892.625
 159  2936.438
 160  2886.44
 161  2832.36
 162  2927.604
 163  2851.019
 164  2711.712
 165  2538.36
 166  2479.774
 167  2566.866
 168  2613.708
 169  2807.898
 170  2927.981
 171  2918.234
 172  2912.392
 173  3000.211
 174  2967.62
 175  2887.21
 176  2911.111
 177  2884.222
 178  2822.271
 179  2830.872
 180  2883.104
 181  2842.485
 182  2838.617
 183  2838.953
 184  2964.314
 185  3116.246
 186  3163.845
 187  3095.929
 188  2887.447
 189  2740.64
 190  2691.802
 191  2759.331
 192  2773.505
 193  2750.617
 194  2683.687
 195  2699.506
 196  2656.764
 197  2672.206
 198  2803.874
 199  2864.36
 200  2908.248
 201  2807.059
 202  2801.272
 203  2819.875
 204  2861.534
 205  2858.293
 206  2866.811
 207  2930.492
 208  2976.538
 209  3041.272
 210  3006.824
 211  3093.32
 212  3018.4
 213  2963.343
 214  2875.376
 215  2835.901
 216  2860.068
 217  2903.439
 218  3024.459
 219  3106.839
 220  3149.829
 221  3151.509
 222  3128.119
 223  3131.184
 224  3100.638
 225  3178.841
 226  3206.005
 227  3205.023
 228  3127.185
 229  3038.208
 230  2970.532
 231  2950.185
 232  3007.731
 233  2938.349
 234  2889.309
 235  2924.654
 236  2934.366
 237  2962.975
 238  2909.706
 239  2919.996
 240  2963.732
 241  2873.718
 242  2755.503
 243  2647.376
 244  2764.933
 245  2819.569
 246  2833.877
 247  2880.221
 248  2992.522
 249  2941.081
 250  2885.877
 251  2907.198
 252  2902.074
 253  2849.16
 254  2800.088
 255  2974.909
 256  3014.918
 257  3066.605
 258  3049.89
 259  2992.81
 260  2967.756
 261  2981.787
 262  2950.183
 263  2986.464
 264  2874.12
 265  2810.753
 266  2688.026
 267  2725.216
 268  2676.841
 269  2720.746
 270  2744.803
 271  2851.638
 272  2872.081
 273  2750.184
 274  2849.538
 275  3005.147
 276  3063.497
 277  3056.108
 278  3065.252
 279  3054.842
 280  3200.13
 281  3180.062
 282  3258.124
 283  3181.171
 284  3077.954
 285  3128.384
 286  3153.134
 287  3125.476
 288  3079.265
 289  3201.937
 290  3174.913
 291  3124.246
 292  3125.034
 293  3272.727
 294  3365.841
 295  3333.466
 296  3131.62
 297  3075.663
 298  3009.818
 299  2908.673
 300  2801.781
 301  2694.104
 302  2806.765
 303  2796.626
 304  2855.646
 305  2930.613
 306  2913.195
 307  2896.391
 308  2832.157
 309  2922.317
 310  2960.776
 311  3058.019
 312  2907.702
 313  2937.267
 314  2941.414
 315  2841.281
 316  2739.881
 317  2710.399
 318  2781.035
 319  2752.398
 320  2604.274
 321  2496.555
 322  2504.71
 323  2656.119
 324  2749.177
 325  2901.423
 326  3038.811
 327  2965.584
 328  2853.157
 329  2765.929
 330  2857.255
 331  2913.881
 332  2829.86
 333  2775.564
 334  2702.26
 335  2764.51
 336  2854.311
 337  2799.833
 338  2717.313
 339  2707.235
 340  2753.869
 341  2806.574
 342  2799.824
 343  2873.692
 344  2955.283
 345  3044.379
 346  2975.564
 347  2959.822
 348  2951.878
 349  3012.374
 350  3016.077
 351  2848.653
 352  2782.124
 353  2799.507
 354  2833.675
 355  2831.274
 356  2883.522
 357  2842.427
 358  2913.256
 359  2876.58
 360  2982.71
 361  2947.079
 362  2991.501
 363  2939.629
 364  2965.99
 365  2900.154
 366  2784.429
 367  2669.501
 368  2799.681
 369  2934.339
 370  3025.184
 371  2887.137
 372  2907.184
 373  2960.96
 374  3005.664
 375  3091.774
 376  3071.617
 377  3009.846
 378  2876.491
 379  2758.35
 380  2678.492
 381  2747.836
 382  2924.715
 383  2980.09
 384  3094.222
 385  3124.593
 386  3283.062
 387  3129.276
 388  3056.536
 389  3161.684
 390  3260.478
 391  3333.05
 392  3149.599
 393  3064.944
 394  3058.942
 395  2930.05
 396  2844.31
 397  2800.212
 398  2887.009
 399  2939.948
 400  2985.235
 401  3177.602
 402  3155.965
 403  3168.589
 404  3164.728
 405  3254.91
 406  3341.505
 407  3379.795
 408  3434.636
 409  3399.229
 410  3332.326
 411  3228.056
 412  3243.562
 413  3203.131
 414  3195.122
 415  3200.545
 416  3134.98
 417  3107.904
 418  3082.734
 419  3055.228
 420  3146.195
 421  3121.311
 422  3127.486
 423  3285.093
 424  3291.2
 425  3370.038
 426  3123.164
 427  3146.08
 428  3163.243
 429  3271.808
 430  3374.958
 431  3495.789
 432  3558.4
 433  3410.886
 434  3324.964
 435  3154.893
 436  3113.196
 437  3174.052
 438  3304.848
 439  3303.002
 440  3423.162
 441  3416.055
 442  3494.537
 443  3391.983
 444  3517.46
 445  3446.518
 446  3576.922
 447  3542.835
 448  3573.653
 449  3575.406
 450  3638.215
 451  3676.328
 452  3637.539
 453  3556.49
 454  3630.559
 455  3640.821
 456  3572.451
 457  3432.115
 458  3345.071
 459  3348.477
 460  3356.242
 461  3434.959
 462  3489.261
 463  3447.317
 464  3443.308
 465  3398.885
 466  3455.04
 467  3493.524
 468  3637.057
 469  3601.239
 470  3535.476
 471  3454.756
 472  3459.396
 473  3340.333
 474  3322.321
 475  3138.784
 476  3129.091
 477  3109.184
 478  2997.41
 479  2952.13
 480  2966.974
 481  3056.578
 482  3088.302
 483  3168.237
 484  3144.273
 485  3188.169
 486  3073.851
 487  3150.032
 488  3286.534
 489  3317.016
 490  3407.068
 491  3371.668
 492  3383.957
 493  3269.552
 494  3118.802
 495  3019.874
 496  3066.013
 497  3153.047
 498  3084.991
 499  2875.964
 500  2713.297
 501  2809.687
 502  2900.582
 503  3077.714
 504  3063.826
 505  3008.53
 506  2991.603
 507  3005.142
 508  2968.606
 509  3077.874
 510  3192.781
 511  3226.994
 512  3059.856
 513  2985.334
 514  2960.95
 515  2965.786
 516  3060.558
 517  3129.527
 518  3214.172
 519  3129.49
 520  3155.554
 521  3097.189
 522  3060.419
 523  2911.981
 524  2885.267
 525  2797.923
 526  2874.34
 527  2949.531
 528  2950.718
 529  2829.853
 530  2706.565
 531  2505.168
 532  2596.113
 533  2738.317
 534  2818.943
 535  2895.447
 536  3007.372
 537  3037.898
 538  2926.301
 539  2747.68
 540  2777.826
 541  2879.591
 542  2881.952
 543  2812.972
 544  2729.046
 545  2865.348
 546  3041.701
 547  3096.319
 548  2887.015
 549  2761.204
 550  2789.193
 551  2789.45
 552  2735.696
 553  2775.632
 554  2891.794
 555  2785.715
 556  2666.637
 557  2632.365
 558  2765.951
 559  2716.602
 560  2762.475
 561  2731.209
 562  2624.085
 563  2537.474
 564  2582.65
 565  2723.585
 566  2715.194
 567  2852.637
 568  2932.374
 569  2918.587
 570  2693.967
 571  2657.229
 572  2764.935
 573  2671.976
 574  2583.024
 575  2600.599
 576  2660.203
 577  2766.444
 578  2773.096
 579  2887.576
 580  2876.739
 581  2707.638
 582  2660.254
 583  2710.087
 584  2806.151
 585  2879.774
 586  2875.579
 587  2762.522
 588  2605.263
 589  2557.697
 590  2539.615
 591  2677.034
 592  2719.063
 593  2751.131
 594  2794.445
 595  2921.298
 596  2996.185
 597  3040.576
 598  3043.214
 599  3240.655
 600  3430.376
 601  3587.286
 602  3717.27
 603  3801.215
 604  3875.891
 605  3945.3
 606  3923.301
 607  3796.802
 608  3660.752
 609  3706.265
 610  3609.071
 611  3516.888
 612  3412.293
 613  3314.108
 614  3155.922
 615  3024.703
 616  2855.855
 617  2823.714
 618  2785.109
 619  2854.774
 620  2908.414
 621  2773.605
 622  2819.439
 623  2750.264
 624  2802.403
 625  2879.338
 626  2966.07
 627  3028.692
 628  2963.183
 629  2914.665
 630  2951.2
 631  3018.533
 632  2986.832
 633  2944.465
 634  3081.935
 635  3066.505
 636  2996.151
 637  2981.319
 638  3021.591
 639  3124.778
 640  3126.331
 641  3158.836
 642  3217.94
 643  3149.86
 644  3055.821
 645  3105.194
 646  3067.636
 647  3059.679
 648  2928.817
 649  2906.038
 650  2780.558
 651  2763.234
 652  2774.536
 653  2812.88
 654  2668.468
 655  2614.566
 656  2734.919
 657  2975.114
 658  3171.614
 659  3183.445
 660  3123.582
 661  3127.701
 662  3082.816
 663  3074.16
 664  3102.936
 665  3175.572
 666  3180.944
 667  3210.402
 668  3136.032
 669  3052.032
 670  3205.435
 671  3215.857
 672  3124.404
 673  3083.489
 674  3205.286
 675  3271.562
 676  3108.671
 677  3012.703
 678  2887.122
 679  2857.58
 680  2982.678
 681  2941.604
 682  2853.191
 683  2813.734
 684  2997.542
 685  3058.532
 686  2944.212
 687  2795.737
 688  2724.675
 689  2894.622
 690  2997.094
 691  2898.321
 692  2836.927
 693  2783.822
 694  2765.703
 695  2867.46
 696  2967.703
 697  2975.492
 698  3039.777
 699  3044.983
 700  3052.76
 701  2987.541
 702  2895.537
 703  2920.149
 704  2932.205
 705  2911.918
 706  2841.971
 707  2756.481
 708  2892.633
 709  2979.253
 710  2869.371
 711  2674.399
 712  2580.012
 713  2712.765
 714  2599.629
 715  2503.627
 716  2429.591
 717  2586.552
 718  2576.662
 719  2557.942
 720  2537.562
 721  2593.79
 722  2747.055
 723  2810.308
 724  2871.812
 725  2789.991
 726  2726.948
 727  2846.898
 728  2849.395
 729  2870.37
 730  2714.865
 731  2733.816
 732  2607.54
 733  2643.093
 734  2784.912
 735  2835.38
 736  2829.526
 737  2661.663
 738  2758.566
 739  2682.838
 740  2784.055
 741  2753.717
 742  2746.646
 743  2829.997
 744  2849.668
 745  2746.632
 746  2635.906
 747  2552.056
 748  2624.958
 749  2646.207
 750  2566.163
 751  2487.384
 752  2700.498
 753  2929.179
 754  3115.224
 755  3025.341
 756  2942.729
 757  2876.738
 758  2918.399
 759  2949.068
 760  2955.248
 761  3070.433
 762  3074.588
 763  3098.272
 764  2989.93
 765  2996.092
 766  3029.472
 767  3013.603
 768  3014.921
 769  2930.178
 770  2756.876
 771  2809.956
 772  2891.421
 773  3170.159
 774  3149.469
 775  3066.969
 776  3034.004
 777  3120.266
 778  3240.819
 779  3220.718
 780  3113.53
 781  3001.544
 782  3029.492
 783  3163.379
 784  3267.716
 785  3284.416
 786  3252.275
 787  3163.636
 788  3010.6
 789  3046.278
 790  3215.191
 791  3342.098
 792  3394.586
 793  3382.399
 794  3369.038
 795  3249.519
 796  3144.964
 797  3174.895
 798  3321.619
 799  3521.486
 800  3541.05
 801  3441.768
 802  3312.47
 803  3232.309
 804  3219.183
 805  3163.365
 806  3113.608
 807  3061.214
 808  3173.677
 809  3162.681
 810  3198.368
 811  3098.016
 812  3140.894
 813  3032.203
 814  3180.144
 815  3244.276
 816  3379.01
 817  3322.45
 818  3242.973
 819  3261.95
 820  3236.198
 821  3230.314
 822  3248.39
 823  3328.759
 824  3343.386
 825  3163.914
 826  3157.066
 827  3148.011
 828  3158.331
 829  3056.774
 830  2965.573
 831  2931.443
 832  2992.86
 833  3078.352
 834  3075.92
 835  2972.875
 836  2860.037
 837  2880.182
 838  2895.49
 839  2839.748
 840  2759.966
 841  2960.035
 842  3072.041
 843  3055.86
 844  2922.974
 845  2656.394
 846  2685.41
 847  2650.17
 848  2709.578
 849  2679.902
 850  2738.633
 851  2833.517
 852  2862.815
 853  2876.277
 854  2888.603
 855  2968.911
 856  3041.128
 857  3141.526
 858  3255.553
 859  3238.341
 860  3126.263
 861  2980.38
 862  2971.147
 863  2918.918
 864  2952.297
 865  3104.374
 866  3208.555
 867  3221.609
 868  3164.035
 869  3140.423
 870  3162.818
 871  3059.017
 872  2940.697
 873  3027.391
 874  3112.006
 875  3282.703
 876  3230.334
 877  3170.706
 878  3123.979
 879  3096.566
 880  3113.687
 881  3104.46
 882  3184.706
 883  3242.263
 884  3247.312
 885  3108.134
 886  3157.452
 887  3220.975
 888  3286.107
 889  3366.198
 890  3222.065
 891  3121.906
 892  3070.091
 893  3112.546
 894  3224.563
 895  3103.227
 896  3137.913
 897  3130.029
 898  3281.469
 899  3305.228
 900  3296.306
 901  3195.79
 902  3185.782
 903  3166.704
 904  3094.27
 905  2958.531
 906  2833.709
 907  2928.394
 908  2949.725
 909  3008.517
 910  3135.783
 911  3302.746
 912  3359.751
 913  3214.479
 914  3199.132
 915  3045.901
 916  3046.571
 917  3107.922
 918  3124.177
 919  3060.425
 920  2968.333
 921  2997.238
 922  2883.957
 923  2823.171
 924  2901.3
 925  3131.442
 926  3207.302
 927  3104.397
 928  3057.444
 929  3016.701
 930  2925.939
 931  2950.287
 932  2904.567
 933  2875.847
 934  2779.247
 935  2819.563
 936  2761.838
 937  2823.247
 938  2851.935
 939  2938.465
 940  2858.949
 941  2896.245
 942  3014.443
 943  3094.885
 944  3079.729
 945  3097.858
 946  2990.594
 947  2935.262
 948  2931.892
 949  2973.51
 950  2902.683
 951  2843.643
 952  2807.045
 953  2801.476
 954  2747.023
 955  2759.464
 956  2847.629
 957  2904.411
 958  2839.639
 959  2688.065
 960  2746.658
 961  2757.271
 962  2684.596
 963  2618.914
 964  2734.707
 965  2832.289
 966  2787.421
 967  2654.044
 968  2560.914
 969  2767.036
 970  2895.898
 971  2980.477
 972  2819.997
 973  2674.38
 974  2693.125
 975  2847.478
 976  2861.368
 977  2759.324
 978  2694.64
 979  2781.185
 980  2798.164
 981  2856.25
 982  2887.089
 983  2857.1
 984  2869.759
 985  2903.335
 986  2933
 987  2767.201
 988  2726.325
 989  2756.98
 990  2846.129
 991  2700.612
 992  2669.731
 993  2716.192
 994  2846.674
 995  2837.256
 996  2835.9
 997  2857.26
 998  2771.489
 999  2852.739
1000  2852.719
1001  2878.638
1002  2838.6
1003  2841.906
1004  2843.985
1005  2849.553
1006  2938.542
1007  2953.525
1008  2754.384
1009  2755.947
1010  2781.372
1011  2886.984
1012  2843.699
1013  2779.97
1014  2855.441
1015  2863.041
1016  2781.656
1017  2781.804
1018  2861.316
1019  2890.583
1020  2762.428
1021  2720.085
1022  2630.064
1023  2785.351
