# Input file       =  1206028808.107821_cleaned.dat
# Candidate        =  PSR_0332+5434
# Telescope        =  AR
# Epoch_topo       =  58202.666980414593
# Epoch_bary       =  N/A
# T_sample         =  0.002
# Data Folded      =  7340032
# Data Avg         =  0.0306303296365539
# Data StdDev      =  1.00004814754941 
# Profile Bins     =  512
# Profile Avg      =  439.051119498441 
# Profile StdDev   =  119.738801229051 
# Reduced chi-sqr  =  1.380
# Prob(Noise)      <  2.36e-08   (~5.5 sigma)
# P_topo (ms)      =  714.573454280968  +/- 0.000321
# P'_topo (s/s)    =  -0                +/- 1.69e-10
# P''_topo (s/s^2) =  0                 +/- 7.47e-14
# P_bary (ms)      =  N/A
# P'_bary (s/s)    =  N/A
# P''_bary (s/s^2) =  N/A
# P_orb (s)        =  N/A
# asin(i)/c (s)    =  N/A
# eccentricity     =  N/A
# w (rad)          =  N/A
# T_peri           =  N/A
######################################################
   0  419.5809
   1  514.6775
   2  468.7515
   3  542.4863
   4  593.8442
   5  469.2882
   6  335.8157
   7  437.0686
   8  474.607
   9  477.2169
  10  415.151
  11  452.384
  12  471.4891
  13  472.2914
  14  554.1924
  15  507.9054
  16  470.2609
  17  525.4075
  18  464.7411
  19  569.1336
  20  586.338
  21  545.0633
  22  468.8092
  23  464.653
  24  504.4619
  25  516.6387
  26  535.9178
  27  486.4895
  28  502.8313
  29  475.5988
  30  497.1665
  31  464.8285
  32  383.1237
  33  441.032
  34  547.6769
  35  460.5311
  36  418.6128
  37  343.3842
  38  478.9149
  39  570.8741
  40  582.0934
  41  552.3879
  42  547.8691
  43  737.5096
  44  646.1692
  45  629.3228
  46  742.7899
  47  745.2216
  48  874.6493
  49  1001.126
  50  1105.88
  51  1098.01
  52  998.8486
  53  686.6563
  54  550.367
  55  611.033
  56  543.2206
  57  505.6818
  58  562.2311
  59  566.2903
  60  459.3333
  61  413.7631
  62  457.6815
  63  526.6884
  64  549.421
  65  537.7603
  66  527.2189
  67  465.9415
  68  419.2915
  69  443.3862
  70  444.8846
  71  461.885
  72  454.2628
  73  492.7856
  74  525.9768
  75  468.9804
  76  487.7981
  77  564.8911
  78  481.6859
  79  429.5255
  80  458.983
  81  524.2552
  82  516.0109
  83  486.1551
  84  445.0162
  85  433.3365
  86  504.3745
  87  457.1298
  88  418.0862
  89  467.2239
  90  515.0606
  91  506.267
  92  546.5229
  93  511.2541
  94  389.2211
  95  485.6924
  96  499.8697
  97  472.4039
  98  572.8898
  99  427.3109
 100  390.5842
 101  466.7263
 102  551.3177
 103  510.8606
 104  428.0986
 105  556.6454
 106  552.4886
 107  423.1656
 108  462.3199
 109  571.5197
 110  425.009
 111  405.8129
 112  440.693
 113  393.8881
 114  392.3821
 115  390.3199
 116  328.2988
 117  384.4871
 118  416.4417
 119  482.8223
 120  470.2971
 121  432.4155
 122  484.5452
 123  390.4152
 124  359.5857
 125  513.0567
 126  520.2772
 127  401.2557
 128  457.4554
 129  391.1073
 130  503.817
 131  452.5839
 132  457.8143
 133  496.4882
 134  478.1671
 135  481.7083
 136  453.8909
 137  550.4435
 138  490.7301
 139  436.0548
 140  304.61
 141  388.397
 142  415.2014
 143  570.8226
 144  586.6496
 145  581.9541
 146  539.4796
 147  526.7872
 148  545.8945
 149  424.0529
 150  363.4136
 151  489.7036
 152  536.4706
 153  472.2638
 154  331.766
 155  377.656
 156  382.36
 157  397.1609
 158  394.2026
 159  437.5624
 160  420.7512
 161  431.2115
 162  377.5775
 163  440.9563
 164  445.3917
 165  536.6228
 166  469.813
 167  456.4977
 168  532.9666
 169  389.4648
 170  476.271
 171  522.2391
 172  457.2209
 173  347.1515
 174  309.856
 175  305.9858
 176  391.7303
 177  394.676
 178  358.6999
 179  419.591
 180  435.7856
 181  388.6825
 182  347.6448
 183  367.4351
 184  512.2877
 185  569.8337
 186  470.706
 187  497.0002
 188  461.5728
 189  406.9647
 190  427.7159
 191  455.415
 192  443.4409
 193  560.2408
 194  598.4412
 195  396.422
 196  227.0056
 197  242.166
 198  292.6707
 199  393.9691
 200  371.9984
 201  342.5699
 202  391.8346
 203  432.6362
 204  456.2921
 205  414.5229
 206  517.153
 207  416.8596
 208  409.4568
 209  358.5791
 210  240.7944
 211  237.6122
 212  277.5656
 213  312.9377
 214  306.6762
 215  356.0855
 216  414.4829
 217  379.3488
 218  524.8061
 219  372.4169
 220  251.8365
 221  359
 222  452.9362
 223  452.5558
 224  410.1041
 225  416.5982
 226  377.8718
 227  436.4968
 228  521.3731
 229  464.494
 230  529.3839
 231  456.1932
 232  360.4182
 233  432.3343
 234  498.4051
 235  504.4969
 236  387.0986
 237  306.2269
 238  381.8931
 239  451.8215
 240  447.7418
 241  365.2173
 242  335.0262
 243  337.1844
 244  521.1689
 245  521.7028
 246  413.4651
 247  358.9999
 248  388.0469
 249  390.1922
 250  264.6314
 251  255.9294
 252  243.9478
 253  342.1873
 254  447.3066
 255  477.5343
 256  405.6112
 257  423.156
 258  400.2321
 259  359.1898
 260  482.376
 261  356.6695
 262  310.9828
 263  397.1736
 264  430.0037
 265  388.4243
 266  413.1324
 267  447.3057
 268  416.8306
 269  426.3786
 270  477.7144
 271  534.5623
 272  484.1712
 273  453.9771
 274  438.2529
 275  399.5386
 276  452.4919
 277  537.1545
 278  465.1472
 279  509.9885
 280  539.3346
 281  477.4267
 282  293.3365
 283  467.029
 284  535.6755
 285  488.8633
 286  450.5782
 287  447.3462
 288  477.5944
 289  452.3848
 290  428.2618
 291  362.4976
 292  352.3867
 293  444.3443
 294  426.6076
 295  374.877
 296  356.4729
 297  455.2993
 298  422.6055
 299  369.8177
 300  426.0028
 301  451.5213
 302  414.4694
 303  407.26
 304  253.2963
 305  214.747
 306  352.6257
 307  342.2889
 308  284.2333
 309  277.5835
 310  374.0543
 311  454.0395
 312  450.2207
 313  420.8092
 314  462.4921
 315  419.5569
 316  301.0655
 317  441.4145
 318  588.9772
 319  537.9314
 320  464.9112
 321  515.8446
 322  468.8186
 323  419.4208
 324  494.2266
 325  463.4792
 326  324.3558
 327  435.7938
 328  535.769
 329  269.8709
 330  302.0682
 331  309.9416
 332  323.4059
 333  472.8213
 334  475.6138
 335  414.5099
 336  409.0703
 337  381.7015
 338  397.7279
 339  418.7306
 340  426.8832
 341  381.6377
 342  382.8539
 343  425.7104
 344  362.7971
 345  409.6617
 346  511.0137
 347  435.4908
 348  461.049
 349  418.5117
 350  239.5029
 351  189.2721
 352  352.2865
 353  406.9182
 354  406.1731
 355  358.0396
 356  375.8542
 357  378.914
 358  318.2986
 359  291.202
 360  399.5648
 361  449.8389
 362  332.3071
 363  435.3162
 364  427.4274
 365  347.3312
 366  378.1649
 367  449.1694
 368  458.0149
 369  479.9895
 370  421.5268
 371  350.8412
 372  303.0012
 373  350.577
 374  411.2319
 375  441.4273
 376  432.4654
 377  406.5158
 378  358.7212
 379  332.9861
 380  382.0149
 381  415.7639
 382  367.0516
 383  402.7188
 384  420.4353
 385  475.6754
 386  473.3041
 387  430.7996
 388  435.9144
 389  301.571
 390  328.0775
 391  377.1425
 392  397.2459
 393  575.6859
 394  431.9389
 395  322.388
 396  410.4755
 397  475.4526
 398  376.3169
 399  513.2507
 400  524.467
 401  407.93
 402  421.9639
 403  443.0553
 404  380.8976
 405  324.4433
 406  258.5504
 407  284.2476
 408  354.5701
 409  430.9568
 410  426.9473
 411  404.0784
 412  336.9152
 413  275.9257
 414  257.6698
 415  235.8335
 416  329.842
 417  307.9834
 418  494.8416
 419  421.9321
 420  386.5385
 421  489.7723
 422  442.7896
 423  403.4307
 424  450.8168
 425  377.1314
 426  334.6028
 427  324.7305
 428  348.6706
 429  391.2211
 430  380.9402
 431  348.0256
 432  424.7878
 433  426.6077
 434  384.9109
 435  343.146
 436  269.1307
 437  297.0079
 438  370.1575
 439  252.0471
 440  364.7635
 441  363.4503
 442  312.0487
 443  198.8061
 444  261.4099
 445  382.238
 446  368.0406
 447  386.9778
 448  355.7804
 449  425.8693
 450  361.6166
 451  284.6246
 452  344.4934
 453  501.644
 454  473.8262
 455  468.4862
 456  344.7752
 457  337.1554
 458  417.1767
 459  421.1787
 460  407.5445
 461  416.7278
 462  399.7424
 463  444.0421
 464  464.6813
 465  545.1315
 466  472.877
 467  440.4709
 468  446.9904
 469  488.3282
 470  470.3155
 471  550.7306
 472  489.3892
 473  467.0437
 474  539.6075
 475  523.524
 476  465.4919
 477  539.1876
 478  568.9926
 479  464.7942
 480  472.9049
 481  342.4988
 482  349.7686
 483  421.7769
 484  337.1097
 485  343.8571
 486  475.5257
 487  438.7436
 488  398.0916
 489  293.0518
 490  400.984
 491  458.8495
 492  534.0771
 493  557.6429
 494  550.9744
 495  494.3551
 496  479.0794
 497  493.3274
 498  529.3463
 499  596.4741
 500  516.8776
 501  440.3161
 502  388.9171
 503  459.869
 504  542.0696
 505  520.9839
 506  467.7509
 507  605.1739
 508  535.1937
 509  487.5512
 510  491.6093
 511  396.5975
