# Input file       =  1206013894.110423-PSRB0329-2ms-sampling-dd.dat
# Candidate        =  PSR_0332+5434
# Telescope        =  AR
# Epoch_topo       =  58202.494364703969
# Epoch_bary       =  N/A
# T_sample         =  0.002
# Data Folded      =  7340032
# Data Avg         =  -1.0741842778983e-09
# Data StdDev      =  7.50666005418554 
# Profile Bins     =  512
# Profile Avg      =  -6.81426502800057
# Profile StdDev   =  898.795201335814 
# Reduced chi-sqr  =  0.609
# Prob(Noise)      <  1   (~0.0 sigma)
# P_topo (ms)      =  714.57320548688   +/- 0.00174
# P'_topo (s/s)    =  -0                +/- 9.19e-10
# P''_topo (s/s^2) =  0                 +/- 4.06e-13
# P_bary (ms)      =  N/A
# P'_bary (s/s)    =  N/A
# P''_bary (s/s^2) =  N/A
# P_orb (s)        =  N/A
# asin(i)/c (s)    =  N/A
# eccentricity     =  N/A
# w (rad)          =  N/A
# T_peri           =  N/A
######################################################
   0  79.23792
   1  122.9546
   2  -30.57646
   3  -114.518
   4  -126.6988
   5  102.8422
   6  -375.7453
   7  -272.6423
   8  -451.4103
   9  -387.4417
  10  -661.3665
  11  -473.9267
  12  -478.7706
  13  -807.6584
  14  -424.1723
  15  -536.8975
  16  -356.4856
  17  -168.4447
  18  -210.5218
  19  26.77078
  20  -33.61035
  21  -592.7096
  22  -512.8279
  23  -50.58904
  24  -49.16025
  25  196.8804
  26  206.7309
  27  -12.18285
  28  10.85308
  29  111.8361
  30  48.72334
  31  348.0212
  32  569.1511
  33  502.58
  34  -66.95384
  35  137.3606
  36  527.4305
  37  362.3448
  38  189.4545
  39  162.3971
  40  122.8799
  41  271.0973
  42  -45.86243
  43  318.6295
  44  608.3878
  45  852.6328
  46  533.3944
  47  700.7035
  48  840.6021
  49  713.5803
  50  881.2538
  51  612.6857
  52  357.7648
  53  470.943
  54  32.72101
  55  52.94027
  56  260.1233
  57  527.0021
  58  573.8582
  59  339.8446
  60  652.5759
  61  493.9654
  62  408.3578
  63  304.1473
  64  271.9045
  65  410.0775
  66  419.4827
  67  645.6431
  68  497.7918
  69  249.7002
  70  237.3103
  71  134.8383
  72  370.5879
  73  360.9263
  74  283.1245
  75  38.36559
  76  179.2561
  77  319.7402
  78  179.1983
  79  -75.65611
  80  84.75101
  81  548.8907
  82  235.6014
  83  254.7413
  84  143.326
  85  246.9165
  86  211.4298
  87  204.1741
  88  210.6836
  89  115.2574
  90  174.0949
  91  105.1284
  92  468.9004
  93  528.9201
  94  110.3192
  95  253.1703
  96  195.3832
  97  43.56553
  98  79.81692
  99  306.2161
 100  453.638
 101  315.4612
 102  491.5215
 103  445.6675
 104  368.3427
 105  189.2341
 106  214.9226
 107  309.5831
 108  248.6716
 109  18.46892
 110  171.76
 111  266.5834
 112  -225.4933
 113  -64.60583
 114  248.8451
 115  280.2383
 116  510.4972
 117  432.0214
 118  333.5159
 119  463.6922
 120  778.6097
 121  717.4592
 122  525.6608
 123  472.5925
 124  523.3247
 125  515.4185
 126  395.8691
 127  328.1298
 128  641.5714
 129  920.4489
 130  746.8176
 131  709.0652
 132  602.5872
 133  618.4897
 134  670.7812
 135  633.1348
 136  189.9019
 137  -183.5993
 138  246.1781
 139  596.1413
 140  906.3918
 141  637.7241
 142  444.823
 143  589.9194
 144  537.3381
 145  356.1987
 146  974.5138
 147  1661.045
 148  2043.201
 149  2380.12
 150  2417.47
 151  1715.949
 152  854.0087
 153  364.2573
 154  465.7408
 155  232.8953
 156  439.2945
 157  504.0139
 158  499.1443
 159  523.1644
 160  540.2944
 161  473.8408
 162  390.9236
 163  165.0648
 164  464.8575
 165  645.9678
 166  434.2114
 167  206.0917
 168  -64.20388
 169  58.74235
 170  74.42587
 171  137.8931
 172  389.9033
 173  376.4057
 174  279.4371
 175  430.5901
 176  403.9109
 177  271.1379
 178  364.2984
 179  356.6929
 180  529.0898
 181  368.7797
 182  -54.41193
 183  143.8907
 184  407.5109
 185  582.0653
 186  632.8808
 187  761.6046
 188  459.139
 189  362.0654
 190  325.3341
 191  434.6236
 192  581.4333
 193  713.0444
 194  561.5457
 195  207.5264
 196  196.3368
 197  182.3591
 198  228.516
 199  -145.4792
 200  247.9608
 201  493.6497
 202  111.6124
 203  77.97309
 204  -27.2694
 205  -182.1637
 206  -491.6838
 207  -454.7418
 208  -25.53872
 209  52.04411
 210  69.42011
 211  -233.7483
 212  -387.5278
 213  105.952
 214  65.09238
 215  -91.57093
 216  196.5857
 217  -39.81244
 218  -187.3929
 219  -228.44
 220  -142.6651
 221  -159.634
 222  -82.8042
 223  -119.2137
 224  -8.242441
 225  -251.2574
 226  -18.05406
 227  -55.48465
 228  268.2122
 229  356.7807
 230  435.6635
 231  348.1167
 232  206.0737
 233  493.6929
 234  667.6228
 235  343.1883
 236  -91.79272
 237  -302.5454
 238  -26.10346
 239  -239.3598
 240  -151.5475
 241  -113.1708
 242  -197.5258
 243  -501.6185
 244  -716.2869
 245  -604.5558
 246  -353.6367
 247  -15.85197
 248  -329.0548
 249  -449.4327
 250  -187.4335
 251  -21.41582
 252  -291.6436
 253  -296.3011
 254  -244.8322
 255  -37.42442
 256  -111.1475
 257  -84.73019
 258  -106.5796
 259  265.4295
 260  654.5123
 261  265.3227
 262  -379.1037
 263  -276.0272
 264  -237.7804
 265  -284.3571
 266  -297.6339
 267  -401.2621
 268  -319.8988
 269  -526.1881
 270  -349.3558
 271  -613.8586
 272  -344.6403
 273  -598.3943
 274  -565.5594
 275  -583.1958
 276  -417.3416
 277  -550.0687
 278  -1012.196
 279  -843.8503
 280  -853.5323
 281  -692.6538
 282  -771.4394
 283  -923.1515
 284  -945.8616
 285  -1503.146
 286  -1315.707
 287  -811.3348
 288  -762.4404
 289  -749.5165
 290  -744.565
 291  -316.3845
 292  -1164.233
 293  -1094.81
 294  -703.9661
 295  -422.4907
 296  -354.9311
 297  -616.8428
 298  -561.4351
 299  -700.5914
 300  -522.5188
 301  -708.1158
 302  -479.5948
 303  -626.6932
 304  -582.3527
 305  -559.0903
 306  -668.3833
 307  -816.4924
 308  -593.1075
 309  -458.027
 310  -589.9221
 311  -351.0894
 312  -149.3732
 313  69.77966
 314  -109.8193
 315  -34.25964
 316  -55.46227
 317  -320.8654
 318  -144.5968
 319  -307.4923
 320  94.46469
 321  -325.2726
 322  -488.4357
 323  -213.1211
 324  -130.9565
 325  140.0122
 326  52.16586
 327  -431.426
 328  -550.4073
 329  -488.6009
 330  -227.6944
 331  -203.8342
 332  -468.8543
 333  -849.034
 334  -853.2498
 335  -676.505
 336  -1013.081
 337  -860.7082
 338  -951.6356
 339  -513.9057
 340  -421.8036
 341  -605.3154
 342  -748.8076
 343  -729.762
 344  -326.5486
 345  -584.9938
 346  -568.6583
 347  -484.2999
 348  -346.2984
 349  -544.1854
 350  -512.6568
 351  -468.5165
 352  -459.9489
 353  -441.3186
 354  -784.7339
 355  -591.2984
 356  -725.9587
 357  -964.0524
 358  -833.4604
 359  -588.8149
 360  -813.7068
 361  -902.1076
 362  -689.452
 363  -698.6331
 364  -719.4099
 365  -793.377
 366  -1084.905
 367  -1139.358
 368  -996.6791
 369  -875.6459
 370  -446.4643
 371  -602.7888
 372  -726.0523
 373  -637.1411
 374  -774.6577
 375  -864.2344
 376  -752.151
 377  -639.012
 378  -775.1549
 379  -649.0001
 380  -545.6523
 381  -540.9304
 382  -325.2394
 383  -145.9988
 384  -1081.316
 385  -961.8987
 386  -882.0906
 387  -666.2548
 388  -396.434
 389  -171.9638
 390  -243.9147
 391  -436.2203
 392  -401.0159
 393  -916.8631
 394  -743.8339
 395  -587.4124
 396  -360.3769
 397  -3.424223
 398  93.89031
 399  -326.0497
 400  -467.4834
 401  -318.7603
 402  -181.5355
 403  23.62478
 404  -240.4329
 405  135.5739
 406  316.6371
 407  71.05725
 408  187.1108
 409  219.9479
 410  -92.1281
 411  -536.4828
 412  -259.7593
 413  9.917561
 414  84.71991
 415  -96.43439
 416  -113.3783
 417  -312.1639
 418  -683.3944
 419  -170.7012
 420  -374.7872
 421  -160.614
 422  284.5702
 423  331.2274
 424  96.67772
 425  193.2215
 426  320.5193
 427  215.9992
 428  194.5915
 429  116.5577
 430  363.9072
 431  733.9395
 432  644.0101
 433  610.3984
 434  487.1184
 435  451.1535
 436  242.4804
 437  364.1994
 438  503.4619
 439  155.6546
 440  387.8767
 441  -4.406392
 442  -282.4519
 443  -246.2323
 444  330.3971
 445  393.8764
 446  58.24944
 447  98.18044
 448  65.41337
 449  -171.7073
 450  -287.8535
 451  -127.8243
 452  193.7663
 453  82.41241
 454  -39.12513
 455  -59.95654
 456  -243.7717
 457  -223.8921
 458  -123.3145
 459  -246.0348
 460  -345.439
 461  74.1804
 462  197.9038
 463  48.36373
 464  183.6614
 465  84.41546
 466  -230.1583
 467  -433.6098
 468  -131.7814
 469  -445.3856
 470  -122.7182
 471  -302.5129
 472  -64.62249
 473  86.48716
 474  268.3783
 475  385.9697
 476  311.6041
 477  331.4135
 478  658.6227
 479  779.5909
 480  841.4009
 481  1068.688
 482  1051.515
 483  785.1622
 484  768.006
 485  793.5742
 486  624.6309
 487  710.9312
 488  596.393
 489  477.8713
 490  268.0175
 491  296.4431
 492  272.942
 493  21.53684
 494  -65.77958
 495  -45.34145
 496  63.37504
 497  144.2482
 498  -23.45582
 499  -239.7405
 500  -282.5223
 501  -96.32104
 502  76.55486
 503  122.9135
 504  255.6609
 505  297.9057
 506  -7.678797
 507  -18.76736
 508  -31.24982
 509  -109.9502
 510  -40.28338
 511  179.4573
