# Input file       =  1206430175.134664-PSRB0329-2ms-sampling-dd.dat
# Candidate        =  PSR_0332+5434
# Telescope        =  AR
# Epoch_topo       =  58207.312432114166
# Epoch_bary       =  N/A
# T_sample         =  0.002
# Data Folded      =  7208960
# Data Avg         =  -1.19986327618405e-09
# Data StdDev      =  8.59570774624026 
# Profile Bins     =  512
# Profile Avg      =  0.0173866203435681
# Profile StdDev   =  1019.95959653094 
# Reduced chi-sqr  =  1.031
# Prob(Noise)      <  0.306   (~0.5 sigma)
# P_topo (ms)      =  714.570615109855  +/- 5.75e-05
# P'_topo (s/s)    =  -0                +/- 3.09e-11
# P''_topo (s/s^2) =  0                 +/- 1.39e-14
# P_bary (ms)      =  N/A
# P'_bary (s/s)    =  N/A
# P''_bary (s/s^2) =  N/A
# P_orb (s)        =  N/A
# asin(i)/c (s)    =  N/A
# eccentricity     =  N/A
# w (rad)          =  N/A
# T_peri           =  N/A
######################################################
   0  493.0362
   1  -355.9539
   2  -937.2598
   3  -459.1037
   4  88.16288
   5  -271.2086
   6  -82.14115
   7  84.13605
   8  576.8137
   9  70.19099
  10  102.8585
  11  577.8353
  12  1050.681
  13  938.6713
  14  -9.48227
  15  -202.7989
  16  351.4407
  17  244.9491
  18  -1049.503
  19  -1167.448
  20  -765.8636
  21  -777.613
  22  -1353.858
  23  -1181.198
  24  -453.7352
  25  -28.73604
  26  -227.445
  27  -263.2184
  28  -72.61916
  29  547.6998
  30  281.8402
  31  -91.11983
  32  -650.0681
  33  -260.4539
  34  -327.196
  35  -11.88171
  36  -296.9358
  37  91.488
  38  173.1395
  39  -829.5288
  40  -653.9545
  41  -152.0767
  42  -132.2014
  43  -670.3982
  44  -22.22296
  45  700.3431
  46  1375.551
  47  1459.787
  48  748.4716
  49  595.6071
  50  183.9696
  51  -595.0898
  52  -548.9491
  53  203.6407
  54  145.779
  55  -661.139
  56  -633.0682
  57  -303.8979
  58  -101.0558
  59  174.7579
  60  479.8655
  61  1478.447
  62  1196.688
  63  630.3706
  64  475.3586
  65  755.4212
  66  118.3789
  67  -46.66978
  68  -332.2117
  69  -399.0356
  70  349.9013
  71  85.118
  72  -337.7314
  73  -251.8764
  74  854.5815
  75  873.752
  76  771.6931
  77  1358.567
  78  1577.92
  79  1199.096
  80  796.4833
  81  918.9113
  82  824.3972
  83  383.3945
  84  -499.2641
  85  -664.8674
  86  70.80733
  87  109.503
  88  211.7658
  89  -548.7715
  90  -81.06446
  91  212.6226
  92  -156.1829
  93  -247.528
  94  107.6428
  95  715.3124
  96  448.8374
  97  222.3136
  98  -66.20513
  99  88.40968
 100  -86.94406
 101  -894.4409
 102  -981.252
 103  -573.8541
 104  -844.7707
 105  -882.644
 106  -740.8021
 107  237.9359
 108  -47.43322
 109  -275.9495
 110  -286.0145
 111  568.0891
 112  1137.626
 113  378.3285
 114  249.4605
 115  -371.7958
 116  -452.4647
 117  -1680.077
 118  -1321.969
 119  -1101.61
 120  -703.5607
 121  -733.2106
 122  -1413.02
 123  -909.6376
 124  -362.9023
 125  -392.0921
 126  -606.7225
 127  272.3514
 128  1000.365
 129  643.5898
 130  288.6383
 131  -127.648
 132  44.19963
 133  -223.426
 134  -653.4181
 135  -247.5111
 136  3.832361
 137  -177.809
 138  -745.4249
 139  -565.3486
 140  -320.2754
 141  373.7521
 142  421.6116
 143  650.793
 144  1546.431
 145  1274.419
 146  1456.412
 147  914.279
 148  662.4971
 149  103.5114
 150  -510.9002
 151  -816.0074
 152  -583.4818
 153  162.0035
 154  35.57734
 155  -76.24868
 156  500.6672
 157  224.1856
 158  420.8676
 159  480.4737
 160  1188.15
 161  1586.344
 162  1579.434
 163  941.7705
 164  808.456
 165  979.5032
 166  345.5197
 167  -649.0228
 168  -467.8838
 169  -301.639
 170  -3.502486
 171  181.4869
 172  443.3126
 173  468.3498
 174  777.5324
 175  253.4268
 176  565.2698
 177  977.8548
 178  1176.719
 179  725.3287
 180  975.2804
 181  1429.193
 182  585.7007
 183  48.40723
 184  -561.0303
 185  239.4516
 186  274.0919
 187  -344.1768
 188  -335.6388
 189  -132.4165
 190  280.0927
 191  -119.046
 192  210.3811
 193  511.1167
 194  1026.374
 195  939.4779
 196  217.8367
 197  278.2665
 198  -387.6762
 199  -384.6708
 200  -788.5839
 201  -615.3071
 202  -151.8642
 203  -368.8241
 204  -913.8517
 205  -1138.104
 206  -207.8957
 207  -100.4071
 208  -132.3537
 209  684.2847
 210  1145.64
 211  1222.448
 212  576.3658
 213  260.7484
 214  128.8449
 215  152.8512
 216  -459.2487
 217  -512.9879
 218  172.4529
 219  569.517
 220  72.20947
 221  -380.7128
 222  166.2258
 223  24.09708
 224  -50.76365
 225  330.2895
 226  1115.929
 227  1610.697
 228  1194.416
 229  699.6367
 230  620.4796
 231  694.9429
 232  131.9015
 233  -523.4157
 234  -533.053
 235  -55.32037
 236  197.3945
 237  -210.6691
 238  -111.3939
 239  137.6483
 240  -63.95809
 241  259.0596
 242  896.9129
 243  1416.002
 244  1818.414
 245  1601.167
 246  896.4083
 247  1070.844
 248  382.1117
 249  -90.03468
 250  -600.8821
 251  -194.8734
 252  280.9154
 253  408.8129
 254  424.1295
 255  385.7401
 256  489.6422
 257  637.6793
 258  591.6241
 259  1821.42
 260  2223.852
 261  1643.565
 262  961.3587
 263  887.3531
 264  1416.198
 265  705.7999
 266  751.6742
 267  564.2164
 268  850.0264
 269  570.3841
 270  217.4192
 271  305.7714
 272  269.0002
 273  -25.61769
 274  210.1988
 275  759.0794
 276  905.5093
 277  1453.471
 278  1560.266
 279  790.497
 280  507.5695
 281  831.4746
 282  873.8939
 283  1586.331
 284  2738.997
 285  3196.194
 286  2596.507
 287  1397.128
 288  639.8073
 289  370.0028
 290  306.6561
 291  642.356
 292  1143.872
 293  1743.438
 294  1124.243
 295  453.912
 296  478.1284
 297  317.0189
 298  133.168
 299  -503.7448
 300  -5.437251
 301  407.9891
 302  -208.3761
 303  -1005.431
 304  -1062.149
 305  -345.2333
 306  -416.192
 307  -257.3841
 308  214.7104
 309  584.5519
 310  718.6992
 311  573.5196
 312  420.207
 313  49.50362
 314  -265.1569
 315  -1032.919
 316  -1565.673
 317  -798.8608
 318  20.86048
 319  -32.42827
 320  -1057.191
 321  -855.6638
 322  -697.2164
 323  -961.307
 324  -512.4421
 325  197.0183
 326  962.3469
 327  360.9498
 328  268.2597
 329  -46.54459
 330  -349.382
 331  -1032.275
 332  -1903.63
 333  -1318.647
 334  -1060.732
 335  -804.8375
 336  -1213.324
 337  -1295.344
 338  -936.8042
 339  -1178.558
 340  -917.9933
 341  -565.3984
 342  242.2725
 343  -285.9697
 344  -442.0058
 345  -864.8481
 346  -555.1064
 347  -513.2679
 348  -803.5504
 349  -1129.765
 350  -1301.882
 351  -671.8956
 352  -897.3065
 353  -1138.464
 354  -626.0658
 355  -213.871
 356  -163.7226
 357  -738.8831
 358  -79.01485
 359  737.6448
 360  363.2086
 361  -112.2162
 362  -192.4065
 363  -369.4361
 364  -385.7485
 365  -1011.258
 366  -1286.54
 367  -1118.923
 368  -988.5173
 369  -1702.959
 370  -983.7879
 371  -340.5542
 372  -14.83911
 373  -253.8896
 374  278.252
 375  520.1716
 376  190.0437
 377  298.8983
 378  -343.7597
 379  -274.0583
 380  -412.398
 381  -272.2875
 382  -681.5702
 383  -638.8994
 384  -147.2337
 385  -820.4968
 386  -743.3442
 387  -756.6888
 388  -167.2373
 389  578.2518
 390  -51.22783
 391  797.1063
 392  1163.351
 393  915.7092
 394  590.7827
 395  547.858
 396  116.1553
 397  -323.8565
 398  -1064.592
 399  -1015.414
 400  -351.9655
 401  -585.5309
 402  -660.8563
 403  -1039.109
 404  -873.4136
 405  -1184.098
 406  -1148.5
 407  -190.7964
 408  840.9172
 409  958.6254
 410  242.718
 411  -168.6492
 412  -101.2213
 413  -392.0533
 414  -900.7222
 415  -1136.971
 416  -138.9873
 417  268.4101
 418  220.3673
 419  -698.5784
 420  -579.7675
 421  -242.0529
 422  -661.7761
 423  -274.7799
 424  223.4086
 425  1016.025
 426  935.6118
 427  144.248
 428  -309.763
 429  -94.03805
 430  38.93045
 431  -913.4806
 432  -1635.264
 433  -846.5637
 434  -636.1643
 435  -585.3217
 436  -92.31276
 437  350.2477
 438  238.304
 439  -590.2199
 440  -511.4355
 441  139.047
 442  764.7148
 443  14.66805
 444  64.38593
 445  -280.3848
 446  -782.4512
 447  -1209.093
 448  -1237.505
 449  -1109.434
 450  -1068.644
 451  -1297.25
 452  -1763.086
 453  -500.4592
 454  -139.0489
 455  -200.2227
 456  -241.622
 457  -289.9956
 458  591.1323
 459  292.0098
 460  194.8528
 461  -323.5683
 462  -5.534169
 463  -158.693
 464  -693.4815
 465  -493.158
 466  -678.9289
 467  -326.925
 468  -1456.128
 469  -1453.023
 470  -1085.505
 471  -839.0103
 472  -1445.989
 473  -1181.178
 474  -156.3508
 475  132.337
 476  46.05951
 477  -55.29858
 478  17.06212
 479  -412.1051
 480  -854.2855
 481  -1278.079
 482  -833.6892
 483  -518.2916
 484  -348.4951
 485  -840.1311
 486  -898.2444
 487  -584.4418
 488  -516.3152
 489  37.07488
 490  559.7993
 491  794.2377
 492  677.3082
 493  58.40048
 494  2.055146
 495  14.52019
 496  4.95515
 497  -257.2531
 498  -740.3883
 499  81.9617
 500  49.00285
 501  -356.3347
 502  -860.9828
 503  -73.79761
 504  8.066864
 505  -235.7039
 506  472.8071
 507  1008.757
 508  985.4739
 509  576.7044
 510  -4.66952
 511  361.6198
