# Input file       =  1206257845.112525-PSRB0329-2ms-sampling-dd.dat
# Candidate        =  PSR_0332+5434
# Telescope        =  AR
# Epoch_topo       =  58205.317871672742
# Epoch_bary       =  N/A
# T_sample         =  0.002
# Data Folded      =  7208960
# Data Avg         =  -8.44610497329207e-10
# Data StdDev      =  6.71553476183494 
# Profile Bins     =  512
# Profile Avg      =  -0.0134911206415014
# Profile StdDev   =  796.859819852138 
# Reduced chi-sqr  =  2.066
# Prob(Noise)      <  3.71e-40   (~13.2 sigma)
# P_topo (ms)      =  714.57171794646   +/- 2.27e-05
# P'_topo (s/s)    =  -0                +/- 1.22e-11
# P''_topo (s/s^2) =  0                 +/- 5.48e-15
# P_bary (ms)      =  N/A
# P'_bary (s/s)    =  N/A
# P''_bary (s/s^2) =  N/A
# P_orb (s)        =  N/A
# asin(i)/c (s)    =  N/A
# eccentricity     =  N/A
# w (rad)          =  N/A
# T_peri           =  N/A
######################################################
   0  370.3562
   1  -146.5212
   2  -823.1431
   3  -586.1618
   4  -534.6293
   5  -615.8976
   6  -185.0935
   7  656.8581
   8  1276.904
   9  870.4797
  10  382.1856
  11  -26.58778
  12  -365.183
  13  -360.1489
  14  -480.7839
  15  -2.322313
  16  291.9012
  17  -143.109
  18  -1211.407
  19  -1456.07
  20  -1383.889
  21  -924.2986
  22  -340.8392
  23  721.8774
  24  1628.097
  25  1233.409
  26  336.5568
  27  28.62317
  28  -257.2571
  29  -639.8427
  30  -453.408
  31  -154.8868
  32  290.1815
  33  536.2287
  34  294.6915
  35  -560.9025
  36  -695.3669
  37  -973.2225
  38  -849.1971
  39  -250.8091
  40  715.6712
  41  1851.216
  42  1882.331
  43  1116.303
  44  516.2268
  45  550.1051
  46  168.9595
  47  -303.1912
  48  32.83696
  49  808.5198
  50  1546.655
  51  1394.626
  52  1213.258
  53  736.1738
  54  719.9593
  55  435.2546
  56  876.9104
  57  1760.251
  58  1539.259
  59  801.1681
  60  168.5872
  61  -18.23259
  62  -268.5369
  63  -78.22765
  64  101.6777
  65  360.5558
  66  1084.554
  67  768.5286
  68  -207.4843
  69  -718.7585
  70  -1132.027
  71  -1131.768
  72  -403.8383
  73  863.9448
  74  1673.31
  75  1696.489
  76  1148.223
  77  1011.945
  78  334.2935
  79  -381.9503
  80  -1057.343
  81  -573.572
  82  211.9722
  83  327.96
  84  -340.2939
  85  -758.617
  86  -679.7494
  87  -678.667
  88  -610.2485
  89  224.9126
  90  1439.756
  91  1528.262
  92  1126.028
  93  483.0504
  94  -269.14
  95  -332.4072
  96  133.4576
  97  226.6579
  98  551.4573
  99  884.5439
 100  -170.3992
 101  -652.4516
 102  -903.8461
 103  -996.2104
 104  -372.4571
 105  191.7437
 106  938.1058
 107  1398.809
 108  1647.225
 109  984.3943
 110  357.853
 111  20.9146
 112  -694.7306
 113  -784.5145
 114  -451.1027
 115  325.6612
 116  205.166
 117  -501.3616
 118  -851.2286
 119  -874.127
 120  -1029.345
 121  -942.7576
 122  160.1052
 123  1141.649
 124  1585.339
 125  871.5056
 126  276.1185
 127  53.21657
 128  -218.6512
 129  -196.9145
 130  105.8277
 131  744.8104
 132  588.703
 133  89.41998
 134  -964.8329
 135  -1314.131
 136  -1124.304
 137  -932.5189
 138  -388.7379
 139  917.8616
 140  2221.391
 141  1871.59
 142  906.6818
 143  381.514
 144  -476.9189
 145  -648.6106
 146  -723.9583
 147  -336.2005
 148  558.3612
 149  710.1367
 150  78.76759
 151  -987.8065
 152  -1268.007
 153  -1294.45
 154  -1214.974
 155  112.5227
 156  1197.885
 157  1734.935
 158  1148.591
 159  586.2063
 160  66.46751
 161  -542.4221
 162  -1056.422
 163  -755.3077
 164  289.4904
 165  639.5775
 166  460.0693
 167  -187.9714
 168  -767.4564
 169  -1001.361
 170  -1020.669
 171  -160.5157
 172  1028.24
 173  2435.546
 174  2118.318
 175  1797.061
 176  904.1955
 177  212.0607
 178  -86.78468
 179  49.14972
 180  423.5767
 181  620.1043
 182  439.8904
 183  -567.3154
 184  -830.3363
 185  -930.3008
 186  -995.2205
 187  -555.6265
 188  186.5258
 189  887.1003
 190  1232.721
 191  1280.441
 192  784.5105
 193  238.8529
 194  -547.7843
 195  -715.6468
 196  -747.5276
 197  -422.3578
 198  621.077
 199  313.4814
 200  -946.6158
 201  -1388.282
 202  -1311.86
 203  -1052.092
 204  -599.2794
 205  907.1696
 206  1824.706
 207  1604.41
 208  863.7067
 209  45.97522
 210  -11.19501
 211  -212
 212  -499.34
 213  -462.8678
 214  137.142
 215  171.3293
 216  -754.7887
 217  -1504.739
 218  -1624.643
 219  -1273.373
 220  -1006.444
 221  -285.0322
 222  1058.531
 223  1208.532
 224  1299.192
 225  125.4418
 226  -292.3311
 227  -789.2047
 228  -1320.078
 229  -765.5233
 230  -358.8954
 231  190.8399
 232  -433.2321
 233  -639.3486
 234  -1121.013
 235  -1484.743
 236  -1240.983
 237  -847.491
 238  571.0429
 239  1867.417
 240  1738.14
 241  614.8845
 242  4.568471
 243  -125.4873
 244  -405.4392
 245  -843.5126
 246  -209.6683
 247  764.5034
 248  693.7689
 249  -172.6118
 250  -915.7043
 251  -1130.512
 252  -1219.929
 253  -1145.372
 254  -276.8052
 255  630.0752
 256  1178.642
 257  881.9117
 258  429.5236
 259  -105.0723
 260  -429.6297
 261  -703.7948
 262  -870.7586
 263  -388.7733
 264  238.1814
 265  -146.2504
 266  -816.7274
 267  -1395.024
 268  -1372.005
 269  -1170.376
 270  -420.3013
 271  528.8533
 272  1363.447
 273  1329.97
 274  477.7831
 275  255.1332
 276  -697.842
 277  -867.2269
 278  -614.6855
 279  -110.8407
 280  614.5472
 281  316.7722
 282  -582.6312
 283  -979.9684
 284  -1399.033
 285  -1719.435
 286  -1026.958
 287  -273.6709
 288  640.6208
 289  1392.796
 290  1060.729
 291  109.9175
 292  -181.8876
 293  -542.8755
 294  -977.676
 295  -1075.442
 296  -671.2731
 297  88.28748
 298  -222.2807
 299  -582.4709
 300  -860.3112
 301  -1170.176
 302  -1150.409
 303  -734.2783
 304  462.7341
 305  1132.62
 306  1226.042
 307  937.8659
 308  90.32289
 309  -186.1397
 310  -196.0864
 311  -609.1928
 312  -248.3121
 313  310.3451
 314  103.4972
 315  -552.3235
 316  -1429.77
 317  -1464.013
 318  -1281.116
 319  -1174.432
 320  -344.3239
 321  778.9188
 322  1518.808
 323  1179.664
 324  548.299
 325  -278.9332
 326  -496.7249
 327  -699.157
 328  -705.3904
 329  -219.4
 330  272.9802
 331  -44.01687
 332  -987.5195
 333  -767.3751
 334  -586.7687
 335  -780.0378
 336  -623.7598
 337  182.952
 338  1120.567
 339  975.6536
 340  338.0977
 341  208.0643
 342  -17.59356
 343  -309.1573
 344  -124.7862
 345  50.03027
 346  266.3003
 347  104.3187
 348  -800.5557
 349  -1224.641
 350  -1207.973
 351  -1229.843
 352  -824.4527
 353  -139.7083
 354  1054.178
 355  1946.073
 356  1094.002
 357  592.6209
 358  -6.020381
 359  -278.008
 360  -221.6088
 361  -427.9785
 362  32.51232
 363  505.1818
 364  -9.250054
 365  -845.66
 366  -981.1013
 367  -523.2656
 368  -395.9174
 369  -41.24536
 370  420.12
 371  1149.487
 372  1265.244
 373  1192.262
 374  886.7588
 375  1022.885
 376  519.2024
 377  -124.5969
 378  26.30058
 379  299.162
 380  322.1892
 381  -194.9494
 382  -852.142
 383  -1049.528
 384  -998.4028
 385  -428.1656
 386  247.9097
 387  922.1379
 388  1282.4
 389  1059.109
 390  565.3156
 391  200.3291
 392  -579.3916
 393  -686.9332
 394  -647.8614
 395  -247.9659
 396  425.5822
 397  246.6506
 398  -687.2534
 399  -1060.743
 400  -1333.466
 401  -1331.535
 402  -1153.751
 403  -145.1403
 404  1355.991
 405  1654.017
 406  747.9907
 407  156.8724
 408  -428.9576
 409  -569.0838
 410  -408.6184
 411  60.98907
 412  829.3754
 413  410.7714
 414  -170.0927
 415  -403.7101
 416  -754.685
 417  -863.0847
 418  -501.6826
 419  92.55347
 420  1321.907
 421  1736.591
 422  922.5435
 423  88.33745
 424  -250.0868
 425  -121.3105
 426  -297.1368
 427  -100.5298
 428  82.01343
 429  359.3351
 430  -283.2009
 431  -1269.842
 432  -1415.063
 433  -1092.479
 434  -1102.568
 435  -850.7493
 436  274.9742
 437  789.9373
 438  819.6838
 439  517.9756
 440  186.1865
 441  74.68652
 442  87.10361
 443  -56.41484
 444  -205.3712
 445  -269.9897
 446  -255.5008
 447  -678.4605
 448  -901.2477
 449  -527.4722
 450  -241.7448
 451  -519.9792
 452  367.8383
 453  1048.724
 454  1493.272
 455  961.1202
 456  266.637
 457  281.0944
 458  72.81046
 459  186.375
 460  -414.9974
 461  -23.83604
 462  650.0571
 463  335.7097
 464  -528.1547
 465  -1228.431
 466  -885.8809
 467  -794.5065
 468  -612.6189
 469  527.8221
 470  1136.279
 471  1341.056
 472  896.1116
 473  288.3696
 474  32.29257
 475  -198.1292
 476  -663.22
 477  -527.7677
 478  206.5321
 479  613.1793
 480  -89.40768
 481  -629.8154
 482  -764.0022
 483  -913.6355
 484  -824.2986
 485  17.06162
 486  1312.377
 487  1732.196
 488  1369.437
 489  272.9971
 490  -272.775
 491  -517.6916
 492  -474.257
 493  -483.3413
 494  261.2415
 495  316.5329
 496  -351.2831
 497  -969.5327
 498  -999.1292
 499  -983.4208
 500  -1306.963
 501  -208.646
 502  723.4056
 503  1438.299
 504  1348.629
 505  652.0472
 506  880.9138
 507  237.7222
 508  -66.2849
 509  -14.61319
 510  29.64348
 511  328.8325
