# Input file       =  1206100079.114177_cleaned.dat
# Candidate        =  PSR_0332+5434
# Telescope        =  AR
# Epoch_topo       =  58203.491876321496
# Epoch_bary       =  N/A
# T_sample         =  0.002
# Data Folded      =  7340032
# Data Avg         =  0.381469899940255
# Data StdDev      =  6.01723487246575 
# Profile Bins     =  256
# Profile Avg      =  10936.7344928321 
# Profile StdDev   =  1018.88685137983 
# Reduced chi-sqr  =  1.528
# Prob(Noise)      <  1.13e-07   (~5.2 sigma)
# P_topo (ms)      =  714.572698534987  +/- 0.000279
# P'_topo (s/s)    =  -0                +/- 1.47e-10
# P''_topo (s/s^2) =  0                 +/- 6.5e-14
# P_bary (ms)      =  N/A
# P'_bary (s/s)    =  N/A
# P''_bary (s/s^2) =  N/A
# P_orb (s)        =  N/A
# asin(i)/c (s)    =  N/A
# eccentricity     =  N/A
# w (rad)          =  N/A
# T_peri           =  N/A
######################################################
   0  11905.26
   1  11798.67
   2  11253.11
   3  11580.89
   4  12388.35
   5  12877.29
   6  11920.39
   7  10955.11
   8  11384
   9  11784.61
  10  11068.09
  11  11416.38
  12  11325.01
  13  10668.18
  14  11467.5
  15  11004.04
  16  10677
  17  9771.857
  18  10460.68
  19  10090.98
  20  10418.06
  21  9924.802
  22  9817.484
  23  9793.554
  24  9367.861
  25  9180.905
  26  9102.698
  27  8842.222
  28  8816.367
  29  9704.673
  30  9213.688
  31  9049.38
  32  9575.626
  33  8935.931
  34  9368.522
  35  9276.503
  36  9662.235
  37  10569.95
  38  10626.01
  39  11151.09
  40  11743.68
  41  10723.24
  42  11920.43
  43  12210.91
  44  11903.27
  45  11958.6
  46  12177.48
  47  11946.3
  48  11871.88
  49  11660.27
  50  11390.3
  51  11100.17
  52  10527.73
  53  10719.03
  54  9821.802
  55  10061.08
  56  10174.71
  57  10178.05
  58  9679.964
  59  9784.154
  60  9517.89
  61  9669.937
  62  10006.77
  63  9573.055
  64  8982.276
  65  9688.408
  66  9788.306
  67  9807.205
  68  10325.59
  69  10201.04
  70  9766.008
  71  10949.38
  72  10970.82
  73  10694.74
  74  11139.18
  75  11858.13
  76  11451.05
  77  11135.54
  78  10835.19
  79  10902.57
  80  11383.21
  81  11649.79
  82  11153.16
  83  12134.82
  84  11981.28
  85  11592.36
  86  10810.58
  87  11277.04
  88  11229.62
  89  10751.09
  90  9925.201
  91  10532.22
  92  10160.88
  93  9786.54
  94  8894.14
  95  8466.17
  96  9232.968
  97  9801.676
  98  9472.354
  99  8437.388
 100  8842.323
 101  9150.849
 102  8505.917
 103  9241.1
 104  8873.745
 105  9572.399
 106  10077.91
 107  10900.35
 108  10603.2
 109  10805.35
 110  10185.7
 111  10277.6
 112  10267.01
 113  10073.18
 114  10385.16
 115  10311.71
 116  9830.63
 117  10080.93
 118  9866.063
 119  9615.612
 120  10233.24
 121  11395.67
 122  11617.75
 123  11944.29
 124  12104.54
 125  11756.48
 126  11697.52
 127  11441.15
 128  10979.29
 129  11478.97
 130  10316.84
 131  10843.57
 132  10914.63
 133  10927.14
 134  9664.539
 135  9839.616
 136  10341.99
 137  10390.03
 138  10881.19
 139  11185.28
 140  10935.88
 141  10750.07
 142  11471.51
 143  10656.41
 144  10345.4
 145  11237.5
 146  11268.4
 147  12184.24
 148  12387.64
 149  12393.62
 150  13647.58
 151  15792.98
 152  16056.73
 153  13548.32
 154  12335.87
 155  12495.77
 156  11856.86
 157  11513.43
 158  11663.89
 159  11897.83
 160  12416.05
 161  11910.27
 162  10872.45
 163  11563.46
 164  11953.7
 165  11614.02
 166  10104.16
 167  9685.416
 168  9653.501
 169  10058.38
 170  10578
 171  10408.96
 172  11025.26
 173  9814.513
 174  10985.78
 175  11596.2
 176  11182.19
 177  11600.02
 178  11351.96
 179  11360.7
 180  11777.94
 181  11969.55
 182  11953.87
 183  11747.63
 184  12015.23
 185  12345.73
 186  12377.13
 187  11841.89
 188  11573.31
 189  12308.14
 190  12094.5
 191  11523.59
 192  11672.13
 193  12398.52
 194  11483.48
 195  12092.94
 196  12050.97
 197  11931.86
 198  11602.88
 199  11539.75
 200  11221.65
 201  10535.14
 202  10819.43
 203  10234.84
 204  9906.759
 205  10566.14
 206  9924.259
 207  10621.88
 208  10987.73
 209  10296.87
 210  10519.75
 211  11630.57
 212  11457.62
 213  11528.49
 214  11899.51
 215  11424.68
 216  10944.44
 217  10527.66
 218  11018.49
 219  10700.55
 220  10970.44
 221  11590.97
 222  11354.16
 223  11587.52
 224  12227.75
 225  12406.41
 226  12427.34
 227  11969.04
 228  12425.58
 229  12886.36
 230  12428.83
 231  11594.55
 232  12220.48
 233  12697.74
 234  11945.26
 235  11274.98
 236  11104.44
 237  10469.09
 238  10805.31
 239  10057.86
 240  10474.63
 241  10647.2
 242  9920.061
 243  9961.15
 244  10376.36
 245  10767.48
 246  10462.87
 247  10449.11
 248  11137.89
 249  11148.05
 250  11604.05
 251  11340.86
 252  11382.81
 253  11038.12
 254  11126.85
 255  11175.96
