# Input file       =  1206171627.119370-PSRB0329-2ms-sampling-dd.dat
# Candidate        =  PSR_0332+5434
# Telescope        =  AR
# Epoch_topo       =  58204.319978233449
# Epoch_bary       =  N/A
# T_sample         =  0.002
# Data Folded      =  7208960
# Data Avg         =  3.53134063181686e-10
# Data StdDev      =  8.64867023044312 
# Profile Bins     =  512
# Profile Avg      =  1.14882881339707 
# Profile StdDev   =  1026.24408125443 
# Reduced chi-sqr  =  1.890
# Prob(Noise)      <  2.09e-30   (~11.4 sigma)
# P_topo (ms)      =  714.572250675113  +/- 1.78e-05
# P'_topo (s/s)    =  -0                +/- 9.58e-12
# P''_topo (s/s^2) =  0                 +/- 4.31e-15
# P_bary (ms)      =  N/A
# P'_bary (s/s)    =  N/A
# P''_bary (s/s^2) =  N/A
# P_orb (s)        =  N/A
# asin(i)/c (s)    =  N/A
# eccentricity     =  N/A
# w (rad)          =  N/A
# T_peri           =  N/A
######################################################
   0  1398.392
   1  105.6949
   2  -1763.677
   3  -913.5695
   4  -248.2412
   5  137.4743
   6  -325.7648
   7  721.2689
   8  589.093
   9  -751.5034
  10  -1924.495
  11  -2099.987
  12  -571.8668
  13  -9.927616
  14  244.1976
  15  1215.139
  16  1560.241
  17  707.135
  18  -624.0165
  19  -1379.767
  20  -749.808
  21  80.27525
  22  323.3407
  23  778.0774
  24  980.1193
  25  400.3523
  26  -1378.49
  27  -2062.089
  28  -1184.312
  29  -462.1095
  30  -241.3347
  31  912.9174
  32  1641.745
  33  2031.41
  34  622.1147
  35  -875.3563
  36  -1101.446
  37  -448.1739
  38  -197.0378
  39  -339.1692
  40  730.7107
  41  948.3197
  42  -144.6584
  43  -1631.89
  44  -1410.741
  45  -222.048
  46  2.618686
  47  279.1077
  48  1081.729
  49  1308.966
  50  356.9369
  51  -1229.262
  52  -1375.726
  53  -546.965
  54  372.9857
  55  69.20133
  56  620.4694
  57  1024.097
  58  103.6541
  59  -1203.217
  60  -2263.899
  61  -1305.567
  62  38.76857
  63  483.0479
  64  557.0297
  65  1035.382
  66  736.7297
  67  75.9422
  68  -885.0946
  69  -631.2957
  70  313.7618
  71  -226.0894
  72  -400.1811
  73  318.342
  74  567.247
  75  37.65607
  76  -1799.911
  77  -1395.399
  78  -515.2037
  79  -104.3401
  80  -28.75981
  81  835.8167
  82  1113.91
  83  201.3934
  84  -993.9781
  85  -1247.079
  86  -355.6965
  87  425.0164
  88  626.8978
  89  728.4409
  90  1191.229
  91  131.7191
  92  -1905.152
  93  -2611.375
  94  -1370.453
  95  -55.42994
  96  722.7098
  97  1773.893
  98  2136.441
  99  1208.987
 100  -767.9451
 101  -1828.444
 102  -1563.493
 103  -741.164
 104  30.91906
 105  -250.3348
 106  826.9774
 107  810.5078
 108  -132.5541
 109  -1361.088
 110  -2084.983
 111  -970.9128
 112  41.12602
 113  316.9854
 114  1062.381
 115  1517.167
 116  817.9749
 117  -378.5157
 118  -1418.845
 119  -709.3235
 120  527.049
 121  188.6347
 122  575.993
 123  1546.904
 124  705.7447
 125  -1225.607
 126  -1885.633
 127  -916.0515
 128  379.1382
 129  724.8776
 130  1221.968
 131  2079.948
 132  1702.078
 133  58.52549
 134  -781.3725
 135  -1247.594
 136  -32.60196
 137  174.437
 138  192.0048
 139  809.3937
 140  999.9812
 141  251.2959
 142  -1161.039
 143  -1129.681
 144  -43.10379
 145  4.751783
 146  326.7701
 147  708.072
 148  1335.87
 149  851.5099
 150  -537.0219
 151  -684.13
 152  5.893243
 153  771.1319
 154  768.2719
 155  452.0016
 156  851.6703
 157  517.6676
 158  -1307.57
 159  -2123.37
 160  -1259.683
 161  430.9129
 162  399.8456
 163  846.7687
 164  2041.556
 165  1582.113
 166  574.3488
 167  -1429.762
 168  -1188.207
 169  -806.2266
 170  -264.4669
 171  179.2029
 172  967.0686
 173  1250.332
 174  -93.10663
 175  -1559.051
 176  -1828.441
 177  -1187.031
 178  -407.2848
 179  -96.60971
 180  1008.253
 181  1390.434
 182  485.5225
 183  -1132.537
 184  -1784.77
 185  -786.2828
 186  -113.2443
 187  170.3088
 188  255.6692
 189  580.847
 190  83.75568
 191  -1272.136
 192  -2460.705
 193  -1779.907
 194  -191.2874
 195  203.2347
 196  879.3833
 197  1520.739
 198  1660.594
 199  -659.7144
 200  -1913.816
 201  -1634.501
 202  -780.6436
 203  93.92078
 204  52.37462
 205  597.3912
 206  744.6992
 207  -621.1796
 208  -2140.739
 209  -2482.679
 210  -1435.735
 211  -316.9739
 212  191.7443
 213  1344.257
 214  1861.257
 215  1167.652
 216  -348.676
 217  -818.4253
 218  -618.3489
 219  -237.0438
 220  -277.3291
 221  -16.57239
 222  1252.569
 223  692.7702
 224  -692.7386
 225  -2122.978
 226  -1627.518
 227  -465.1715
 228  61.67882
 229  613.8361
 230  1331.591
 231  1268.452
 232  475.4941
 233  -595.6566
 234  -936.0437
 235  492.4716
 236  887.0663
 237  939.8018
 238  466.1047
 239  787.9712
 240  -7.360017
 241  -1700.337
 242  -1809.337
 243  -1126.996
 244  34.08661
 245  290.2429
 246  1469.814
 247  2371.039
 248  1574.76
 249  39.69214
 250  -1539.307
 251  -779.9586
 252  -413.4872
 253  -719.0064
 254  79.75076
 255  1128.186
 256  848.5532
 257  -459.0376
 258  -1903.973
 259  -1434.9
 260  -463.7262
 261  -323.9431
 262  398.4652
 263  1593.115
 264  1432.208
 265  296.3348
 266  -1180.62
 267  -1222.578
 268  67.94908
 269  771.3094
 270  416.5861
 271  578.1581
 272  1010.157
 273  328.0264
 274  -1937.745
 275  -1865.228
 276  -540.7485
 277  576.3467
 278  927.5734
 279  1466.261
 280  2053.992
 281  1623.704
 282  -377.9754
 283  -1430.333
 284  -841.1192
 285  -255.2445
 286  -344.719
 287  421.6154
 288  1203.094
 289  629.8973
 290  -1327.779
 291  -1939.938
 292  -1348.765
 293  -255.8371
 294  -67.99419
 295  100.9512
 296  1064.139
 297  1271.284
 298  669.9386
 299  -559.3844
 300  -1083.744
 301  -445.5092
 302  523.8232
 303  524.3548
 304  1003.037
 305  1141.859
 306  54.69934
 307  -1464.164
 308  -1348.358
 309  -478.9425
 310  460.5745
 311  949.4991
 312  757.2081
 313  1975.325
 314  1404.99
 315  334.6777
 316  -522.1379
 317  -208.834
 318  716.4575
 319  194.8749
 320  641.2418
 321  1218.804
 322  747.0076
 323  -494.0478
 324  -1779.245
 325  -1599.261
 326  -644.2644
 327  -289.8748
 328  372.6973
 329  1700.496
 330  1898.398
 331  926.4796
 332  -869.9373
 333  -1034.794
 334  -346.716
 335  -330.7443
 336  -70.28529
 337  668.3585
 338  1074.261
 339  307.8583
 340  -747.6938
 341  -1691.619
 342  -721.2064
 343  207.0589
 344  335.7798
 345  1377.521
 346  1777.734
 347  1335.13
 348  -432.6475
 349  -1349.63
 350  -1031.369
 351  272.3923
 352  261.2052
 353  -255.9855
 354  629.0902
 355  402.2571
 356  -982.8344
 357  -1919.564
 358  -1488.827
 359  -421.8337
 360  -316.8122
 361  277.8953
 362  1596.851
 363  1563.211
 364  817.8961
 365  -895.5458
 366  -1259.16
 367  -433.025
 368  -158.061
 369  -27.56849
 370  349.317
 371  761.833
 372  189.9814
 373  -943.1986
 374  -727.14
 375  178.8
 376  494.9175
 377  502.6172
 378  1520.846
 379  1527.771
 380  1081.057
 381  561.0024
 382  -776.17
 383  -920.4251
 384  -329.3146
 385  -157.9263
 386  6.811076
 387  1166.7
 388  1438.653
 389  49.03986
 390  -1730.828
 391  -1559.806
 392  -846.6252
 393  59.08855
 394  358.0363
 395  1164.1
 396  1414.269
 397  208.5203
 398  -717.001
 399  -741.5992
 400  -175.0829
 401  -215.0517
 402  -468.4738
 403  328.2897
 404  1298.657
 405  208.2164
 406  -1019.626
 407  -1240.277
 408  -606.3741
 409  -294.3038
 410  305.4615
 411  1396.826
 412  1730.808
 413  661.8729
 414  -301.8894
 415  -1257.824
 416  -493.9387
 417  147.2385
 418  440.5885
 419  46.89093
 420  834.4453
 421  809.3979
 422  -818.3785
 423  -1754.866
 424  -1463.536
 425  -733.3514
 426  -126.9461
 427  354.6846
 428  1305.136
 429  1589.098
 430  447.2756
 431  -750.4383
 432  -1336.313
 433  -425.4709
 434  -49.00549
 435  -425.6196
 436  -80.10709
 437  561.3197
 438  580.6974
 439  -948.6136
 440  -1262.656
 441  -511.5988
 442  -106.3713
 443  207.138
 444  1411.624
 445  1937.89
 446  1487.616
 447  298.7696
 448  -343.7001
 449  239.7021
 450  2319.567
 451  2310.04
 452  2715.459
 453  2463.597
 454  1912.146
 455  -259.9303
 456  -1877.877
 457  -1052.891
 458  -84.49262
 459  302.0693
 460  315.538
 461  1281.518
 462  1673.455
 463  572.9749
 464  -550.4645
 465  -605.7043
 466  18.85615
 467  -218.1642
 468  -550.7585
 469  218.4167
 470  852.4007
 471  334.8591
 472  -983.096
 473  -1340.21
 474  -734.5344
 475  -102.4363
 476  135.3213
 477  781.3958
 478  1069.852
 479  802.2987
 480  -136.1434
 481  -1270.349
 482  -518.0107
 483  332.0274
 484  426.8017
 485  283.9883
 486  1182.551
 487  873.6448
 488  -1072.467
 489  -2118.949
 490  -1091.323
 491  233.9856
 492  775.845
 493  401.0443
 494  919.1818
 495  1326.334
 496  578.6141
 497  -767.392
 498  -1205.368
 499  -221.6223
 500  371.369
 501  155.654
 502  394.1825
 503  1143.734
 504  604.4968
 505  -660.971
 506  -1446.882
 507  -1408.673
 508  -426.7163
 509  79.57688
 510  1018.205
 511  1822.246
