# Input file       =  1206373540.109420-PSRB0329-2ms-sampling-dd.dat
# Candidate        =  PSR_0332+5434
# Telescope        =  AR
# Epoch_topo       =  58206.656934136809
# Epoch_bary       =  N/A
# T_sample         =  0.002
# Data Folded      =  7340032
# Data Avg         =  -3.01631576021905e-09
# Data StdDev      =  159.203253336186 
# Profile Bins     =  512
# Profile Avg      =  0.190059994215671
# Profile StdDev   =  19061.8889230011 
# Reduced chi-sqr  =  1.145
# Prob(Noise)      <  0.0129   (~2.2 sigma)
# P_topo (ms)      =  714.571337429856  +/- 0.000347
# P'_topo (s/s)    =  -0                +/- 1.83e-10
# P''_topo (s/s^2) =  0                 +/- 8.09e-14
# P_bary (ms)      =  N/A
# P'_bary (s/s)    =  N/A
# P''_bary (s/s^2) =  N/A
# P_orb (s)        =  N/A
# asin(i)/c (s)    =  N/A
# eccentricity     =  N/A
# w (rad)          =  N/A
# T_peri           =  N/A
######################################################
   0  -3486.803
   1  -3202.454
   2  -3040.894
   3  -2477.624
   4  -2355.598
   5  -2923.001
   6  -3464.146
   7  -3582.476
   8  -4776.564
   9  -4173.436
  10  -6593.24
  11  -7926.38
  12  -8462.106
  13  -8753.354
  14  -7273.371
  15  -6715.775
  16  -5598.565
  17  -5914.904
  18  -5934.781
  19  -4215.023
  20  -4114.818
  21  -4131.53
  22  -3873.421
  23  -4427.139
  24  -4398.261
  25  -3595.687
  26  -1819.775
  27  -3402.209
  28  -4790.885
  29  -5040.726
  30  -4247.954
  31  -4434.231
  32  -4479.147
  33  -3544.661
  34  -4403.376
  35  -3467.048
  36  -1789.96
  37  -1034.492
  38  -2572.971
  39  -3226.891
  40  -3046.186
  41  -1517.789
  42  422.6462
  43  -1888.347
  44  -3079.831
  45  -6005.721
  46  -5890.119
  47  -5143.368
  48  -5038.286
  49  -6176.679
  50  -7011.934
  51  -5321.901
  52  -4301.535
  53  -3518.086
  54  -3784.1
  55  -4659.061
  56  -4929.147
  57  -4388.621
  58  -4861.16
  59  -5754.19
  60  -4487.746
  61  -1607.441
  62  2693.693
  63  9945.261
  64  18978.87
  65  33755.8
  66  29109.33
  67  33459.57
  68  52709.34
  69  45375.64
  70  67550.81
  71  110619
  72  133742.9
  73  124443.7
  74  108887.3
  75  55049.2
  76  16761.6
  77  -5786.122
  78  -3584.647
  79  -6574.965
  80  -5486.861
  81  -2552.869
  82  -3640.839
  83  -2678.914
  84  -1537.543
  85  -4317.527
  86  -4297.559
  87  -4340.112
  88  -5590.433
  89  -5831.547
  90  -5791.486
  91  -6407.713
  92  -4677.91
  93  -3625.996
  94  -2446.257
  95  -2890.5
  96  -5377.173
  97  -6758.901
  98  -5063.023
  99  -4801.497
 100  -3624.918
 101  -2695.129
 102  -4423.067
 103  -4513.844
 104  -5496.709
 105  -6616.319
 106  -7179.55
 107  -5693.385
 108  -4533.192
 109  -5272.028
 110  -5858.147
 111  -3906.62
 112  -3388.065
 113  -2214.088
 114  46.76216
 115  -1819.973
 116  -4054.845
 117  -5656.288
 118  -5019.255
 119  -4138.688
 120  -3702.903
 121  -2285.444
 122  -1853.221
 123  -3080.46
 124  -4467.872
 125  -5082.066
 126  -5538.47
 127  -5674.138
 128  -4519.472
 129  -4548.237
 130  -4326.674
 131  -3950.527
 132  -3845.516
 133  -2528.391
 134  -1968.184
 135  1060.58
 136  1634.075
 137  2467.073
 138  178.3986
 139  -1137.564
 140  -109.854
 141  3290.853
 142  3343.073
 143  3587.076
 144  1168.24
 145  -158.5826
 146  -1138.839
 147  967.9977
 148  3215.715
 149  5147.369
 150  5753.338
 151  8167.439
 152  10114.93
 153  2764.371
 154  -598.2518
 155  5162.745
 156  12330.27
 157  17805.94
 158  24267.07
 159  15455.58
 160  5809.655
 161  -759.3167
 162  2977.609
 163  829.527
 164  895.3198
 165  411.9118
 166  -1949.759
 167  -1396.009
 168  -707.0265
 169  -636.4005
 170  -2239.577
 171  -1866.607
 172  -2791.815
 173  -1777.611
 174  -2765.893
 175  -2364.993
 176  -363.0262
 177  1156.848
 178  1411.099
 179  -1442.155
 180  -1836.788
 181  -2317.282
 182  -2604.487
 183  -1951.305
 184  -2124.952
 185  -3627.063
 186  -4430.177
 187  -5031.314
 188  -4983.663
 189  -5944.506
 190  -5868.807
 191  -6188.378
 192  -7395.762
 193  -7002.146
 194  -4798.132
 195  -3854.71
 196  -2654.484
 197  -667.7089
 198  162.5044
 199  -620.8394
 200  -470.5026
 201  -1484.375
 202  -2890.452
 203  -4506.929
 204  -4307.396
 205  -2990.604
 206  -2270.415
 207  -2386.661
 208  -3294.145
 209  -4517.071
 210  -4859.628
 211  -5495.938
 212  -4878.519
 213  -5887.771
 214  -6771.895
 215  -6590.512
 216  -6647.263
 217  -6412.648
 218  -5191.176
 219  -4931.416
 220  -4919.414
 221  -4827.959
 222  -4344.716
 223  -3905.7
 224  -4160.815
 225  -4440.431
 226  -4742.677
 227  -5594.399
 228  -6448.558
 229  -5791.166
 230  -4429.058
 231  -1514.232
 232  5739.991
 233  11843.71
 234  17540.81
 235  20306.05
 236  10026.81
 237  3922.899
 238  23980.44
 239  50662.44
 240  68347.55
 241  84643.01
 242  58710.93
 243  32181.25
 244  302.5131
 245  -6435.494
 246  -6788.372
 247  -7287.748
 248  -7073.072
 249  -7083.321
 250  -7231.727
 251  -6456.488
 252  -6909.633
 253  -5946.789
 254  -4941.925
 255  -4357.843
 256  -3055.764
 257  -2993.302
 258  -3094.022
 259  -4046.319
 260  -3530.65
 261  -3765.644
 262  -3878.854
 263  -4161.611
 264  -4877.659
 265  -4190.484
 266  -4077.156
 267  -3934.113
 268  -5458.528
 269  -6839.604
 270  -6771.077
 271  -5703.814
 272  -6048.473
 273  -6482.957
 274  -6125.52
 275  -5358.257
 276  -5168.15
 277  -4462.167
 278  -4243.258
 279  -4005.224
 280  -3532.328
 281  -4353.676
 282  -4485.946
 283  -4144.92
 284  -3391.117
 285  -4750.964
 286  -5750.829
 287  -4624.445
 288  -3155.624
 289  -2401.116
 290  -2010.323
 291  -3361.524
 292  -4381.848
 293  -7175.639
 294  -7836.067
 295  -7524.704
 296  -5651.819
 297  -4647.443
 298  -4252.022
 299  -4109.026
 300  -5516.585
 301  -5970.933
 302  -6420.222
 303  -6563.61
 304  -5173.266
 305  -4194.084
 306  -3303.422
 307  -4143.858
 308  -4811.635
 309  -5314.837
 310  -6783.417
 311  -6392.924
 312  -4791.741
 313  -2784.8
 314  -3726.621
 315  -4988.676
 316  -5377.687
 317  -3571.85
 318  -2174.846
 319  -263.1439
 320  1203.366
 321  -1095.134
 322  -3392.212
 323  -3053.075
 324  -1745.531
 325  1226.007
 326  -114.9563
 327  22.68332
 328  1139.336
 329  6661.294
 330  8102.668
 331  8403.919
 332  2258.173
 333  -2470.072
 334  -5960.652
 335  -6145.854
 336  -5241.56
 337  -3417.271
 338  825.3168
 339  1552.947
 340  3403.825
 341  2665.456
 342  -735.4515
 343  -2404.358
 344  -4307.244
 345  -4939.179
 346  -2862.241
 347  -460.2353
 348  -586.0529
 349  -1583.15
 350  -4007.84
 351  -4507.878
 352  -5688.525
 353  -5780.029
 354  -5772.322
 355  -6558.309
 356  -5294.128
 357  -5882.597
 358  -5144.823
 359  -4821.729
 360  -4670.976
 361  -4740.165
 362  -4597.236
 363  -5853.013
 364  -7060.867
 365  -5431.931
 366  -4358.805
 367  -3278.265
 368  -4706.999
 369  -6320.952
 370  -7061.414
 371  -7580.529
 372  -7324.982
 373  -7780.062
 374  -7811.821
 375  -8495.288
 376  -6660.474
 377  -6168.143
 378  -6403.562
 379  -6369.777
 380  -6018.882
 381  -4945.007
 382  -5357.504
 383  -5950.027
 384  -5201.355
 385  -5718.59
 386  -6020.572
 387  -4753.609
 388  -4996.086
 389  -4174.618
 390  -4327.464
 391  -4029.687
 392  -6127.281
 393  -7730.373
 394  -6768.681
 395  -3789.151
 396  -1127.021
 397  4172.198
 398  7681.516
 399  9808.35
 400  10042.74
 401  -926.2996
 402  4571.621
 403  22653.2
 404  41676
 405  49073.53
 406  52923.53
 407  17552.25
 408  4272.664
 409  -3925.787
 410  -631.223
 411  406.1057
 412  -346.4603
 413  263.6565
 414  -3357.126
 415  -2042.78
 416  -2501.34
 417  -2344.697
 418  -632.5729
 419  562.7078
 420  -123.8054
 421  -835.5249
 422  -2266.598
 423  -447.926
 424  -1603.254
 425  -2264.778
 426  -3042.944
 427  -3400.913
 428  -5887.849
 429  -4613.884
 430  -3505.299
 431  -3119.824
 432  -3037.982
 433  -3496.908
 434  -1173.899
 435  -939.2711
 436  292.0218
 437  1026.924
 438  2755.921
 439  3377.355
 440  5044.046
 441  2717.366
 442  3511.939
 443  3163.172
 444  3903.244
 445  3748.763
 446  3283.907
 447  1294.39
 448  -1348.82
 449  -1933.384
 450  -2449.436
 451  -3147.696
 452  -2318.519
 453  -3185.745
 454  -2344.935
 455  -3482.921
 456  -4291.911
 457  -6501.562
 458  -5350.845
 459  -4601.228
 460  -5824.607
 461  -3792.47
 462  -2798.209
 463  -1922.358
 464  -3904.826
 465  -523.7726
 466  927.7305
 467  249.0576
 468  1223.831
 469  -453.6483
 470  -2032.183
 471  -5155.683
 472  -4107.703
 473  -3007.509
 474  -5294.329
 475  -5090.673
 476  -4820.193
 477  -4203.309
 478  -2715.104
 479  -1600.81
 480  -1065.183
 481  -2958.275
 482  -4577.229
 483  -5310.357
 484  -6798.209
 485  -6466.291
 486  -5151.985
 487  -3387.336
 488  -5180.781
 489  -5693.419
 490  -4691.836
 491  -5183.642
 492  -5638.127
 493  -4976.909
 494  -2157.632
 495  211.0545
 496  -1229.462
 497  153.9729
 498  -2157.37
 499  -1707.276
 500  1423.84
 501  5098.796
 502  6360.019
 503  5796.075
 504  -657.4789
 505  -2409.107
 506  -5026.429
 507  -4128.421
 508  -4610.645
 509  -4282.074
 510  -4698.474
 511  -3169.011
