# Input file       =  1206028808.107821_cleaned.dat
# Candidate        =  PSR_0332+5434
# Telescope        =  AR
# Epoch_topo       =  58202.666980414593
# Epoch_bary       =  N/A
# T_sample         =  0.002
# Data Folded      =  7340032
# Data Avg         =  0.0306303296365539
# Data StdDev      =  1.00004814754941 
# Profile Bins     =  512
# Profile Avg      =  439.051111984579 
# Profile StdDev   =  119.738801229051 
# Reduced chi-sqr  =  1.384
# Prob(Noise)      <  1.72e-08   (~5.5 sigma)
# P_topo (ms)      =  714.573453609024  +/- 0.000336
# P'_topo (s/s)    =  -0                +/- 1.77e-10
# P''_topo (s/s^2) =  0                 +/- 7.83e-14
# P_bary (ms)      =  N/A
# P'_bary (s/s)    =  N/A
# P''_bary (s/s^2) =  N/A
# P_orb (s)        =  N/A
# asin(i)/c (s)    =  N/A
# eccentricity     =  N/A
# w (rad)          =  N/A
# T_peri           =  N/A
######################################################
   0  1110.898
   1  1049.52
   2  816.2054
   3  552.6762
   4  601.7926
   5  581.1989
   6  505.8195
   7  546.1713
   8  559.0267
   9  518.6084
  10  403.5504
  11  449.4565
  12  487.8377
  13  549.8008
  14  540.7172
  15  531.0104
  16  501.04
  17  422.0669
  18  450.169
  19  430.1922
  20  465.2867
  21  451.3185
  22  465.1637
  23  532.8469
  24  490.8615
  25  462.9849
  26  540.5582
  27  526.6205
  28  436.3745
  29  449.6812
  30  497.3677
  31  533.4332
  32  493.3186
  33  465.891
  34  414.215
  35  497.7093
  36  485.6615
  37  427.9268
  38  435.0831
  39  500.9185
  40  500.6967
  41  531.8496
  42  546.9954
  43  424.5541
  44  425.0698
  45  534.6494
  46  449.7845
  47  569.5276
  48  485.9301
  49  380.0219
  50  411.7882
  51  531.2896
  52  554.2375
  53  438.9541
  54  513.4214
  55  570.1011
  56  477.4749
  57  409.7884
  58  557.5443
  59  491.449
  60  367.5784
  61  455.6905
  62  409.852
  63  383.118
  64  417.3599
  65  326.9379
  66  367.3582
  67  390.819
  68  461.0773
  69  501.013
  70  422.6493
  71  480.7537
  72  431.9289
  73  344.1585
  74  453.9539
  75  547.8304
  76  432.829
  77  444.8347
  78  406.5498
  79  457.7293
  80  497.5988
  81  423.7103
  82  503.305
  83  459.5362
  84  503.8549
  85  435.5049
  86  534.9783
  87  524.5311
  88  463.3579
  89  347.6561
  90  334.8887
  91  402.6618
  92  507.3667
  93  587.7274
  94  601.6494
  95  548.7767
  96  531.1958
  97  543.2926
  98  494.202
  99  344.7637
 100  437.5097
 101  533.526
 102  514.3715
 103  366.1342
 104  351.9594
 105  381.0561
 106  397.1154
 107  385.4772
 108  444.0848
 109  403.3871
 110  460.1341
 111  379.6029
 112  420.1127
 113  431.4333
 114  497.4561
 115  531.9169
 116  420.7807
 117  540.7578
 118  421.8118
 119  424.1909
 120  535.9427
 121  477.3942
 122  402.197
 123  301.3807
 124  307.5992
 125  354.8139
 126  414.3293
 127  361.6031
 128  401.2214
 129  424.5435
 130  424.9591
 131  352.9318
 132  348.4965
 133  444.2422
 134  580.7122
 135  481.3628
 136  502.149
 137  485.4193
 138  435.929
 139  393.2387
 140  464.3572
 141  428.9448
 142  514.8107
 143  611.0842
 144  480.9771
 145  274.9101
 146  214.3217
 147  277.8315
 148  351.4051
 149  407.5783
 150  327.876
 151  387.0239
 152  397.0265
 153  472.7691
 154  406.114
 155  499.5281
 156  455.2543
 157  401.3379
 158  396.6413
 159  269.3796
 160  235.6676
 161  247.5007
 162  317.5688
 163  301.5191
 164  334.961
 165  408.6513
 166  376.6009
 167  473.3357
 168  446.2264
 169  279.2546
 170  299.1392
 171  451.1619
 172  444.7074
 173  421.0812
 174  410.1376
 175  418.2235
 176  380.7435
 177  513.8439
 178  468.7235
 179  515.4011
 180  507.9766
 181  370.7572
 182  398.2365
 183  476.2303
 184  512.8734
 185  444.1207
 186  308.613
 187  353.5462
 188  419.1974
 189  484.334
 190  382.5797
 191  346.6003
 192  321.0981
 193  450.4318
 194  551.422
 195  439.7474
 196  370.9487
 197  364.0552
 198  414.4533
 199  308.4245
 200  263.0515
 201  244.1563
 202  292.86
 203  401.9505
 204  486.8451
 205  433.1775
 206  394.4452
 207  435.9003
 208  343.5746
 209  463.1231
 210  415.272
 211  298.1191
 212  360.6962
 213  440.0419
 214  406.0505
 215  395.4194
 216  433.2747
 217  427.2331
 218  423.3487
 219  450.202
 220  533.2949
 221  514.2445
 222  442.3692
 223  457.8496
 224  392.248
 225  431.2033
 226  512.6
 227  497.7047
 228  469.7323
 229  539.2434
 230  526.4052
 231  346.2633
 232  384.8345
 233  537.0292
 234  503.6051
 235  458.636
 236  449.281
 237  455.6557
 238  475.851
 239  423.5122
 240  411.3682
 241  333.8312
 242  424.3589
 243  427.5731
 244  410.1698
 245  331.9789
 246  426.536
 247  448.1783
 248  388.156
 249  391.0402
 250  455.0032
 251  421.1701
 252  412.5656
 253  335.7603
 254  183.1903
 255  317.8107
 256  351.6599
 257  319.4817
 258  255.2125
 259  335.4184
 260  427.5829
 261  456.3448
 262  431.73
 263  443.7913
 264  471.0383
 265  321.0282
 266  355.0234
 267  559.829
 268  568.1801
 269  482.364
 270  488.3935
 271  510.0793
 272  416.6089
 273  460.9127
 274  503.5013
 275  361.9881
 276  362.2865
 277  554.858
 278  359.0367
 279  262.8746
 280  326.828
 281  287.7565
 282  422.4255
 283  500.0473
 284  422.8435
 285  415.8199
 286  389.3592
 287  386.4815
 288  417.9622
 289  418.1646
 290  411.0146
 291  368.2838
 292  419.7423
 293  391.3438
 294  352.0549
 295  493.5872
 296  482.4423
 297  439.4667
 298  460.7296
 299  307.1955
 300  162.4165
 301  295.1053
 302  401.5666
 303  409.9389
 304  380.6387
 305  353.8422
 306  404.1865
 307  320.2446
 308  311.0731
 309  345.4171
 310  464.2145
 311  359.9253
 312  368.6008
 313  470.3875
 314  364.4698
 315  362.5249
 316  418.462
 317  461.2307
 318  474.1026
 319  446.9739
 320  374.6032
 321  318.4983
 322  316.8088
 323  388.9708
 324  422.0165
 325  452.8828
 326  409.6615
 327  407.196
 328  317.7452
 329  360.4929
 330  413.879
 331  381.4598
 332  378.6359
 333  419.4802
 334  447.5148
 335  503.1487
 336  413.8506
 337  450.3815
 338  350.3302
 339  302.8015
 340  381.4833
 341  352.972
 342  533.1032
 343  513.5178
 344  346.4389
 345  359.3381
 346  482.8354
 347  403.6314
 348  437.1172
 349  564.6649
 350  428.9651
 351  419.5225
 352  431.2503
 353  403.2843
 354  342.6674
 355  285.1908
 356  273.0127
 357  320.0364
 358  409.5927
 359  425.2593
 360  416.1641
 361  369.5879
 362  281.3008
 363  277.9324
 364  226.0911
 365  301.995
 366  298.7269
 367  426.0031
 368  490.1933
 369  374.5158
 370  447.6378
 371  480.9211
 372  397.1905
 373  455.507
 374  393.1978
 375  364.381
 376  305.2684
 377  350.4567
 378  363.0355
 379  402.0861
 380  345.0661
 381  391.2122
 382  461.6221
 383  383.5357
 384  364.5278
 385  287.1866
 386  265.3554
 387  378.171
 388  285.8003
 389  308.5054
 390  371.5319
 391  340.2827
 392  246.3788
 393  209.8533
 394  353.5979
 395  371.023
 396  376.7247
 397  368.3027
 398  386.4553
 399  422.6354
 400  289.4464
 401  318.8562
 402  439.6759
 403  501.2131
 404  470.8379
 405  403.7676
 406  303.3956
 407  397.1008
 408  423.0094
 409  406.9339
 410  408.6461
 411  405.2304
 412  448.6265
 413  447.8672
 414  522.8459
 415  504.5789
 416  442.7885
 417  434.3617
 418  476.8749
 419  476.2095
 420  512.5291
 421  537.1959
 422  454.3162
 423  535.5262
 424  521.8285
 425  500.7627
 426  472.3781
 427  612.0118
 428  477.8541
 429  481.8186
 430  394.8048
 431  313.884
 432  405.132
 433  382.3323
 434  313.4046
 435  444.6057
 436  459.4277
 437  420.3733
 438  320.0308
 439  345.9356
 440  453.6493
 441  492.5049
 442  553.7988
 443  564.6082
 444  502.1596
 445  497.0461
 446  473.6562
 447  513.8748
 448  578.1901
 449  554.1731
 450  475.7323
 451  388.2748
 452  427.4057
 453  521.3991
 454  554.7913
 455  464.8529
 456  547.7701
 457  597.4577
 458  463.7249
 459  520.1291
 460  410.9458
 461  408.3582
 462  482.4596
 463  499.799
 464  485.9396
 465  595.5719
 466  530.2659
 467  378.6913
 468  384.4594
 469  469.0409
 470  474.8703
 471  435.7731
 472  424.7599
 473  486.7733
 474  460.3817
 475  516.65
 476  558.408
 477  441.1885
 478  540.3356
 479  455.7981
 480  528.6313
 481  601.3433
 482  559.1666
 483  496.8372
 484  461.9418
 485  478.4544
 486  535.1436
 487  509.8977
 488  514.6837
 489  491.8508
 490  487.1681
 491  486.5872
 492  495.4229
 493  410.9405
 494  388.2392
 495  522.3324
 496  502.1511
 497  442.01
 498  367.8332
 499  403.9389
 500  551.848
 501  572.9848
 502  568.1551
 503  536.2516
 504  664.5757
 505  722.1691
 506  595.3693
 507  715.707
 508  727.528
 509  818.669
 510  969.7128
 511  1078.009
