# Input file       =  1206201210.122017_cleaned.dat
# Candidate        =  PSR_0332+5434
# Telescope        =  AR
# Epoch_topo       =  58204.662374097417
# Epoch_bary       =  N/A
# T_sample         =  0.002
# Data Folded      =  7340032
# Data Avg         =  0.24345089385315 
# Data StdDev      =  6.47913445600288 
# Profile Bins     =  256
# Profile Avg      =  6980.12779079725 
# Profile StdDev   =  1097.09942281814 
# Reduced chi-sqr  =  0.817
# Prob(Noise)      <  0.985   (~0.0 sigma)
# P_topo (ms)      =  714.572423060314  +/- 0.000618
# P'_topo (s/s)    =  -0                +/- 3.26e-10
# P''_topo (s/s^2) =  0                 +/- 1.44e-13
# P_bary (ms)      =  N/A
# P'_bary (s/s)    =  N/A
# P''_bary (s/s^2) =  N/A
# P_orb (s)        =  N/A
# asin(i)/c (s)    =  N/A
# eccentricity     =  N/A
# w (rad)          =  N/A
# T_peri           =  N/A
######################################################
   0  7569.078
   1  6855.849
   2  6947.038
   3  7790.993
   4  7902.586
   5  6779.975
   6  6340.832
   7  6036.437
   8  5940.663
   9  6166.215
  10  6410.855
  11  6719.203
  12  7328.383
  13  6271.002
  14  7015.334
  15  6383.434
  16  7307.274
  17  7431.641
  18  7068.353
  19  7194.836
  20  6633.046
  21  6200.942
  22  7009.114
  23  5813.736
  24  6678.245
  25  6469.3
  26  6851.292
  27  7066.101
  28  6510.371
  29  7597.961
  30  7154.126
  31  7670.961
  32  8443.601
  33  7598.271
  34  7831.427
  35  7945.556
  36  7915.161
  37  8022.448
  38  8630.041
  39  7844.143
  40  7666.158
  41  7954.658
  42  7353.266
  43  6988.78
  44  7160.13
  45  6554.091
  46  6114.069
  47  6229.043
  48  6467.546
  49  5947.803
  50  6042.965
  51  6460.332
  52  6418.921
  53  6879.014
  54  7054.246
  55  6921.772
  56  6746.85
  57  6498.427
  58  6713.839
  59  6562.93
  60  6383.386
  61  6207.901
  62  5135.186
  63  5756.303
  64  6347.416
  65  7176.002
  66  7453.474
  67  7562.827
  68  7477.122
  69  7698.534
  70  7835.013
  71  8699.627
  72  8122.391
  73  8468.021
  74  8434.688
  75  8364.293
  76  7500.911
  77  7225.653
  78  8301.19
  79  7872.338
  80  7096.648
  81  7870.497
  82  7088.16
  83  8552.25
  84  8445.716
  85  8160.756
  86  8385.754
  87  7611.076
  88  7658.424
  89  6999.999
  90  7554.22
  91  6342.155
  92  7202.079
  93  6436.082
  94  6749.714
  95  6476.034
  96  6746.084
  97  6439.001
  98  6987.64
  99  6637.389
 100  6902.737
 101  6645.764
 102  7158.434
 103  7124.227
 104  7325.227
 105  7347.422
 106  6534.673
 107  7779.678
 108  7954.538
 109  7504.638
 110  6986.304
 111  7725.467
 112  7774.702
 113  7436.443
 114  7634.629
 115  8760.664
 116  8031.396
 117  7346.505
 118  7864.427
 119  7050.589
 120  7118.784
 121  7587.984
 122  7073.089
 123  6767.962
 124  6554.886
 125  6191.645
 126  6523.812
 127  6345.68
 128  6786.976
 129  6501.348
 130  7091.564
 131  7039.732
 132  5840.713
 133  4882.983
 134  5482.499
 135  6130.873
 136  5187.135
 137  5312.044
 138  5209.914
 139  5765.391
 140  5979.25
 141  5403.674
 142  6250.862
 143  6399.797
 144  5788.78
 145  5934.759
 146  6749.175
 147  6984.197
 148  7671.405
 149  8783.907
 150  9884.143
 151  11611.46
 152  9930.001
 153  7467.756
 154  6426.166
 155  7634.433
 156  7324.605
 157  6682.85
 158  7197.571
 159  6937.204
 160  5637.276
 161  6020.384
 162  6381.321
 163  7085.481
 164  6543.75
 165  6809.01
 166  6476.815
 167  6980.81
 168  6444.331
 169  7084.492
 170  6512.735
 171  6974.683
 172  7326.881
 173  7243.054
 174  7146.549
 175  7514.12
 176  7865.527
 177  8052.809
 178  7963.217
 179  7397.197
 180  7842.755
 181  7833.778
 182  7993.039
 183  6928.05
 184  7530.559
 185  7437.466
 186  7308.545
 187  7967.419
 188  6744.958
 189  7177.132
 190  6669.62
 191  6867.774
 192  6808.623
 193  6448.55
 194  6029.374
 195  6991.632
 196  7061.579
 197  7027.702
 198  7181.111
 199  7523.055
 200  7840.208
 201  7772.598
 202  7067.049
 203  6410.306
 204  6390.191
 205  6555.848
 206  6548.836
 207  7497
 208  7826.968
 209  7706.634
 210  7801.224
 211  8113.036
 212  7294.654
 213  6730.226
 214  6621.069
 215  6416.084
 216  5894.261
 217  6227.52
 218  6775.857
 219  6641.512
 220  6897.145
 221  7107.488
 222  6317.363
 223  6126.377
 224  7002.45
 225  6616.47
 226  7340.447
 227  6756.467
 228  6229.355
 229  5975.082
 230  6613.12
 231  7719.975
 232  6978.704
 233  6386.417
 234  5885.73
 235  6448.385
 236  6689.568
 237  6445.729
 238  5068.956
 239  5945.583
 240  6600.783
 241  6023.919
 242  4887.293
 243  5890.478
 244  5817.432
 245  5533.404
 246  5950.59
 247  6029.896
 248  6809.756
 249  6783.227
 250  5363.732
 251  7124.104
 252  6376.067
 253  6670.085
 254  7247.675
 255  7421.142
