# Input file       =  1206114991.108777-PSRB0329-2ms-sampling-dd.dat
# Candidate        =  PSR_0332+5434
# Telescope        =  AR
# Epoch_topo       =  58203.664468851588
# Epoch_bary       =  N/A
# T_sample         =  0.002
# Data Folded      =  7340032
# Data Avg         =  -2.56719092475347e-09
# Data StdDev      =  12.3503413103857 
# Profile Bins     =  512
# Profile Avg      =  -0.0244108644355134
# Profile StdDev   =  1478.74386538189 
# Reduced chi-sqr  =  0.851
# Prob(Noise)      <  0.994   (~0.0 sigma)
# P_topo (ms)      =  714.572945084624  +/- 0.000319
# P'_topo (s/s)    =  -0                +/- 1.68e-10
# P''_topo (s/s^2) =  0                 +/- 7.44e-14
# P_bary (ms)      =  N/A
# P'_bary (s/s)    =  N/A
# P''_bary (s/s^2) =  N/A
# P_orb (s)        =  N/A
# asin(i)/c (s)    =  N/A
# eccentricity     =  N/A
# w (rad)          =  N/A
# T_peri           =  N/A
######################################################
   0  121.1144
   1  639.9953
   2  392.9936
   3  728.3774
   4  1184.791
   5  1517.599
   6  925.1846
   7  2113.674
   8  1714.319
   9  1125.241
  10  1286.716
  11  423.1669
  12  547.913
  13  888.2386
  14  1151.383
  15  206.3646
  16  559.2601
  17  -1312.178
  18  -2152.756
  19  -1143.114
  20  -917.6268
  21  -1312.121
  22  -1406.05
  23  -149.1198
  24  55.10169
  25  -272.3776
  26  527.8958
  27  582.3604
  28  910.1438
  29  1680.687
  30  1665.19
  31  1307.179
  32  1593.409
  33  1296.413
  34  928.2935
  35  992.3617
  36  241.4169
  37  -729.8065
  38  -978.9722
  39  -382.0539
  40  -87.36585
  41  -101.7205
  42  -562.248
  43  -368.5057
  44  -75.97407
  45  -506.389
  46  -437.0032
  47  -960.7922
  48  -815.3337
  49  -131.5133
  50  789.9604
  51  683.6097
  52  -484.9158
  53  14.01766
  54  475.488
  55  1166.914
  56  1389.324
  57  806.9324
  58  1488.012
  59  1811.72
  60  886.9839
  61  -217.7347
  62  111.0534
  63  684.0983
  64  999.4381
  65  381.4142
  66  151.7563
  67  149.3031
  68  289.5868
  69  -31.4903
  70  -159.2078
  71  -623.9932
  72  692.8022
  73  684.4894
  74  68.76528
  75  -238.1455
  76  -73.21709
  77  -833.3311
  78  -1377.108
  79  -1316.67
  80  -607.7012
  81  -408.5956
  82  -134.7676
  83  415.0689
  84  433.412
  85  389.5997
  86  40.41114
  87  -155.93
  88  411.1125
  89  429.9111
  90  1149.842
  91  1153.095
  92  1253.173
  93  826.724
  94  -347.6057
  95  -1459.952
  96  -475.0162
  97  -482.7268
  98  -218.2198
  99  317.374
 100  -854.2969
 101  -606.7387
 102  -113.5352
 103  -368.8789
 104  -126.7466
 105  -1092.96
 106  -863.7458
 107  -670.7182
 108  -238.8276
 109  251.6642
 110  246.4496
 111  1146.534
 112  2455.991
 113  2396.853
 114  2076.081
 115  2509.521
 116  1370.639
 117  2032.678
 118  2741.456
 119  2260.69
 120  1161.259
 121  1122.457
 122  454.3471
 123  -498.2371
 124  -1034.742
 125  -31.60886
 126  100.2385
 127  1221.156
 128  1393.51
 129  347.9257
 130  -1435.833
 131  -1765.874
 132  -489.773
 133  365.6635
 134  -819.7468
 135  -666.7642
 136  75.51067
 137  -1131.072
 138  -1652.516
 139  -1677.013
 140  -1707.111
 141  -1267.568
 142  -866.0671
 143  -541.1543
 144  -1276.45
 145  -1031.265
 146  -411.5883
 147  -212.7929
 148  -754.3641
 149  -759.6172
 150  111.6905
 151  -719.2525
 152  -683.3269
 153  -178.0772
 154  99.44086
 155  -115.9463
 156  -333.2552
 157  -411.2258
 158  -582.9296
 159  -792.9312
 160  -939.3343
 161  -1347.062
 162  -900.9564
 163  -1056.8
 164  -976.3701
 165  -115.6151
 166  -573.1391
 167  -550.065
 168  285.7685
 169  -628.4125
 170  -1263.063
 171  -881.1011
 172  -216.6124
 173  -210.534
 174  116.6686
 175  -922.3296
 176  -2204.91
 177  -2094.177
 178  -778.2266
 179  -434.9078
 180  264.23
 181  417.4768
 182  584.1202
 183  66.58653
 184  -832.5243
 185  -373.0239
 186  -25.80592
 187  576.8483
 188  -46.46786
 189  1137.219
 190  1353.22
 191  860.1922
 192  658.6123
 193  1138.455
 194  1517.454
 195  993.9064
 196  1034.574
 197  445.8067
 198  846.9029
 199  697.3561
 200  1082.669
 201  1345.98
 202  968.6821
 203  1269.344
 204  1852.791
 205  1750.742
 206  1346.772
 207  1774.255
 208  1117.403
 209  665.9783
 210  1302.37
 211  497.5659
 212  481.4252
 213  327.751
 214  -235.5888
 215  122.8908
 216  -112.1534
 217  -171.8204
 218  334.0417
 219  211.153
 220  654.9752
 221  488.3264
 222  1190.34
 223  1587.99
 224  956.4851
 225  196.7326
 226  -1188.359
 227  -2265.635
 228  -1770.017
 229  -1074.277
 230  428.7016
 231  300.0469
 232  221.8984
 233  -635.6932
 234  -1128.902
 235  -1304.298
 236  -1419.677
 237  -1026.706
 238  -144.4923
 239  -901.7682
 240  -150.9544
 241  281.9724
 242  -1456.604
 243  -1678.074
 244  -1580.855
 245  -811.9024
 246  225.5222
 247  -168.6027
 248  -766.2272
 249  -1279.991
 250  -943.8754
 251  -674.8107
 252  -682.9626
 253  -1191.557
 254  -1701.471
 255  -2040.615
 256  -2304.517
 257  -1752.212
 258  -19.51683
 259  35.79002
 260  -82.11784
 261  301.3862
 262  -242.5325
 263  -466.295
 264  -297.3015
 265  774.0145
 266  167.8054
 267  656.1893
 268  496.0393
 269  119.3485
 270  1404.002
 271  1839.376
 272  662.174
 273  854.8587
 274  277.2189
 275  -477.2155
 276  -67.59856
 277  1441.815
 278  1090.081
 279  354.0485
 280  -29.30939
 281  -574.4573
 282  -588.3272
 283  50.5741
 284  -354.1425
 285  -1160.746
 286  -1525.937
 287  -1302.242
 288  -1079.36
 289  -1092.098
 290  -821.729
 291  -284.7523
 292  -540.5554
 293  -1128.222
 294  222.7858
 295  -337.7882
 296  348.8084
 297  772.5737
 298  1393.695
 299  274.2318
 300  -73.00869
 301  667.8409
 302  239.309
 303  -567.2338
 304  -643.1472
 305  -671.9072
 306  -948.8379
 307  -1026.017
 308  -251.8854
 309  -5.621411
 310  110.2992
 311  -597.4356
 312  -821.3435
 313  -763.7937
 314  -1674.442
 315  -1931.891
 316  -1732.538
 317  -1386.422
 318  -2231.52
 319  -2328.019
 320  -807.1144
 321  -1013.819
 322  -1030.784
 323  -244.8348
 324  -353.6147
 325  -568.3234
 326  -852.7444
 327  273.3892
 328  1038.77
 329  2661.401
 330  3376.192
 331  2644.097
 332  122.6227
 333  -1135.58
 334  -612.2931
 335  370.935
 336  1383.122
 337  1562.075
 338  1170.409
 339  1353.568
 340  1293.927
 341  391.2187
 342  16.49605
 343  106.2999
 344  716.5058
 345  -287.9894
 346  -414.7044
 347  359.3591
 348  -485.8908
 349  -1119.194
 350  -1558.787
 351  -1231.627
 352  -360.86
 353  114.5867
 354  579.0009
 355  -523.6121
 356  -794.5006
 357  -939.519
 358  -98.05764
 359  1311.597
 360  1345.318
 361  1914.849
 362  400.2618
 363  80.3305
 364  -169.1936
 365  158.5427
 366  1134.467
 367  971.137
 368  719.678
 369  845.0598
 370  -300.0888
 371  387.9019
 372  1229.77
 373  981.8467
 374  30.55841
 375  441.1587
 376  -428.679
 377  -440.5889
 378  -396.0548
 379  -5.029761
 380  -1063.14
 381  -202.6881
 382  915.4935
 383  580.6951
 384  977.2426
 385  -87.31287
 386  -990.7198
 387  -1592.559
 388  -1084.695
 389  -802.1039
 390  -753.3724
 391  -996.5735
 392  -568.5382
 393  -492.5528
 394  -1206.026
 395  -912.2811
 396  -615.7652
 397  -1418.515
 398  -1395.058
 399  -418.2379
 400  -358.3477
 401  -1254.747
 402  -187.5556
 403  1968.027
 404  855.7473
 405  -112.5363
 406  -533.9103
 407  -580.6255
 408  -278.4336
 409  348.492
 410  704.7307
 411  1136.398
 412  1213.924
 413  292.6048
 414  -264.7672
 415  -1203.06
 416  -206.2038
 417  294.4256
 418  1506.007
 419  1277.299
 420  -203.3899
 421  -955.7124
 422  -517.3229
 423  200.1896
 424  -215.235
 425  681.1231
 426  507.6649
 427  -456.0963
 428  96.10373
 429  845.2021
 430  786.4584
 431  -81.58036
 432  908.4756
 433  -54.19601
 434  591.5227
 435  896.758
 436  1090.49
 437  1687.862
 438  796.0428
 439  204.6357
 440  -701.7532
 441  -1512.141
 442  -860.327
 443  -649.101
 444  -399.085
 445  188.3147
 446  -282.2011
 447  -606.2922
 448  -1075.265
 449  -1690.808
 450  -562.0543
 451  -481.8711
 452  -540.811
 453  -529.4149
 454  -1814.169
 455  -1539.777
 456  -1171.307
 457  -960.7726
 458  -409.5028
 459  379.3969
 460  -637.2927
 461  -567.4667
 462  -154.2039
 463  -673.5643
 464  321.551
 465  725.9218
 466  2568.007
 467  1406.601
 468  1076.104
 469  1235.913
 470  1284.497
 471  1439.852
 472  733.0358
 473  -977.1669
 474  -1016.886
 475  302.4941
 476  918.8932
 477  -95.71835
 478  -56.90593
 479  -36.51066
 480  428.5681
 481  640.9497
 482  -477.01
 483  41.56608
 484  2184.344
 485  1874.716
 486  859.7255
 487  266.0461
 488  811.7449
 489  617.9749
 490  1770.505
 491  2266.553
 492  1026.139
 493  486.2291
 494  824.6142
 495  875.9091
 496  -1107.721
 497  -1296.497
 498  -1485.74
 499  -1705.07
 500  -1779.88
 501  -873.2805
 502  71.02777
 503  146.5155
 504  -397.6786
 505  197.1428
 506  178.4582
 507  -1013.251
 508  -1323.801
 509  -951.5568
 510  -1003.487
 511  -388.3259
