# Input file       =  1206430175.134664_cleaned.dat
# Candidate        =  PSR_0332+5434
# Telescope        =  AR
# Epoch_topo       =  58207.312432114166
# Epoch_bary       =  N/A
# T_sample         =  0.002
# Data Folded      =  7208960
# Data Avg         =  0.563270050787833
# Data StdDev      =  6.93853805231424 
# Profile Bins     =  1024
# Profile Avg      =  3965.42854816803 
# Profile StdDev   =  582.176008210597 
# Reduced chi-sqr  =  1.311
# Prob(Noise)      <  6.62e-11   (~6.4 sigma)
# P_topo (ms)      =  714.570615109855  +/- 4.42e-05
# P'_topo (s/s)    =  -0                +/- 2.37e-11
# P''_topo (s/s^2) =  0                 +/- 1.07e-14
# P_bary (ms)      =  N/A
# P'_bary (s/s)    =  N/A
# P''_bary (s/s^2) =  N/A
# P_orb (s)        =  N/A
# asin(i)/c (s)    =  N/A
# eccentricity     =  N/A
# w (rad)          =  N/A
# T_peri           =  N/A
######################################################
   0  4179.729
   1  3942.807
   2  4000.064
   3  3959.361
   4  3985.055
   5  3896.697
   6  3597.926
   7  3660.192
   8  3702.702
   9  3956.883
  10  3947.715
  11  3848.456
  12  3782.48
  13  3697.384
  14  3533.89
  15  3520.272
  16  3578.231
  17  3900.739
  18  3936.872
  19  3818.966
  20  3799.332
  21  3849.091
  22  4111.835
  23  4197.474
  24  4408.241
  25  4429.386
  26  4347.975
  27  4388.525
  28  4277.834
  29  4179.114
  30  3976.783
  31  3834.472
  32  3939.967
  33  4037.961
  34  4214.532
  35  4340.93
  36  4117.602
  37  3953.985
  38  3646.37
  39  3632.247
  40  3662.517
  41  3793.356
  42  3931.018
  43  3932.7
  44  3809.039
  45  3725.866
  46  3687.072
  47  3766.895
  48  3769.32
  49  3814.646
  50  3976.855
  51  4058.713
  52  3981.651
  53  3917.209
  54  3912.963
  55  4028.258
  56  4114.021
  57  4301.372
  58  4462.118
  59  4669.466
  60  4660.816
  61  4480.884
  62  4223.174
  63  4006.572
  64  3830.515
  65  3888.838
  66  4041.243
  67  4194.696
  68  4171.378
  69  4023.215
  70  3699.289
  71  3317.205
  72  3256.717
  73  3436.79
  74  3530.374
  75  3641.619
  76  3685.583
  77  3680.927
  78  3490.002
  79  3316.568
  80  3285.204
  81  3439.141
  82  3584.216
  83  3677.774
  84  3737.27
  85  3936.745
  86  3866.325
  87  3895.411
  88  3961.373
  89  3945.766
  90  3900.964
  91  4133.59
  92  4434.932
  93  4472.734
  94  4356.619
  95  4257.438
  96  4090.032
  97  3745.926
  98  3732.202
  99  3606.125
 100  3699.011
 101  3753.091
 102  3843.101
 103  3823.638
 104  3906.32
 105  4071.664
 106  3999.184
 107  3879.286
 108  3739.449
 109  3823.661
 110  3962.402
 111  3823.567
 112  3476.733
 113  3145.133
 114  3102.635
 115  3335.854
 116  3554.739
 117  3780.012
 118  3817.072
 119  3799.996
 120  3638.115
 121  3655.303
 122  3830.708
 123  4110.76
 124  4265.245
 125  4407.634
 126  4610.812
 127  4626.946
 128  4641.402
 129  4508.31
 130  4526.017
 131  4153.214
 132  4162.519
 133  4160.732
 134  4194.211
 135  4095.636
 136  3982.095
 137  3843.231
 138  3679.032
 139  3828.943
 140  3956.827
 141  4125.47
 142  4089.96
 143  4039.079
 144  3754.668
 145  3511.179
 146  3459.699
 147  3651.856
 148  3798.633
 149  3939.386
 150  4054.247
 151  3986.896
 152  3989.646
 153  4232.428
 154  4203.752
 155  4359.887
 156  4475.769
 157  4774.767
 158  4811.171
 159  4661.645
 160  4544.563
 161  4279.75
 162  4246.62
 163  4389.148
 164  4479.006
 165  4399.64
 166  4146.167
 167  4015.366
 168  4057.476
 169  3893.887
 170  3941.244
 171  3768.321
 172  3721.606
 173  3764.882
 174  4006.679
 175  4272.56
 176  4208.601
 177  4020.575
 178  3915.663
 179  3703.398
 180  3770.233
 181  3765.92
 182  4022.147
 183  4152.276
 184  4167.61
 185  4110.172
 186  4079.716
 187  4101.232
 188  4275.941
 189  4365.362
 190  4436.779
 191  4535.82
 192  4450.829
 193  4362.831
 194  4312.874
 195  4321.451
 196  4229.812
 197  4216.418
 198  4363.19
 199  4368.172
 200  4480.552
 201  4178.379
 202  3907.02
 203  3662.403
 204  3526.469
 205  3675.132
 206  3767.709
 207  3818.494
 208  3773.282
 209  3745.842
 210  3846.551
 211  3846.248
 212  3725.23
 213  3575.525
 214  3539.803
 215  3774.511
 216  3946.114
 217  4061.061
 218  4027.643
 219  3922.369
 220  3893.163
 221  4010.612
 222  4126.062
 223  4155.897
 224  4311.545
 225  4441.106
 226  4465.148
 227  4210.616
 228  4056.984
 229  3964.671
 230  3901.566
 231  3912.055
 232  3932.16
 233  4138.862
 234  4019.234
 235  3942.88
 236  3682.938
 237  3482.239
 238  3401.555
 239  3493.037
 240  3698.584
 241  3775.459
 242  3668.633
 243  3581.534
 244  3487.311
 245  3476.631
 246  3411.937
 247  3516.428
 248  3701.995
 249  3796.204
 250  3785.338
 251  3757.611
 252  3759.048
 253  3780.049
 254  3797.701
 255  3962.847
 256  4285.434
 257  4433.219
 258  4590.828
 259  4521.189
 260  4164.613
 261  3996.369
 262  3940.72
 263  4000.292
 264  3681.684
 265  3644.505
 266  3743.485
 267  3734.587
 268  3430.341
 269  3213.195
 270  3359.772
 271  3437.503
 272  3473.65
 273  3639.834
 274  3702.741
 275  3742.679
 276  3788.809
 277  3663.719
 278  3411.209
 279  3192.095
 280  3351.338
 281  3596.619
 282  3646.33
 283  3798.657
 284  3826.392
 285  3843.468
 286  3697.345
 287  3774.956
 288  3987.857
 289  4250.129
 290  4496.591
 291  4488.773
 292  4378.784
 293  4208.567
 294  4148.728
 295  4124.891
 296  4023.213
 297  3831.3
 298  4009.303
 299  3923.909
 300  3989.762
 301  3845.522
 302  3689.987
 303  3565.134
 304  3578.267
 305  3853.017
 306  3958.844
 307  3848.919
 308  3816.804
 309  3629.463
 310  3473.775
 311  3360.484
 312  3482.432
 313  3560.502
 314  3672.287
 315  3668.396
 316  3885.294
 317  3858.566
 318  4138.129
 319  3925.153
 320  4039.645
 321  4113.873
 322  4526.333
 323  4691.207
 324  4683.92
 325  4627.075
 326  4662.909
 327  4493.578
 328  4392.017
 329  4404.374
 330  4451.188
 331  4235.995
 332  4018.647
 333  4004.884
 334  3846.363
 335  3743.332
 336  3663.224
 337  3593.821
 338  3619.418
 339  3670.953
 340  3891.058
 341  4039.135
 342  4029.659
 343  3998.403
 344  3722.57
 345  3813.144
 346  3927.431
 347  4086.14
 348  3952.944
 349  3958.014
 350  3984.636
 351  4149.37
 352  4173.032
 353  4257.654
 354  4423.349
 355  4557.734
 356  4653.881
 357  4694.544
 358  4737.428
 359  4645.027
 360  4423.262
 361  4235.068
 362  4157.488
 363  4205.502
 364  4255.188
 365  4366.908
 366  4256.367
 367  4001.779
 368  3744.558
 369  3629.328
 370  3701.832
 371  3805.195
 372  3807.236
 373  3911.645
 374  3980.216
 375  3976.892
 376  3967.699
 377  4067.802
 378  4170.844
 379  4166.581
 380  4037.438
 381  4215.84
 382  4331.089
 383  4431.165
 384  4232.194
 385  4039.218
 386  4129.363
 387  4229.444
 388  4391.73
 389  4590.625
 390  4549.202
 391  4625.206
 392  4415.177
 393  4260.9
 394  4331.167
 395  4446.262
 396  4768.634
 397  4610.137
 398  4425.777
 399  4293.854
 400  4170.029
 401  4110.771
 402  3774.978
 403  3814.983
 404  4064.244
 405  4173.881
 406  4353.933
 407  4204.662
 408  4009.998
 409  3849.26
 410  3767.303
 411  3973.643
 412  3851.261
 413  4033.711
 414  4170.712
 415  4241.761
 416  4110.136
 417  4096.641
 418  4213.156
 419  4297.012
 420  4419.976
 421  4627.561
 422  4689.993
 423  4705.36
 424  4752.134
 425  4518.492
 426  4266.391
 427  4091.993
 428  4189.164
 429  4311.215
 430  4126.925
 431  4030.064
 432  3996.48
 433  4132.771
 434  3946.742
 435  3841.719
 436  3800.183
 437  3841.511
 438  4017.516
 439  4106.731
 440  3967.448
 441  3853
 442  3765.82
 443  3542.951
 444  3394.703
 445  3428.159
 446  3748.462
 447  3992.842
 448  4098.531
 449  4008.077
 450  3856.207
 451  4000.176
 452  4256.899
 453  4487.876
 454  4536.479
 455  4610.675
 456  4792.52
 457  4662.136
 458  4377.854
 459  4124.969
 460  4123.513
 461  4185.011
 462  4083.47
 463  4135.757
 464  4062.113
 465  4089.078
 466  4077.658
 467  3902.907
 468  3899.912
 469  3831.691
 470  4092.659
 471  4184.087
 472  4212.691
 473  4307.325
 474  4238.309
 475  4008.121
 476  3756.615
 477  3729.521
 478  3941.149
 479  4023.538
 480  3979.308
 481  3942.809
 482  3846.678
 483  4006.264
 484  4053.202
 485  4229.58
 486  4338.486
 487  4494.13
 488  4692.503
 489  4783.035
 490  4625.069
 491  4557.432
 492  4388.775
 493  4266.299
 494  4197.881
 495  4192.059
 496  4273.458
 497  4249.837
 498  4159.827
 499  3982.815
 500  3786.403
 501  3831.193
 502  3757.292
 503  3813.355
 504  3909.626
 505  4024.334
 506  4201.725
 507  4133.689
 508  4052.575
 509  3782.802
 510  3769.06
 511  3879.556
 512  4062.18
 513  3982.005
 514  3999.882
 515  3874.801
 516  4093.173
 517  4079.611
 518  4246.402
 519  4474.82
 520  4554.108
 521  4750.606
 522  4812.277
 523  4777.707
 524  4850.176
 525  4695.355
 526  4440.126
 527  4232.677
 528  4309.737
 529  4503.798
 530  4294.383
 531  4155.69
 532  3953.969
 533  3920.694
 534  3735.097
 535  3638.204
 536  3797.93
 537  3926.069
 538  3993.421
 539  4041.086
 540  4037.82
 541  4047.276
 542  4058.646
 543  4098.998
 544  4215.846
 545  4048.908
 546  4140.563
 547  4253.923
 548  4253.942
 549  4178.18
 550  4062.535
 551  4292.75
 552  4556.075
 553  4830.178
 554  5037.419
 555  5004.577
 556  4949.82
 557  4735.536
 558  4531.583
 559  4486.756
 560  4431.557
 561  4472.359
 562  4602.216
 563  4661.457
 564  4525.397
 565  4297.496
 566  4329.806
 567  4296.36
 568  4282.422
 569  4232.37
 570  4144.634
 571  4333.898
 572  4437.993
 573  4241
 574  4101.712
 575  4035.314
 576  4141.745
 577  4110.405
 578  4119.414
 579  4143.474
 580  4020.006
 581  3985.17
 582  4050.422
 583  4211.912
 584  4288.354
 585  4439.994
 586  4563.567
 587  4570.134
 588  4532.83
 589  4790.913
 590  4971.713
 591  4772.922
 592  4462.377
 593  4386.85
 594  4308.374
 595  4309.548
 596  4376.101
 597  4434.53
 598  4410.335
 599  4391.442
 600  4620.016
 601  4731.3
 602  4948.535
 603  5398.473
 604  5629.598
 605  5530.574
 606  5293.092
 607  5063.996
 608  4850.489
 609  4481.158
 610  4323.45
 611  4274.802
 612  4251.225
 613  4129.135
 614  4080.351
 615  4059.415
 616  4118.148
 617  4147.848
 618  4401.234
 619  4544.582
 620  4704.926
 621  4771.865
 622  4709.651
 623  4466.088
 624  4337.649
 625  4169.159
 626  4176.61
 627  4276.271
 628  4291.722
 629  4145.409
 630  4109.171
 631  4088.211
 632  3869.317
 633  3730.084
 634  3803.645
 635  3997.501
 636  4071.897
 637  4188.07
 638  4048.34
 639  3872.955
 640  3527.406
 641  3412.356
 642  3333.294
 643  3465.015
 644  3586.622
 645  3756.415
 646  3631.063
 647  3673.63
 648  3741.026
 649  3896.259
 650  3896.745
 651  4068.854
 652  4225.065
 653  4167.786
 654  4221.545
 655  4256.191
 656  4223.665
 657  4113.074
 658  3965.896
 659  4066.655
 660  3955.653
 661  3912.599
 662  3927.376
 663  3771.223
 664  3658.043
 665  3356.142
 666  3262.221
 667  3144.876
 668  3341.355
 669  3587.031
 670  3808.99
 671  3865.642
 672  3945.101
 673  3739.475
 674  3569.375
 675  3208.507
 676  3300.872
 677  3510.893
 678  3665.303
 679  3681.129
 680  3599.211
 681  3635.525
 682  3727.675
 683  3899.371
 684  4084.675
 685  3990.457
 686  4295.223
 687  4375.78
 688  4129.883
 689  4011.099
 690  3986.822
 691  4097.924
 692  3989.907
 693  3900.333
 694  3944.686
 695  3908.5
 696  3822.431
 697  3662.996
 698  3370.643
 699  3262.657
 700  3246.273
 701  3513.063
 702  3585.714
 703  3565.963
 704  3679.748
 705  3642.971
 706  3571.937
 707  3454.164
 708  3401.473
 709  3507.207
 710  3538.357
 711  3713.889
 712  3776.209
 713  3617.71
 714  3650.483
 715  3648.953
 716  3762.398
 717  3870.938
 718  4090.409
 719  4386.192
 720  4178.704
 721  4035.798
 722  4054.054
 723  4010.261
 724  3937.273
 725  3756.327
 726  3870.134
 727  3885.186
 728  3835.459
 729  3823.963
 730  3860.36
 731  3775.479
 732  3607.144
 733  3520.275
 734  3458.151
 735  3418.056
 736  3497.993
 737  3745.116
 738  3688.657
 739  3576.363
 740  3373.632
 741  3370.324
 742  3524.811
 743  3645.979
 744  3886.116
 745  3913.682
 746  3974.713
 747  4039.343
 748  3928.023
 749  3745.392
 750  3670.015
 751  4054.908
 752  4333.729
 753  4380.619
 754  4359.61
 755  4228.657
 756  4163.039
 757  3922.601
 758  3975.521
 759  3881.911
 760  3815.03
 761  3723.483
 762  3840.789
 763  3816.631
 764  3601.039
 765  3573.911
 766  3494.465
 767  3344.484
 768  3295.173
 769  3403.587
 770  3590.633
 771  3439.77
 772  3224.981
 773  3129.711
 774  3290.263
 775  3478.47
 776  3651.758
 777  3832.662
 778  3960.15
 779  3898.586
 780  3760.486
 781  3777.143
 782  3922.655
 783  4030.685
 784  4112.401
 785  4153.729
 786  4240.659
 787  4185.766
 788  4182.754
 789  4224.344
 790  4025.971
 791  3888.931
 792  3843.308
 793  3955.74
 794  3863.777
 795  3905.862
 796  3994.134
 797  4016.449
 798  3888.967
 799  3650.746
 800  3625.035
 801  3767.158
 802  3881.559
 803  3864.116
 804  3696.399
 805  3571.873
 806  3445.397
 807  3526.638
 808  3544.844
 809  3605.364
 810  3631.951
 811  3884.25
 812  4126.269
 813  4290.635
 814  3999.665
 815  3846.466
 816  3981.474
 817  4314.306
 818  4419.106
 819  4468.19
 820  4339.419
 821  4174.962
 822  4090.892
 823  4129.7
 824  4373.753
 825  4190.667
 826  4076.417
 827  3972.202
 828  3920.406
 829  3882.46
 830  3695.303
 831  3610.491
 832  3380.139
 833  3396.675
 834  3549.409
 835  3587.35
 836  3510.606
 837  3499.977
 838  3516.097
 839  3489.533
 840  3279.058
 841  3357.049
 842  3451.83
 843  3522.95
 844  3610.545
 845  3526.027
 846  3510.283
 847  3494.765
 848  3644.325
 849  4016.232
 850  4204.244
 851  4375.93
 852  4389.344
 853  4298.904
 854  4200.778
 855  4037.136
 856  3955.725
 857  3921.57
 858  3898.552
 859  3979.512
 860  3964.139
 861  3951.626
 862  3792.846
 863  3513.047
 864  3295.209
 865  3275.932
 866  3485.509
 867  3656.365
 868  3743.765
 869  3870.5
 870  3901.655
 871  3754.329
 872  3567.768
 873  3314.449
 874  3343.718
 875  3385.875
 876  3638.346
 877  3676.348
 878  3670.442
 879  3567.151
 880  3623.052
 881  3612.376
 882  3832.707
 883  3992.846
 884  4243.396
 885  4435.438
 886  4381.233
 887  4280.292
 888  4062.579
 889  4004.646
 890  3827.239
 891  3724.785
 892  3734.368
 893  3819.456
 894  3863.417
 895  3805.796
 896  3727.461
 897  3490.096
 898  3219.365
 899  3112.961
 900  3236.194
 901  3460.274
 902  3485.161
 903  3546.096
 904  3525.443
 905  3432.524
 906  3378.745
 907  3473.133
 908  3693.721
 909  3809.672
 910  3919.603
 911  3917.983
 912  3832.923
 913  3635.902
 914  3543.616
 915  3657.074
 916  3856.933
 917  4065.42
 918  4346.444
 919  4329.634
 920  4151.064
 921  3896.03
 922  3994.97
 923  3937.24
 924  3933.249
 925  3823.314
 926  3768.551
 927  3484.08
 928  3349.28
 929  3293.132
 930  3278.399
 931  3246.341
 932  3276.275
 933  3343.385
 934  3342.181
 935  3327.617
 936  3369.142
 937  3361.604
 938  3140.523
 939  3159.023
 940  3363.621
 941  3666.81
 942  3739.644
 943  3813.588
 944  3817.71
 945  3745.7
 946  3697.434
 947  3771.287
 948  3761.331
 949  3873.135
 950  4092.404
 951  4309.103
 952  4249.437
 953  4149.568
 954  4134.25
 955  3909.456
 956  3906.166
 957  3959.521
 958  3903.019
 959  3942.782
 960  3924.262
 961  3923.495
 962  3690.916
 963  3697.184
 964  3750.741
 965  3759.628
 966  3654.166
 967  3722.041
 968  3868.341
 969  3776.941
 970  3502.125
 971  3285.251
 972  3302.719
 973  3190.332
 974  3321.973
 975  3490.517
 976  3575.36
 977  3710.534
 978  3700.869
 979  3621.565
 980  3461.574
 981  3854.596
 982  4188.739
 983  4219.717
 984  4195.469
 985  4310.462
 986  4138.598
 987  3927.978
 988  3834.266
 989  4066.134
 990  4004.265
 991  4001.244
 992  4008.498
 993  3892.373
 994  3664.556
 995  3603.84
 996  3529.83
 997  3427.581
 998  3399.187
 999  3560.886
1000  3679.797
1001  3661.684
1002  3715.406
1003  3791.689
1004  3638.638
1005  3463.732
1006  3412.575
1007  3672.848
1008  3669.808
1009  3797.098
1010  3662.001
1011  3706.552
1012  3769.809
1013  3944.854
1014  4122.591
1015  4105.577
1016  4228.897
1017  4313.035
1018  4316.237
1019  4255.446
1020  4065.23
1021  3988.625
1022  4048.258
1023  4077.23
