# Input file       =  1206201210.122017_cleaned.dat
# Candidate        =  PSR_0332+5434
# Telescope        =  AR
# Epoch_topo       =  58204.662374097417
# Epoch_bary       =  N/A
# T_sample         =  0.002
# Data Folded      =  7340032
# Data Avg         =  0.0282046564489668
# Data StdDev      =  1.00008742218944 
# Profile Bins     =  512
# Profile Avg      =  404.318202862356 
# Profile StdDev   =  119.743503700955 
# Reduced chi-sqr  =  1.311
# Prob(Noise)      <  2.68e-06   (~4.6 sigma)
# P_topo (ms)      =  714.572422979611  +/- 0.000405
# P'_topo (s/s)    =  -0                +/- 2.14e-10
# P''_topo (s/s^2) =  0                 +/- 9.44e-14
# P_bary (ms)      =  N/A
# P'_bary (s/s)    =  N/A
# P''_bary (s/s^2) =  N/A
# P_orb (s)        =  N/A
# asin(i)/c (s)    =  N/A
# eccentricity     =  N/A
# w (rad)          =  N/A
# T_peri           =  N/A
######################################################
   0  487.7555
   1  463.0005
   2  287.1548
   3  326.8835
   4  459.7396
   5  556.3951
   6  431.8711
   7  427.8443
   8  386.6277
   9  581.3929
  10  667.4316
  11  535.96
  12  482.6273
  13  484.4604
  14  542.9601
  15  543.2537
  16  447.7544
  17  530.3392
  18  584.6378
  19  493.6656
  20  316.5587
  21  409.9816
  22  515.7946
  23  507.4037
  24  532.0319
  25  338.071
  26  381.7076
  27  502.3748
  28  451.5581
  29  363.1156
  30  433.7909
  31  410.1235
  32  328.5002
  33  325.7047
  34  361.5453
  35  362.7774
  36  334.4109
  37  341.4909
  38  380.0504
  39  430.0548
  40  457.2164
  41  342.1687
  42  360.3403
  43  395.4043
  44  413.171
  45  314.332
  46  371.1621
  47  394.0805
  48  426.7737
  49  367.1286
  50  320.8526
  51  395.8347
  52  435.7468
  53  372.8724
  54  343.1622
  55  263.1935
  56  368.5536
  57  409.7118
  58  274.9948
  59  330.3602
  60  406.1312
  61  368.5843
  62  303.6169
  63  328.9212
  64  294.3127
  65  364.8655
  66  412.1478
  67  395.7488
  68  320.0226
  69  417.9267
  70  390.3292
  71  445.8182
  72  516.3709
  73  566.2208
  74  583.7612
  75  503.6086
  76  464.0195
  77  445.7476
  78  554.2968
  79  546.6412
  80  494.2522
  81  482.8437
  82  462.2647
  83  482.0943
  84  467.7341
  85  445.7457
  86  431.7753
  87  479.9457
  88  465.2236
  89  468.4923
  90  353.5102
  91  367.9897
  92  353.4699
  93  368.7704
  94  376.9861
  95  401.6011
  96  423.2146
  97  377.9119
  98  354.4283
  99  424.398
 100  460.2957
 101  485.3373
 102  469.2834
 103  515.2773
 104  433.7968
 105  394.2819
 106  471.0244
 107  358.9423
 108  272.0084
 109  196.1526
 110  242.8092
 111  276.9013
 112  366.5711
 113  401.7939
 114  361.2889
 115  203.6282
 116  139.5525
 117  205.7912
 118  344.6184
 119  222.2222
 120  335.9066
 121  359.9117
 122  272.3443
 123  354.8546
 124  311.4698
 125  200.4983
 126  339.6879
 127  361.4864
 128  382.763
 129  356.5176
 130  271.3734
 131  213.658
 132  266.0946
 133  228.9992
 134  404.9383
 135  414.37
 136  358.7918
 137  377.4118
 138  443.2731
 139  447.1942
 140  521.5743
 141  668.1823
 142  706.8931
 143  846.9993
 144  925.9039
 145  1124.5
 146  1010.914
 147  796.9216
 148  632.0624
 149  469.9586
 150  430.9228
 151  321.5984
 152  298.5871
 153  473.1939
 154  579.511
 155  464.8955
 156  408.8685
 157  386.4899
 158  475.0147
 159  508.7095
 160  528.7109
 161  568.7772
 162  371.2799
 163  357.7585
 164  418.5471
 165  427.0666
 166  381.768
 167  365.8712
 168  477.165
 169  520.3505
 170  465.001
 171  433.0968
 172  491.9848
 173  537.7241
 174  494.9304
 175  408.6762
 176  440.7262
 177  462.4221
 178  448.0913
 179  370.8544
 180  439.5175
 181  580.4521
 182  421.8156
 183  405.7134
 184  452.4112
 185  414.4083
 186  371.522
 187  407.7163
 188  372.6879
 189  409.4039
 190  365.857
 191  320.332
 192  365.5326
 193  433.1081
 194  411.3467
 195  432.099
 196  381.8871
 197  478.0343
 198  422.1302
 199  499.5048
 200  453.0388
 201  422.9441
 202  426.8674
 203  435.7107
 204  365.6418
 205  428.2356
 206  507.2074
 207  484.9989
 208  339.7668
 209  288.9175
 210  340.9744
 211  406.6047
 212  380.3861
 213  366.4806
 214  406.8329
 215  373.332
 216  351.5435
 217  453.1059
 218  524.3115
 219  358.1588
 220  214.4345
 221  394.6969
 222  426.5578
 223  364.318
 224  356.0922
 225  415.6444
 226  423.6513
 227  391.5926
 228  379.4137
 229  383.539
 230  370.6124
 231  315.5624
 232  347.1394
 233  415.5239
 234  455.8157
 235  379.3463
 236  423.2664
 237  393.6211
 238  423.6484
 239  441.8281
 240  440.0958
 241  448.8819
 242  479.6717
 243  485.8881
 244  551.7455
 245  610.2286
 246  478.0777
 247  478.0169
 248  425.2871
 249  368.1841
 250  314.3755
 251  359.0326
 252  343.5327
 253  331.1552
 254  364.0027
 255  354.2767
 256  311.3359
 257  421.5025
 258  456.7733
 259  432.0531
 260  395.5641
 261  432.7702
 262  459.2004
 263  417.3716
 264  390.8243
 265  438.3116
 266  463.425
 267  377.3541
 268  247.1805
 269  329.8354
 270  373.9024
 271  323.9129
 272  201.8689
 273  363.6987
 274  290.7856
 275  243.9213
 276  244.9873
 277  270.0439
 278  341.7333
 279  390.4507
 280  356.5544
 281  309.8837
 282  343.6914
 283  325.1632
 284  409.6747
 285  401.4026
 286  327.6886
 287  347.6301
 288  292.9706
 289  289.3523
 290  269.9399
 291  437.3925
 292  406.2581
 293  307.475
 294  366.4608
 295  450.9677
 296  438.3435
 297  416.1841
 298  374.8713
 299  325.8096
 300  287.3381
 301  305.3026
 302  365.4902
 303  347.7522
 304  438.447
 305  475.5813
 306  292.9321
 307  358.8376
 308  346.4781
 309  271.2845
 310  307.6639
 311  199.3387
 312  307.4758
 313  320.1672
 314  368.4373
 315  355.2117
 316  457.4101
 317  419.6834
 318  283.8235
 319  216.6117
 320  282.7957
 321  342.3647
 322  485.581
 323  461.9666
 324  354.6032
 325  339.0932
 326  338.5182
 327  228.7715
 328  250.0881
 329  391.9994
 330  305.2458
 331  340.7116
 332  266.1615
 333  272.6717
 334  313.9715
 335  317.583
 336  239.993
 337  256.5633
 338  354.3679
 339  353.5012
 340  370.4791
 341  453.3789
 342  253.3162
 343  122.1785
 344  192.6245
 345  425.3685
 346  447.032
 347  286.622
 348  289.1187
 349  337.205
 350  316.2471
 351  355.1372
 352  341.8628
 353  428.7847
 354  288.9415
 355  418.9443
 356  339.8398
 357  306.7908
 358  317.2016
 359  314.5498
 360  358.2392
 361  398.1255
 362  438.1801
 363  454.7921
 364  365.1193
 365  379.5359
 366  355.1771
 367  297.247
 368  329.2217
 369  406.0587
 370  276.8827
 371  329.7525
 372  393.0992
 373  278.5452
 374  359.8004
 375  327.2063
 376  376.949
 377  359.7532
 378  440.613
 379  568.786
 380  577.7601
 381  398.1655
 382  478.4343
 383  533.2568
 384  471.2838
 385  437.5649
 386  434.2047
 387  515.7285
 388  488.2689
 389  427.537
 390  504.0815
 391  473.0969
 392  468.532
 393  431.4633
 394  312.5689
 395  341.3676
 396  303.5309
 397  346.6466
 398  492.5481
 399  551.5776
 400  473.2232
 401  374.6113
 402  421.2633
 403  392.3708
 404  391.8999
 405  373.9355
 406  401.0463
 407  329.7029
 408  442.1955
 409  437.1909
 410  392.0595
 411  319.4174
 412  475.844
 413  487.2258
 414  467.5152
 415  356.189
 416  316.3496
 417  315.9921
 418  384.3271
 419  540.1317
 420  426.5328
 421  392.7748
 422  488.4745
 423  458.696
 424  465.4691
 425  484.4905
 426  397.0142
 427  447.2518
 428  419.6484
 429  425.726
 430  432.151
 431  514.7899
 432  489.9081
 433  394.8427
 434  421.6468
 435  483.8898
 436  438.2305
 437  447.6416
 438  480.0563
 439  402.3342
 440  401.546
 441  355.8378
 442  356.2052
 443  455.1309
 444  575.7487
 445  440.4893
 446  386.8271
 447  425.359
 448  451.8527
 449  476.5837
 450  492.353
 451  421.1281
 452  393.3308
 453  328.4396
 454  346.71
 455  395.3506
 456  317.8837
 457  451.1825
 458  424.5423
 459  417.4079
 460  435.9173
 461  477.2509
 462  463.3663
 463  485.99
 464  381.0277
 465  413.0074
 466  472.8036
 467  458.8902
 468  451.2932
 469  453.8975
 470  475.023
 471  439.826
 472  388.3736
 473  403.3686
 474  401.0181
 475  362.9217
 476  491.5022
 477  474.4827
 478  359.5127
 479  273.3813
 480  272.0067
 481  281.1877
 482  284.3979
 483  401.1987
 484  463.3738
 485  421.546
 486  453.7997
 487  458.7903
 488  459.871
 489  451.4015
 490  379.7103
 491  328.1463
 492  351.1692
 493  277.4653
 494  379.1373
 495  290.4526
 496  422.1073
 497  525.2238
 498  496.7726
 499  411.5189
 500  349.6057
 501  445.2285
 502  502.5823
 503  522.4069
 504  473.6841
 505  482.7004
 506  463.5099
 507  397.4114
 508  354.2583
 509  399.4384
 510  452.7069
 511  540.0953
