# Input file       =  1206114991.108777_cleaned.dat
# Candidate        =  PSR_0332+5434
# Telescope        =  AR
# Epoch_topo       =  58203.664468851588
# Epoch_bary       =  N/A
# T_sample         =  0.002
# Data Folded      =  7340032
# Data Avg         =  0.22898020285876 
# Data StdDev      =  5.62524657399123 
# Profile Bins     =  256
# Profile Avg      =  6565.83005422502 
# Profile StdDev   =  952.512223884729 
# Reduced chi-sqr  =  1.071
# Prob(Noise)      <  0.209   (~0.8 sigma)
# P_topo (ms)      =  714.572945014245  +/- 0.000585
# P'_topo (s/s)    =  -0                +/- 3.08e-10
# P''_topo (s/s^2) =  0                 +/- 1.36e-13
# P_bary (ms)      =  N/A
# P'_bary (s/s)    =  N/A
# P''_bary (s/s^2) =  N/A
# P_orb (s)        =  N/A
# asin(i)/c (s)    =  N/A
# eccentricity     =  N/A
# w (rad)          =  N/A
# T_peri           =  N/A
######################################################
   0  5088.863
   1  5136.063
   2  5324.495
   3  5440.73
   4  5528.365
   5  6414.062
   6  6077.209
   7  6841.414
   8  6497.481
   9  6781.31
  10  6454.291
  11  6539.945
  12  6292.248
  13  5857.889
  14  6318.744
  15  7188.405
  16  7874.566
  17  6637.679
  18  7116.952
  19  7984.521
  20  7060.126
  21  6080.354
  22  6414.463
  23  5951.021
  24  6233.22
  25  6417.031
  26  6066.407
  27  6333.593
  28  6937.096
  29  7095.306
  30  6768.482
  31  6471.556
  32  5742.609
  33  6042.73
  34  6101.835
  35  5535.51
  36  6511.154
  37  6200.219
  38  5619.595
  39  6623.471
  40  6986.011
  41  7189.037
  42  6851.025
  43  7559.099
  44  7408.754
  45  7684.295
  46  7246.553
  47  7011.729
  48  6332.984
  49  6410.102
  50  6006.259
  51  5728.993
  52  6401.644
  53  6369.818
  54  6742.487
  55  6432.012
  56  6956.073
  57  6880.043
  58  7143.256
  59  6533.927
  60  6840.647
  61  7819.629
  62  7893.495
  63  7713.251
  64  8167.136
  65  7992.259
  66  7905.368
  67  7472.606
  68  7497.835
  69  7237.4
  70  7837.306
  71  6872.658
  72  7248.946
  73  6523.676
  74  7164.396
  75  6503.721
  76  6524.712
  77  6713.727
  78  6870.472
  79  6136.73
  80  6032.814
  81  7683.986
  82  7379.727
  83  7009.8
  84  6947.237
  85  6313.028
  86  6082.454
  87  6720.188
  88  6958.851
  89  6889.354
  90  7153.051
  91  7082.139
  92  6312.188
  93  6574.972
  94  6746.509
  95  7150.401
  96  7380.958
  97  7499.648
  98  7538.903
  99  8014.024
 100  6903.782
 101  7332.901
 102  7664.151
 103  6943.542
 104  7057.546
 105  6711.199
 106  6325.667
 107  6171.58
 108  6298.2
 109  5751.337
 110  5864.971
 111  7056.893
 112  6929.453
 113  6627.51
 114  6633.811
 115  6517.323
 116  7044.977
 117  6236.934
 118  6195.877
 119  6658.245
 120  6563.79
 121  6656.565
 122  6527.247
 123  7021.417
 124  7396.068
 125  7099.541
 126  6547.961
 127  6391.499
 128  6230.23
 129  6644.873
 130  7099.545
 131  7426.192
 132  7290.055
 133  6139.172
 134  7150.928
 135  6927.991
 136  8068.515
 137  8565.909
 138  7384.466
 139  7695.293
 140  7996.44
 141  7253.555
 142  6970.856
 143  7648.558
 144  7428.463
 145  7396.087
 146  6840.86
 147  6842.536
 148  7238.325
 149  7566.644
 150  8547.422
 151  10809.94
 152  10087.72
 153  7742.612
 154  5971.729
 155  6419.368
 156  6451.014
 157  6094.555
 158  6117.911
 159  6589
 160  5746.048
 161  6778.677
 162  5886.501
 163  6500.206
 164  6513.79
 165  6981.47
 166  6835.384
 167  6703.353
 168  6399.831
 169  6832.042
 170  6876.429
 171  7542.427
 172  6697.763
 173  7149.958
 174  7798.896
 175  7377.834
 176  7206.396
 177  6496.414
 178  6228.486
 179  6995.091
 180  6983.885
 181  6532.312
 182  6634.718
 183  6183.769
 184  6148.751
 185  7004.903
 186  7162.741
 187  6700.115
 188  7651.477
 189  7577.062
 190  7388.611
 191  6712.75
 192  5961.665
 193  6639.32
 194  6443.354
 195  6447.114
 196  6652.279
 197  6645.479
 198  6636.746
 199  6242.722
 200  5907.991
 201  5883.156
 202  5099.806
 203  5579.473
 204  6082.242
 205  6189.6
 206  6317.105
 207  5458.021
 208  5691.559
 209  5963.534
 210  6568.349
 211  6323.067
 212  5815.92
 213  5646.118
 214  6679.827
 215  6970.691
 216  5897.447
 217  5239.29
 218  5678.99
 219  5260.25
 220  5146.466
 221  5615.113
 222  5914.989
 223  6279.741
 224  6371.086
 225  6149.406
 226  6281.952
 227  6050.36
 228  5702.005
 229  5278.609
 230  5599.513
 231  5486.119
 232  5098.461
 233  5465.114
 234  5463.008
 235  5733.995
 236  5986.64
 237  5020.606
 238  5564.721
 239  5213.2
 240  5060.728
 241  5000.09
 242  6055.065
 243  6173.598
 244  5479.093
 245  5812.548
 246  5864.396
 247  5435.132
 248  4245.542
 249  5524.782
 250  5506.023
 251  4753.46
 252  4234.286
 253  4271.104
 254  4841.226
 255  5377.044
