# Input file       =  1206201210.122017_cleaned.dat
# Candidate        =  PSR_0332+5434
# Telescope        =  AR
# Epoch_topo       =  58204.662374097417
# Epoch_bary       =  N/A
# T_sample         =  0.002
# Data Folded      =  7340032
# Data Avg         =  0.0282046564489668
# Data StdDev      =  1.00008742218944 
# Profile Bins     =  512
# Profile Avg      =  404.318225172818 
# Profile StdDev   =  119.743503700955 
# Reduced chi-sqr  =  1.310
# Prob(Noise)      <  2.83e-06   (~4.5 sigma)
# P_topo (ms)      =  714.572422200193  +/- 0.000406
# P'_topo (s/s)    =  -0                +/- 2.14e-10
# P''_topo (s/s^2) =  0                 +/- 9.45e-14
# P_bary (ms)      =  N/A
# P'_bary (s/s)    =  N/A
# P''_bary (s/s^2) =  N/A
# P_orb (s)        =  N/A
# asin(i)/c (s)    =  N/A
# eccentricity     =  N/A
# w (rad)          =  N/A
# T_peri           =  N/A
######################################################
   0  1016.168
   1  799.6534
   2  634.8921
   3  472.9396
   4  432.4136
   5  323.3158
   6  297.2489
   7  469.0529
   8  580.176
   9  466.0952
  10  410.1122
  11  386.9046
  12  473.5981
  13  508.0103
  14  527.8878
  15  570.2454
  16  373.5719
  17  355.9652
  18  418.498
  19  427.9997
  20  382.5613
  21  364.2164
  22  475.834
  23  520.3962
  24  466.6843
  25  432.4185
  26  490.4676
  27  537.6839
  28  496.12
  29  410.4743
  30  439.3617
  31  462.7472
  32  447.4577
  33  372.4825
  34  435.4194
  35  581.7655
  36  423.974
  37  404.408
  38  452.2877
  39  417.1739
  40  369.6082
  41  407.9118
  42  372.9406
  43  408.4648
  44  369.4138
  45  317.9197
  46  366.1021
  47  430.3452
  48  413.1101
  49  431.829
  50  381.8653
  51  478.0909
  52  422.0388
  53  497.9249
  54  454.6128
  55  423.7777
  56  426.5114
  57  436.14
  58  366.2125
  59  426.631
  60  506.8936
  61  487.3361
  62  340.8098
  63  288.2666
  64  339.8026
  65  406.083
  66  380.479
  67  367.2367
  68  405.1369
  69  375.5968
  70  350.5497
  71  451.6604
  72  523.4353
  73  362.5312
  74  215.0136
  75  390.4687
  76  428.2761
  77  364.0173
  78  356.8101
  79  413.7898
  80  425.1303
  81  391.1288
  82  380.4366
  83  382.2729
  84  371.6517
  85  316.3159
  86  345.8253
  87  415.2136
  88  455.2067
  89  380.5822
  90  422.394
  91  394.2463
  92  422.3291
  93  442.9423
  94  440.3336
  95  449.0694
  96  476.8755
  97  486.4939
  98  549.9603
  99  611.7402
 100  478.3598
 101  479.2038
 102  425.9163
 103  368.8611
 104  314.1115
 105  358.8019
 106  344.94
 107  330.7279
 108  363.2367
 109  355.6276
 110  310.1855
 111  420.4548
 112  456.3865
 113  431.845
 114  396.6846
 115  431.0982
 116  459.988
 117  418.2365
 118  390.7185
 119  437.1866
 120  463.4413
 121  380.9485
 122  246.6318
 123  327.2528
 124  374.3759
 125  327.196
 126  202.0288
 127  361.351
 128  293.4182
 129  243.7774
 130  243.9661
 131  269.6486
 132  339.8802
 133  390.2938
 134  356.7917
 135  311.2688
 136  342.6658
 137  325.1689
 138  408.5585
 139  402.1093
 140  327.8086
 141  347.6035
 142  295.4512
 143  286.9893
 144  270.1447
 145  434.1484
 146  410.2029
 147  307.4699
 148  365.7799
 149  447.8305
 150  439.4638
 151  417.2774
 152  375.4458
 153  327.0886
 154  287.9426
 155  303.9906
 156  365.8144
 157  346.9766
 158  435.5134
 159  479.0667
 160  295.2677
 161  357.0125
 162  348.9035
 163  270.4668
 164  307.285
 165  198.7755
 166  306.3262
 167  320.5104
 168  367.5877
 169  354.8694
 170  456.0912
 171  420.4686
 172  287.1814
 173  215.8854
 174  281.6963
 175  340.9509
 176  484.5397
 177  462.5651
 178  355.5902
 179  338.5757
 180  340.8795
 181  230.6164
 182  247.7084
 183  391.6615
 184  303.5666
 185  342.7266
 186  266.992
 187  271.5732
 188  313.1881
 189  318.2675
 190  242.2482
 191  254.5217
 192  353.2571
 193  353.1225
 194  369.5309
 195  453.5656
 196  257.0739
 197  124.447
 198  187.6232
 199  422.759
 200  449.7747
 201  288.1932
 202  288.3746
 203  337.5124
 204  315.4127
 205  355.9451
 206  338.7825
 207  431.8893
 208  287.8169
 209  419.874
 210  339.8065
 211  307.4668
 212  316.5279
 213  314.0031
 214  358.4706
 215  397.1543
 216  437.4576
 217  454.5546
 218  366.8015
 219  378.8227
 220  355.4059
 221  299.5184
 222  327.1162
 223  406.7696
 224  279.1777
 225  326.2839
 226  394.1007
 227  279.4971
 228  358.9788
 229  328.1585
 230  375.1949
 231  360.611
 232  438.2348
 233  565.6216
 234  581.1652
 235  398.5734
 236  476.6195
 237  533.993
 238  471.1248
 239  438.524
 240  433.6367
 241  515.1753
 242  489.1088
 243  428.7716
 244  501.9312
 245  474.4314
 246  467.4386
 247  434.4793
 248  312.5738
 249  341.5274
 250  303.8695
 251  345.1453
 252  488.1132
 253  553.166
 254  476.3638
 255  375.4036
 256  420.2773
 257  392.6718
 258  391.9049
 259  373.6475
 260  402.0903
 261  329.6194
 262  440.5295
 263  436.4572
 264  396.1489
 265  316.5871
 266  474.1464
 267  487.0708
 268  468.4515
 269  358.6687
 270  316.6769
 271  316.3762
 272  380.2588
 273  539.5862
 274  429.2906
 275  391.4104
 276  488.5548
 277  457.5692
 278  464.6441
 279  486.7382
 280  396.6236
 281  446.7954
 282  421.0901
 283  426.2068
 284  429.8832
 285  514.6157
 286  489.8226
 287  397.3835
 288  419.4103
 289  484.3176
 290  438.6966
 291  446.9448
 292  480.333
 293  403.8602
 294  400.6213
 295  357.1487
 296  355.3443
 297  453.2943
 298  575.5698
 299  443.3784
 300  384.9955
 301  424.6529
 302  451.934
 303  476.5456
 304  492.8979
 305  422.9498
 306  392.6143
 307  329.6212
 308  346.0757
 309  395.8546
 310  317.5567
 311  448.9082
 312  424.9149
 313  417.7357
 314  435.2246
 315  478.0406
 316  463.1663
 317  486.1765
 318  383.763
 319  409.5253
 320  473.4356
 321  459.5297
 322  450.7868
 323  453.9224
 324  473.4347
 325  442.6105
 326  387.6997
 327  403.1979
 328  402.1884
 329  361.5802
 330  489.7983
 331  476.7946
 332  361.4509
 333  273.82
 334  271.9197
 335  280.6469
 336  283.7498
 337  398.2179
 338  463.2985
 339  422.59
 340  452.8832
 341  459.915
 342  458.8872
 343  452.5442
 344  382.3169
 345  326.4629
 346  353.1039
 347  276.0402
 348  379.4141
 349  289.8387
 350  419.9362
 351  525.4187
 352  497.4354
 353  412.6678
 354  348.9229
 355  443.2758
 356  501.8719
 357  523.4021
 358  473.4553
 359  482.2628
 360  464.8723
 361  397.416
 362  355.4967
 363  399.0042
 364  450.0976
 365  540.1345
 366  488.2338
 367  465.9327
 368  288.7375
 369  324.2824
 370  457.5983
 371  557.0297
 372  434.7052
 373  426.5367
 374  386.3745
 375  575.9189
 376  669.7686
 377  538.2114
 378  482.4687
 379  483.7468
 380  543.0322
 381  542.99
 382  450.195
 383  526.1694
 384  585.4653
 385  497.3736
 386  317.5841
 387  406.3402
 388  516.9656
 389  505.6941
 390  534.2223
 391  340.6966
 392  379.303
 393  501.0125
 394  453.0642
 395  363.8114
 396  431.5252
 397  412.5224
 398  329.6591
 399  324.763
 400  360.7891
 401  363.2454
 402  336.483
 403  338.5994
 404  381.1299
 405  428.2062
 406  458.3074
 407  343.1445
 408  359.5222
 409  394.5666
 410  414.2865
 411  315.4182
 412  368.7469
 413  394.9978
 414  425.7627
 415  369.7304
 416  319.8009
 417  395.3535
 418  434.1759
 419  376.6358
 420  341.7351
 421  264.5015
 422  365.2874
 423  411.6456
 424  276.2047
 425  328.2811
 426  406.1109
 427  369.3783
 428  304.5438
 429  328.3257
 430  294.9622
 431  363.3548
 432  412.1504
 433  396.5934
 434  319.8541
 435  416.3389
 436  391.3905
 437  444.3149
 438  514.6953
 439  564.8376
 440  584.1328
 441  506.0393
 442  463.8113
 443  446.4326
 444  551.6534
 445  548.9324
 446  492.9205
 447  484.315
 448  461.6466
 449  482.2849
 450  468.8961
 451  446.8803
 452  430.5999
 453  479.6335
 454  464.2036
 455  469.6226
 456  354.6251
 457  367.7394
 458  354.1363
 459  367.887
 460  377.6109
 461  401.117
 462  423.0961
 463  378.38
 464  353.4117
 465  424.5291
 466  459.1116
 467  486.0887
 468  468.3878
 469  515.2911
 470  436.338
 471  392.6492
 472  471.5619
 473  361.0885
 474  272.6311
 475  197.9291
 476  241.0363
 477  275.4057
 478  364.9803
 479  401.9257
 480  364.0623
 481  205.8587
 482  139.2731
 483  202.9279
 484  344.9725
 485  223.0758
 486  333.3551
 487  360.6762
 488  273.9927
 489  352.8828
 490  314.3806
 491  201.2388
 492  335.5135
 493  362.8122
 494  381.5611
 495  356.798
 496  272.8152
 497  213.2165
 498  267.1494
 499  229.0244
 500  401.6716
 501  414.5983
 502  359.4451
 503  376.6874
 504  443.1344
 505  448.0123
 506  518.1129
 507  666.8607
 508  705.1737
 509  843.5679
 510  924.7504
 511  1121.254
