# Input file       =  1206272451.117398-PSRB0329-2ms-sampling-dd.dat
# Candidate        =  PSR_0332+5434
# Telescope        =  AR
# Epoch_topo       =  58205.486922655073
# Epoch_bary       =  N/A
# T_sample         =  0.002
# Data Folded      =  7340032
# Data Avg         =  5.0320334903817e-10
# Data StdDev      =  7.68851028592822 
# Profile Bins     =  512
# Profile Avg      =  0.656937324113897
# Profile StdDev   =  920.568681748184 
# Reduced chi-sqr  =  0.454
# Prob(Noise)      <  1   (~0.0 sigma)
# P_topo (ms)      =  714.571643844376  +/- 0.00105
# P'_topo (s/s)    =  -0                +/- 5.53e-10
# P''_topo (s/s^2) =  0                 +/- 2.44e-13
# P_bary (ms)      =  N/A
# P'_bary (s/s)    =  N/A
# P''_bary (s/s^2) =  N/A
# P_orb (s)        =  N/A
# asin(i)/c (s)    =  N/A
# eccentricity     =  N/A
# w (rad)          =  N/A
# T_peri           =  N/A
######################################################
   0  -483.3195
   1  -706.8971
   2  -726.8591
   3  -749.6893
   4  -340.8084
   5  -624.3777
   6  -475.5967
   7  -22.23245
   8  -214.992
   9  -810.1483
  10  -671.8721
  11  -455.1126
  12  -381.1007
  13  -451.7918
  14  -440.261
  15  -465.5625
  16  -254.6353
  17  -466.1512
  18  -529.1306
  19  -439.5041
  20  -532.5483
  21  -606.5509
  22  -545.8386
  23  -253.2295
  24  -266.2991
  25  -497.4039
  26  -85.88014
  27  -90.56838
  28  -109.4133
  29  -562.8098
  30  -708.6359
  31  -469.8435
  32  -408.6225
  33  55.55999
  34  -17.72469
  35  -194.8297
  36  -236.9476
  37  -474.1257
  38  -485.022
  39  -441.3568
  40  -257.4224
  41  -235.2982
  42  -205.0479
  43  -447.0071
  44  -388.437
  45  -483.019
  46  -454.239
  47  -51.71679
  48  -6.008142
  49  106.4945
  50  -66.33488
  51  -149.1366
  52  -450.8136
  53  -320.1104
  54  -203.2361
  55  40.73564
  56  -97.79016
  57  -240.3989
  58  -258.6451
  59  -104.3227
  60  -204.8453
  61  0.1133099
  62  -34.30038
  63  -192.5853
  64  -117.3072
  65  -87.82942
  66  20.88363
  67  -41.69151
  68  -269.0139
  69  -234.5559
  70  -39.01964
  71  41.04696
  72  177.5027
  73  248.2233
  74  131.123
  75  297.6026
  76  716.9563
  77  411.9649
  78  462.3777
  79  134.9772
  80  230.8921
  81  387.8853
  82  300.998
  83  116.3311
  84  112.2692
  85  353.0792
  86  210.0507
  87  491.3924
  88  497.5155
  89  218.923
  90  11.85821
  91  237.6925
  92  247.1594
  93  211.2452
  94  62.13
  95  556.2625
  96  628.5696
  97  696.1388
  98  480.1104
  99  205.1852
 100  441.5884
 101  687.8532
 102  347.0755
 103  111.0431
 104  -13.64054
 105  -192.9104
 106  155.8833
 107  395.7484
 108  405.4197
 109  284.9731
 110  277.6244
 111  11.9272
 112  33.57333
 113  -17.00902
 114  292.8711
 115  329.8659
 116  298.6949
 117  -104.6905
 118  -318.7277
 119  -335.345
 120  -225.1505
 121  -289.7209
 122  -244.2362
 123  -42.1285
 124  -279.3723
 125  -324.647
 126  -400.4116
 127  -249.3204
 128  -39.99146
 129  249.7494
 130  144.4275
 131  423.8763
 132  442.4014
 133  293.0985
 134  379.9727
 135  443.1754
 136  695.8746
 137  503.8347
 138  746.5784
 139  636.7861
 140  579.2667
 141  546.0956
 142  778.5427
 143  683.9152
 144  659.5437
 145  255.9877
 146  522.501
 147  454.0209
 148  442.5745
 149  156.9318
 150  -120.9389
 151  246.3454
 152  326.0613
 153  320.0813
 154  291.4698
 155  398.3991
 156  816.0331
 157  525.3524
 158  267.7802
 159  6.262449
 160  364.3121
 161  123.1394
 162  -67.49312
 163  74.00771
 164  -255.1157
 165  -245.0705
 166  -194.8251
 167  -309.0453
 168  39.38627
 169  -283.5815
 170  -226.7374
 171  -336.4439
 172  -595.9102
 173  -703.0371
 174  -412.7392
 175  -675.8309
 176  -700.4655
 177  -709.2983
 178  -486.123
 179  -569.6615
 180  -569.3966
 181  -655.3309
 182  -907.8119
 183  -840.3243
 184  -1023.749
 185  -1116.153
 186  -953.3289
 187  -850.8129
 188  -839.6815
 189  -671.5654
 190  -807.6083
 191  -744.8632
 192  -863.616
 193  -1087.071
 194  -967.4187
 195  -807.3479
 196  -708.9564
 197  -916.1269
 198  -805.1158
 199  -761.2135
 200  -596.7354
 201  -410.1932
 202  -528.5591
 203  -390.4239
 204  -38.53929
 205  397.2063
 206  222.7144
 207  166.627
 208  114.8297
 209  221.0969
 210  64.58443
 211  -23.02694
 212  388.0485
 213  634.3861
 214  535.429
 215  167.4456
 216  -61.36853
 217  -534.6599
 218  -447.6595
 219  106.2706
 220  431.2841
 221  512.6907
 222  907.7827
 223  313.3123
 224  433.7025
 225  459.7052
 226  567.9153
 227  353.8194
 228  493.9042
 229  978.0137
 230  1089.272
 231  623.1816
 232  167.4348
 233  333.8464
 234  545.0491
 235  596.5983
 236  533.2163
 237  493.8058
 238  509.1737
 239  591.1664
 240  253.5654
 241  34.79536
 242  299.2489
 243  376.6533
 244  489.7891
 245  882.3492
 246  1131.445
 247  686.295
 248  429.3158
 249  379.4255
 250  438.8203
 251  774.0558
 252  819.6856
 253  839.8813
 254  550.8593
 255  282.2604
 256  246.6316
 257  445.937
 258  502.7214
 259  164.3166
 260  336.3253
 261  645.6274
 262  430.2982
 263  404.5898
 264  189.4619
 265  169.4373
 266  393.166
 267  533.6991
 268  456.2551
 269  115.7611
 270  434.6402
 271  75.40925
 272  -35.40348
 273  -201.0704
 274  140.7787
 275  534.7621
 276  325.9875
 277  264.356
 278  110.3991
 279  312.1113
 280  408.858
 281  388.8281
 282  192.4932
 283  329.5776
 284  169.4219
 285  182.4721
 286  -272.6779
 287  93.22369
 288  293.4515
 289  -85.32265
 290  280.4601
 291  365.6994
 292  441.3951
 293  356.985
 294  343.2473
 295  403.5597
 296  272.139
 297  323.3029
 298  341.5828
 299  480.7726
 300  692.9878
 301  622.4742
 302  646.541
 303  757.0789
 304  516.8191
 305  478.8661
 306  197.7952
 307  231.8316
 308  348.9814
 309  581.3533
 310  477.3405
 311  267.1688
 312  229.527
 313  204.3323
 314  247.2111
 315  651.3349
 316  513.1472
 317  106.6005
 318  277.3161
 319  344.3019
 320  83.74197
 321  303.945
 322  452.7107
 323  -161.6734
 324  -202.0437
 325  -360.8673
 326  -620.9702
 327  -544.5888
 328  -335.8431
 329  -36.20236
 330  26.29993
 331  -13.53295
 332  -163.316
 333  10.77516
 334  -33.6063
 335  362.5558
 336  298.3867
 337  -151.5001
 338  -210.8568
 339  -49.57205
 340  4.37076
 341  179.9828
 342  284.9898
 343  347.4211
 344  -25.41748
 345  -109.9929
 346  -531.095
 347  -333.8178
 348  21.44573
 349  117.5941
 350  -133.4461
 351  -465.5098
 352  -711.1393
 353  -579.7684
 354  -402.0329
 355  -210.6065
 356  -157.4539
 357  -348.4863
 358  -458.6203
 359  -481.3093
 360  -365.3706
 361  -91.31815
 362  -345.1193
 363  -454.8713
 364  -445.9434
 365  -302.5193
 366  -491.5065
 367  -363.3636
 368  -211.623
 369  -303.2834
 370  -145.8413
 371  -331.0649
 372  -390.086
 373  -500.0542
 374  -129.3714
 375  275.1279
 376  353.1902
 377  -60.15865
 378  -364.9512
 379  -298.6425
 380  -623.0128
 381  -296.9706
 382  -262.3609
 383  368.146
 384  330.9275
 385  -98.44479
 386  -238.3235
 387  -300.4765
 388  -566.5494
 389  -247.012
 390  -207.4034
 391  -96.73904
 392  -322.0948
 393  -523.395
 394  -665.6108
 395  -593.6479
 396  -199.6995
 397  -177.0043
 398  -379.9548
 399  -528.5238
 400  -241.3338
 401  -32.09836
 402  -92.5802
 403  -397.095
 404  -422.4102
 405  -168.4163
 406  -530.7328
 407  -145.0454
 408  44.36779
 409  118.2989
 410  158.0679
 411  -266.2686
 412  68.36691
 413  -8.705863
 414  -70.57452
 415  -121.8712
 416  38.80103
 417  168.6258
 418  163.0399
 419  354.1049
 420  406.1468
 421  50.13676
 422  53.78076
 423  157.2979
 424  323.7884
 425  161.9451
 426  -151.3676
 427  -215.9276
 428  -266.2346
 429  -494.6183
 430  81.56826
 431  214.7067
 432  287.8311
 433  329.5703
 434  243.5706
 435  -42.49399
 436  -203.9568
 437  -122.1574
 438  -257.0883
 439  -75.9723
 440  154.975
 441  388.1684
 442  345.6491
 443  325.5028
 444  397.1293
 445  61.4157
 446  483.4188
 447  1260.812
 448  1583.493
 449  2245.36
 450  1956.782
 451  1279.523
 452  613.4423
 453  -326.4301
 454  -938.0338
 455  -640.9902
 456  -173.2618
 457  38.01953
 458  -176.1571
 459  -32.41966
 460  -296.0538
 461  -340.1991
 462  -17.59731
 463  -160.6783
 464  182.4435
 465  643.7164
 466  317.0997
 467  68.91979
 468  125.9452
 469  -91.97657
 470  -114.9301
 471  21.02361
 472  395.0117
 473  420.3467
 474  701.7844
 475  31.87178
 476  -89.34367
 477  26.31759
 478  160.4897
 479  -280.3539
 480  -229.4942
 481  12.15041
 482  -56.83103
 483  271.0002
 484  116.2888
 485  -168.3648
 486  -614.7535
 487  -791.7014
 488  -633.066
 489  -616.775
 490  -568.9542
 491  -541.8709
 492  -494.2161
 493  -155.5292
 494  -60.51813
 495  -224.2069
 496  -202.863
 497  -469.5263
 498  -144.1935
 499  -88.51711
 500  -138.9739
 501  -104.7943
 502  -140.5222
 503  -315.4764
 504  -304.1031
 505  -425.0209
 506  -444.1171
 507  -743.1495
 508  -752.7864
 509  -916.0201
 510  -796.5738
 511  -731.209
