# Input file       =  1206287371.110199_cleaned.dat
# Candidate        =  PSR_0332+5434
# Telescope        =  AR
# Epoch_topo       =  58205.659607756934
# Epoch_bary       =  N/A
# T_sample         =  0.002
# Data Folded      =  7340032
# Data Avg         =  0.178965697824813
# Data StdDev      =  5.26936485079863 
# Profile Bins     =  512
# Profile Avg      =  2565.80055539408 
# Profile StdDev   =  630.917053363125 
# Reduced chi-sqr  =  0.878
# Prob(Noise)      <  0.978   (~0.0 sigma)
# P_topo (ms)      =  714.571886722467  +/- 0.000288
# P'_topo (s/s)    =  -0                +/- 1.52e-10
# P''_topo (s/s^2) =  0                 +/- 6.71e-14
# P_bary (ms)      =  N/A
# P'_bary (s/s)    =  N/A
# P''_bary (s/s^2) =  N/A
# P_orb (s)        =  N/A
# asin(i)/c (s)    =  N/A
# eccentricity     =  N/A
# w (rad)          =  N/A
# T_peri           =  N/A
######################################################
   0  2680.661
   1  2799.051
   2  3167.422
   3  2854.292
   4  2948.994
   5  3025.455
   6  2706.255
   7  2461.23
   8  2496.042
   9  2414.169
  10  3135.135
  11  3120.909
  12  2711.788
  13  2652.126
  14  2957.301
  15  2458.755
  16  2355.959
  17  2824.215
  18  2582.242
  19  2262.484
  20  2674.722
  21  3225.709
  22  3015.497
  23  2808.952
  24  2794.543
  25  2538.531
  26  2753.085
  27  2830.455
  28  2720.514
  29  2595.522
  30  2444.139
  31  2620.734
  32  2786.109
  33  2771.72
  34  2463.306
  35  2070.773
  36  2404.543
  37  2416.543
  38  2370.712
  39  2619.453
  40  3089.905
  41  3093.573
  42  3205.237
  43  3014.477
  44  2769.376
  45  3039.152
  46  3073.631
  47  3038.654
  48  3044.421
  49  2789.197
  50  2758.393
  51  2579.686
  52  2947.47
  53  3037.768
  54  3045.216
  55  2881.687
  56  2757.047
  57  2870.446
  58  2587.035
  59  2456.944
  60  2557.197
  61  2741.919
  62  3169.097
  63  3093.706
  64  2415.447
  65  2530.828
  66  3121.969
  67  2891.473
  68  2842.012
  69  2522.698
  70  3011.735
  71  2809.2
  72  2480.251
  73  2618.261
  74  3003.69
  75  2650.843
  76  2366.92
  77  2296.615
  78  2521.633
  79  2924.124
  80  2977.466
  81  2817.448
  82  2504.1
  83  2761.904
  84  2799.581
  85  2700.872
  86  2851.548
  87  2958.835
  88  2869.164
  89  2954.283
  90  2706.666
  91  2754.573
  92  2617.953
  93  2279.279
  94  2167.557
  95  2559.675
  96  2839.159
  97  2838.66
  98  2760.389
  99  2751.504
 100  2676.567
 101  3082.095
 102  2940.982
 103  2686.288
 104  2727.245
 105  2430.085
 106  2006.544
 107  2469.144
 108  3025.283
 109  2627.278
 110  2692.797
 111  2811.881
 112  2913.203
 113  2672.269
 114  2392.396
 115  2225.774
 116  1853.2
 117  2046.966
 118  2949.211
 119  2702.662
 120  2274.992
 121  2157.807
 122  2186.271
 123  2464.438
 124  2625.143
 125  2288.829
 126  2100.021
 127  2092.64
 128  2146.726
 129  2677.351
 130  3046.143
 131  2979.364
 132  2457.661
 133  2514.205
 134  2487.692
 135  2610.627
 136  2989.856
 137  2776.951
 138  3014.735
 139  2960.523
 140  2809.053
 141  2783.709
 142  2607.529
 143  2971.245
 144  3257.045
 145  3060.714
 146  2946.409
 147  3031.66
 148  2911.395
 149  3085.741
 150  2692.715
 151  2432.816
 152  2398.06
 153  2789.076
 154  2770.869
 155  2366.684
 156  2354.57
 157  2545.129
 158  2319.213
 159  2516.52
 160  2556.973
 161  2622.934
 162  2824.272
 163  2948.766
 164  2935.277
 165  2961.16
 166  2487.117
 167  2414.873
 168  2466.926
 169  2450.102
 170  2569.927
 171  3147.952
 172  2981.433
 173  2468.755
 174  2802.535
 175  2598.785
 176  2553.86
 177  2954.844
 178  3254.794
 179  3118.485
 180  2834.659
 181  2804.522
 182  3029.544
 183  2875.021
 184  2809.939
 185  2723.262
 186  2485.753
 187  1893.877
 188  2239.177
 189  2668.644
 190  2392.873
 191  2214.624
 192  2384.914
 193  2174.458
 194  2062.59
 195  2131.885
 196  2428.059
 197  2214.544
 198  2216.562
 199  2202.353
 200  2042.608
 201  1820.399
 202  2534.86
 203  2551.424
 204  2554.524
 205  2711.486
 206  2498.732
 207  2484.165
 208  2167.136
 209  2654.974
 210  2389.909
 211  2328.442
 212  2498.285
 213  2314.307
 214  2366.926
 215  2784.86
 216  2423.373
 217  1967.753
 218  2357.183
 219  2666.778
 220  2446.755
 221  2458.41
 222  2104.702
 223  2259.259
 224  2475.732
 225  2193.901
 226  2449.114
 227  2607.154
 228  2420.24
 229  2339.822
 230  2381.368
 231  2387.08
 232  1737.915
 233  1709.96
 234  1632.354
 235  2210.112
 236  1895.862
 237  1495.423
 238  2296.578
 239  2344.736
 240  1548.411
 241  2109.506
 242  1831.755
 243  2235.559
 244  2652.398
 245  2387.998
 246  2615.129
 247  2240.977
 248  2316.714
 249  2167.094
 250  2108.544
 251  2173.506
 252  2228.269
 253  2146.495
 254  2071.245
 255  1879.384
 256  1608.537
 257  1604.958
 258  2004.382
 259  1767.052
 260  1670.453
 261  2213.977
 262  2346.193
 263  2340.608
 264  2313.709
 265  2376.766
 266  2125.08
 267  1883.778
 268  2130.503
 269  2422.278
 270  2537.985
 271  2546.068
 272  2338.412
 273  2092.292
 274  1910.991
 275  1704.319
 276  2230.444
 277  2416.872
 278  2232.814
 279  2102.548
 280  1991.871
 281  2017.454
 282  1943.778
 283  1417.127
 284  1394.184
 285  2037.707
 286  2292.586
 287  2082.676
 288  1811.514
 289  1926.06
 290  2265.116
 291  2136.549
 292  1891.123
 293  1777.066
 294  1805.258
 295  2290.081
 296  1997.494
 297  2322.061
 298  2513.101
 299  2076.439
 300  2781.352
 301  3580.033
 302  4084.842
 303  4402.14
 304  4190.627
 305  2912.677
 306  2888.382
 307  2709.397
 308  2448.919
 309  2328.717
 310  2520.977
 311  2663.284
 312  2951.691
 313  2942.82
 314  2693.746
 315  2453.519
 316  2166.992
 317  2259.591
 318  2312.631
 319  2478.776
 320  2720.862
 321  2185.698
 322  2580.539
 323  2227.829
 324  2233.969
 325  2044.165
 326  1733.719
 327  1704.222
 328  1937.139
 329  2055.814
 330  2547.445
 331  2173.76
 332  1926.733
 333  2012.648
 334  2309.061
 335  2214.167
 336  2203.962
 337  2354.159
 338  2349.74
 339  2187.077
 340  1927.937
 341  2432.57
 342  2182.248
 343  1912.191
 344  2007.682
 345  2289.953
 346  2590.599
 347  2744.922
 348  2429.466
 349  2553.647
 350  2792.423
 351  2488.819
 352  2426.16
 353  2468.658
 354  2637.579
 355  2133.275
 356  2216.275
 357  2573.012
 358  2358.007
 359  2575.057
 360  2608.177
 361  2597.749
 362  3249.925
 363  2730.395
 364  2463.633
 365  2399.026
 366  2541.193
 367  2400.921
 368  2253.525
 369  2039.991
 370  1901.66
 371  2137.838
 372  2029.415
 373  1654.254
 374  1977.056
 375  1613.232
 376  1787.747
 377  2095.636
 378  2436.474
 379  2127.369
 380  1698.451
 381  1500.596
 382  1641.563
 383  1814.053
 384  1946.917
 385  1942.006
 386  2020.005
 387  1821.87
 388  2169.756
 389  2229.867
 390  1941.936
 391  1840.269
 392  1841.118
 393  2654.232
 394  2600.953
 395  2404.681
 396  2473.122
 397  2408.074
 398  2621.238
 399  2293.651
 400  2244.948
 401  2202.305
 402  2820.42
 403  2875.031
 404  3069.318
 405  3469.103
 406  3103.767
 407  2934.259
 408  3273.54
 409  3683.656
 410  3041.24
 411  3153.144
 412  3649.21
 413  3333.82
 414  2977.801
 415  2906.918
 416  3046.076
 417  2943.511
 418  2751.268
 419  2890.781
 420  2971.805
 421  3123.822
 422  2885.796
 423  2778.889
 424  2544.557
 425  2598.942
 426  2712.151
 427  2847.283
 428  2911.345
 429  3129.147
 430  2913.354
 431  2899.292
 432  3096.504
 433  3049.243
 434  2951.411
 435  2994.457
 436  3198.636
 437  3253.063
 438  3045.742
 439  2982.489
 440  2915.268
 441  3150.562
 442  3168.34
 443  2845.756
 444  3166.711
 445  3036.333
 446  2897.102
 447  2889.89
 448  2797.21
 449  2889.356
 450  3054.45
 451  2908.949
 452  2650.509
 453  3105.57
 454  3217.187
 455  2860.011
 456  2866.812
 457  2469.025
 458  2268.089
 459  2363.505
 460  2555.269
 461  2958.271
 462  2639.79
 463  2266.266
 464  2408.033
 465  2718.761
 466  2683.981
 467  3041.417
 468  2842.451
 469  3008.891
 470  3005.108
 471  2945.808
 472  2854.529
 473  3171.264
 474  3038.679
 475  3359.623
 476  3141.86
 477  2856.901
 478  2714.971
 479  2742.41
 480  2874.481
 481  2964.503
 482  3183.882
 483  2879.583
 484  3031.58
 485  2924.871
 486  2875.565
 487  2979.713
 488  3478.981
 489  3222.309
 490  2907.183
 491  3155.766
 492  2657.453
 493  2918.188
 494  3305.455
 495  3326.576
 496  2875.45
 497  2352.51
 498  2261.934
 499  2678.381
 500  2585.151
 501  2859.451
 502  2722.135
 503  2551.414
 504  2387.97
 505  2622.665
 506  2306.8
 507  2378.812
 508  2804.64
 509  2828.783
 510  2693.301
 511  2649.092
