# Input file       =  1206201210.122017-PSRB0329-2ms-sampling-dd.dat
# Candidate        =  PSR_0332+5434
# Telescope        =  AR
# Epoch_topo       =  58204.662374097417
# Epoch_bary       =  N/A
# T_sample         =  0.002
# Data Folded      =  7340032
# Data Avg         =  2.93014623397405e-10
# Data StdDev      =  8.92188267686092 
# Profile Bins     =  512
# Profile Avg      =  0.0472830682795888
# Profile StdDev   =  1068.24410309783 
# Reduced chi-sqr  =  0.453
# Prob(Noise)      <  1   (~0.0 sigma)
# P_topo (ms)      =  714.572422979611  +/- 0.000902
# P'_topo (s/s)    =  -0                +/- 4.76e-10
# P''_topo (s/s^2) =  0                 +/- 2.1e-13
# P_bary (ms)      =  N/A
# P'_bary (s/s)    =  N/A
# P''_bary (s/s^2) =  N/A
# P_orb (s)        =  N/A
# asin(i)/c (s)    =  N/A
# eccentricity     =  N/A
# w (rad)          =  N/A
# T_peri           =  N/A
######################################################
   0  615.4483
   1  589.5466
   2  -11.13661
   3  -81.20937
   4  150.0595
   5  374.0183
   6  -140.9385
   7  299.9985
   8  592.4224
   9  1002.575
  10  1227.753
  11  557.7756
  12  289.5317
  13  412.0228
  14  627.0964
  15  455.1338
  16  -38.84883
  17  -120.0485
  18  -218.9941
  19  -42.57616
  20  -339.7667
  21  -476.4551
  22  -272.5822
  23  -390.0409
  24  -260.572
  25  -705.8939
  26  -261.8026
  27  114.3253
  28  28.02627
  29  -223.6351
  30  -124.4472
  31  -81.60515
  32  -75.22839
  33  -260.3059
  34  72.37585
  35  200.1074
  36  33.49307
  37  103.394
  38  247.5966
  39  502.7123
  40  694.7498
  41  440.4597
  42  384.0241
  43  239.538
  44  551.1337
  45  223.2741
  46  141.19
  47  147.3616
  48  375.4613
  49  316.9113
  50  237.7484
  51  381.099
  52  371.729
  53  282.8933
  54  115.7207
  55  -168.067
  56  223.1028
  57  734.9808
  58  486.6174
  59  413.6898
  60  407.5174
  61  395.209
  62  -45.78014
  63  -220.8093
  64  -126.9543
  65  307.0845
  66  673.1558
  67  679.8433
  68  348.6091
  69  621.2112
  70  380.9649
  71  630.5646
  72  799.8532
  73  1116.46
  74  1211.733
  75  1025.997
  76  556.9454
  77  753.9174
  78  1297.86
  79  1368.025
  80  1133.484
  81  928.3364
  82  605.0555
  83  315.4442
  84  348.5414
  85  560.5438
  86  742.7674
  87  740.7614
  88  508.0498
  89  -92.94656
  90  -284.974
  91  -71.65133
  92  -314.808
  93  -405.2899
  94  -423.0082
  95  -467.2173
  96  -376.0108
  97  -485.075
  98  -594.8354
  99  -177.9999
 100  -30.32493
 101  -156.6529
 102  -380.0169
 103  -45.48444
 104  -406.0536
 105  -479.6745
 106  -356.3842
 107  -794.7397
 108  -1065.622
 109  -1361.869
 110  -1272.924
 111  -1267.01
 112  -832.7845
 113  -635.8909
 114  -648.4265
 115  -1121.601
 116  -1196.994
 117  -1214.276
 118  -706.9684
 119  -1153.763
 120  -779.6187
 121  -581.5975
 122  -642.2637
 123  89.26439
 124  46.15734
 125  39.73106
 126  441.5486
 127  260.207
 128  -60.9697
 129  -416.4571
 130  222.935
 131  508.3107
 132  1015.126
 133  202.7202
 134  236.1732
 135  -511.3802
 136  -647.9291
 137  -456.8478
 138  90.29743
 139  386.1688
 140  480.5304
 141  788.3718
 142  701.8735
 143  1188.864
 144  1510.285
 145  2227.218
 146  2019.222
 147  1489.049
 148  911.5972
 149  351.7405
 150  133.5442
 151  -304.6191
 152  -423.4406
 153  58.75359
 154  468.4391
 155  53.51648
 156  -171.2698
 157  -125.6947
 158  -70.48803
 159  -235.8787
 160  -264.4742
 161  70.34681
 162  -533.9612
 163  -340.8725
 164  -390.09
 165  -130.0906
 166  -369.957
 167  -549.7375
 168  -177.2927
 169  -47.29278
 170  52.92561
 171  -44.23557
 172  44.65036
 173  5.284594
 174  -240.0276
 175  -212.9996
 176  -41.93137
 177  319.65
 178  89.87406
 179  -114.1484
 180  -90.13265
 181  224.7486
 182  74.71598
 183  -61.13437
 184  175.1933
 185  10.54768
 186  -210.4239
 187  54.84657
 188  58.05356
 189  429.6254
 190  62.003
 191  100.4851
 192  91.37592
 193  -12.26209
 194  300.8184
 195  838.509
 196  813.8702
 197  648.8232
 198  289.8633
 199  315.9221
 200  146.1321
 201  352.1576
 202  142.1816
 203  -37.81538
 204  119.8483
 205  209.8986
 206  416.2802
 207  848.5333
 208  439.2029
 209  45.38717
 210  -134.1729
 211  112.9436
 212  367.7515
 213  351.9474
 214  674.6553
 215  360.1318
 216  440.6097
 217  571.3363
 218  394.1853
 219  -22.15136
 220  -624.6866
 221  139.8657
 222  93.11044
 223  -69.70704
 224  -188.3508
 225  -35.55722
 226  -67.51848
 227  -91.06156
 228  -253.3342
 229  -352.239
 230  -163.7292
 231  -625.2432
 232  -449.019
 233  -59.64105
 234  -3.157442
 235  -91.56299
 236  130.8504
 237  175.0092
 238  362.7843
 239  285.1375
 240  385.6693
 241  358.0535
 242  576.3715
 243  723.9091
 244  732.7345
 245  782.0106
 246  644.3569
 247  702.9389
 248  375.1972
 249  162.2504
 250  -322.9492
 251  -269.0619
 252  -120.8053
 253  -123.8428
 254  299.9897
 255  284.7798
 256  141.0728
 257  727.3088
 258  802.5232
 259  847.0927
 260  687.4976
 261  609.5761
 262  681.749
 263  575.8663
 264  408.8248
 265  541.4103
 266  354.4245
 267  153.4688
 268  -461.4767
 269  -550.0137
 270  -381.3154
 271  -486.5459
 272  -598.2355
 273  -416.9037
 274  -903.9095
 275  -993.6275
 276  -968.7858
 277  -671.348
 278  -330.7515
 279  -341.7096
 280  -359.9727
 281  -633.6136
 282  -525.0754
 283  -505.4626
 284  -189.6121
 285  -213.6727
 286  -218.7332
 287  -419.9663
 288  -628.023
 289  -672.6484
 290  -744.8484
 291  -222.2995
 292  -398.157
 293  -766.7534
 294  -534.0469
 295  -111.0188
 296  -222.1758
 297  -364.8648
 298  -266.4119
 299  -157.8004
 300  -241.605
 301  -471.1589
 302  -329.0282
 303  -75.23244
 304  234.8826
 305  501.39
 306  -38.85275
 307  10.57133
 308  69.88831
 309  -322.8098
 310  -63.50494
 311  -483.2039
 312  -425.9572
 313  -425.6582
 314  -222.6657
 315  -144.7306
 316  -119.8469
 317  -129.4685
 318  -911.8033
 319  -1228.97
 320  -1333.961
 321  -1062.235
 322  -467.8104
 323  -396.4803
 324  -415.2728
 325  -578.7294
 326  -843.1553
 327  -1270.304
 328  -1072.921
 329  -642.0398
 330  -740.6169
 331  -358.9664
 332  -785.0185
 333  -710.7887
 334  -928.0151
 335  -644.1995
 336  -693.9319
 337  -401.8631
 338  113.0476
 339  150.1034
 340  219.9803
 341  -33.6954
 342  -343.8615
 343  -889.015
 344  -510.5826
 345  96.70231
 346  0.3264304
 347  -321.8182
 348  -494.7255
 349  -273.5405
 350  -150.0836
 351  42.64143
 352  -104.8805
 353  -10.82301
 354  -157.5971
 355  174.8497
 356  72.30596
 357  -233.8713
 358  29.55766
 359  -234.0127
 360  -181.2593
 361  356.5995
 362  319.7266
 363  355.6008
 364  -141.0076
 365  114.652
 366  72.05013
 367  76.08321
 368  110.4703
 369  146.4479
 370  -205.3919
 371  -252.1857
 372  51.61687
 373  -128.1486
 374  311.4671
 375  129.0492
 376  248.8033
 377  218.5427
 378  188.337
 379  489.1336
 380  273.0482
 381  -240.9867
 382  278.3603
 383  731.2725
 384  323.3397
 385  -37.32766
 386  205.4065
 387  557.9067
 388  697.0897
 389  557.9912
 390  764.7256
 391  481.5917
 392  181.0596
 393  207.7057
 394  -109.0995
 395  31.142
 396  -132.3772
 397  -106.5778
 398  30.27382
 399  315.5952
 400  87.00476
 401  -552.7104
 402  -318.8783
 403  -127.3271
 404  -79.17783
 405  -271.865
 406  16.06743
 407  436.2309
 408  740.3052
 409  590.9605
 410  287.7299
 411  242.78
 412  714.1822
 413  668.461
 414  624.1561
 415  560.4585
 416  833.5889
 417  649.643
 418  482.9975
 419  688.0693
 420  148.2047
 421  287.748
 422  474.5602
 423  320.8453
 424  284.1991
 425  228.9619
 426  -51.61236
 427  80.7886
 428  109.3886
 429  196.1283
 430  90.52307
 431  118.5907
 432  51.95876
 433  -353.6283
 434  -215.2227
 435  -324.6361
 436  -226.9028
 437  276.1434
 438  284.0719
 439  56.88688
 440  13.88282
 441  15.9473
 442  -275.896
 443  -364.3723
 444  -148.6586
 445  -671.0321
 446  -851.6973
 447  -825.9744
 448  -456.482
 449  -485.8296
 450  -595.4477
 451  -850.2209
 452  -614.662
 453  -912.7634
 454  -1266.434
 455  -710.3793
 456  -951.9619
 457  -469.4818
 458  -557.9675
 459  -627.3523
 460  -590.5354
 461  -565.2714
 462  -532.9227
 463  -530.4882
 464  -871.9117
 465  -442.4481
 466  -226.2705
 467  -291.256
 468  -753.5349
 469  -757.3848
 470  -366.5426
 471  -241.4395
 472  -515.8134
 473  -124.1048
 474  79.31499
 475  -435.2487
 476  -74.96179
 477  -489.0173
 478  -937.7593
 479  -1125.564
 480  -801.9269
 481  -692.3442
 482  -505.015
 483  -675.3599
 484  -440.764
 485  -253.2517
 486  -85.15539
 487  321.1555
 488  311.8987
 489  177.3681
 490  -208.1495
 491  -298.0267
 492  -2.77082
 493  -236.0919
 494  22.92575
 495  -211.8697
 496  261.607
 497  747.4031
 498  629.0157
 499  304.6376
 500  141.6312
 501  299.6255
 502  434.5781
 503  590.7037
 504  689.6774
 505  936.3091
 506  1037.454
 507  853.8552
 508  530.809
 509  303.595
 510  154.5804
 511  394.7678
