# Input file       =  1206171627.11937_cleaned.dat
# Candidate        =  PSR_0332+5434
# Telescope        =  AR
# Epoch_topo       =  58204.319978233449
# Epoch_bary       =  N/A
# T_sample         =  0.002
# Data Folded      =  7208960
# Data Avg         =  0.272041572521397
# Data StdDev      =  6.57788022553014 
# Profile Bins     =  512
# Profile Avg      =  3830.51291467378 
# Profile StdDev   =  780.525846029969 
# Reduced chi-sqr  =  2.869
# Prob(Noise)      <  4.87e-93   (~20.4 sigma)
# P_topo (ms)      =  714.57225076045   +/- 1.43e-05
# P'_topo (s/s)    =  -0                +/- 7.68e-12
# P''_topo (s/s^2) =  0                 +/- 3.45e-15
# P_bary (ms)      =  N/A
# P'_bary (s/s)    =  N/A
# P''_bary (s/s^2) =  N/A
# P_orb (s)        =  N/A
# asin(i)/c (s)    =  N/A
# eccentricity     =  N/A
# w (rad)          =  N/A
# T_peri           =  N/A
######################################################
   0  5341.579
   1  4310.219
   2  2945.993
   3  3151.226
   4  3878.741
   5  4363.673
   6  4107.979
   7  4167.39
   8  4372.216
   9  3442.632
  10  2155.95
  11  2166.728
  12  3334.951
  13  4071.58
  14  4120.528
  15  4762.494
  16  5567.648
  17  4821.323
  18  3591.325
  19  2451.407
  20  2857.201
  21  3281.611
  22  3504.14
  23  4147.505
  24  5228.366
  25  4846.896
  26  3285.314
  27  1938.417
  28  2356.013
  29  3195.299
  30  3821.233
  31  4421.477
  32  5147.293
  33  5424.228
  34  4076.296
  35  2944.059
  36  2906.887
  37  4113.957
  38  4480.858
  39  4563.176
  40  4932.868
  41  4654.778
  42  3615.762
  43  2378.363
  44  2293.707
  45  3428.697
  46  4436.917
  47  4054.461
  48  4869.727
  49  5535.527
  50  4931.553
  51  3173.616
  52  2598.895
  53  3021.924
  54  3818.744
  55  4071.995
  56  4373.339
  57  4934.092
  58  4599.762
  59  3199.211
  60  2086.832
  61  2059.021
  62  2965.58
  63  3739.555
  64  4191.688
  65  5473.021
  66  5607.836
  67  4356.755
  68  3107.469
  69  3123.528
  70  3802.102
  71  3824.396
  72  3568.28
  73  4278.27
  74  4803.667
  75  3899.435
  76  2404.056
  77  2001.696
  78  2867.538
  79  3901.274
  80  3978.638
  81  4697.245
  82  4935.634
  83  4819.635
  84  3729.921
  85  2775.93
  86  3130
  87  4383.398
  88  4375.158
  89  4134.038
  90  4354.632
  91  4553.302
  92  3065.016
  93  2191.713
  94  2225.998
  95  3359.054
  96  3672.324
  97  4164.893
  98  5422.528
  99  5747.708
 100  4702.17
 101  2977.584
 102  2351.816
 103  3238.834
 104  3320.784
 105  3449.857
 106  4170.522
 107  4935.352
 108  3822.261
 109  2559.09
 110  1970.806
 111  3007.805
 112  3531.685
 113  3705.357
 114  4487.875
 115  4998.527
 116  4562.931
 117  3327.031
 118  2318.195
 119  3069.459
 120  4152.885
 121  4247.442
 122  4008.424
 123  4642.67
 124  4809.786
 125  3221.323
 126  1660.749
 127  2351.299
 128  3601.558
 129  4223.03
 130  4485.476
 131  5044.22
 132  5483.634
 133  4427.439
 134  2744.052
 135  2693.194
 136  3268.301
 137  3392.194
 138  3325.59
 139  4457.133
 140  4925.827
 141  3755.187
 142  2119.122
 143  2183.597
 144  2904.913
 145  3762.163
 146  3697.829
 147  4231.455
 148  5140.701
 149  5027.22
 150  4057.749
 151  2636.052
 152  2814.108
 153  3576.03
 154  4266.687
 155  4338.795
 156  4712.394
 157  4427.693
 158  2895.08
 159  2207.378
 160  2592.419
 161  3377.324
 162  4372.775
 163  4346.221
 164  5185.237
 165  5897.617
 166  4691.996
 167  3493.453
 168  2896.442
 169  3748.803
 170  4028.292
 171  3799.504
 172  4750.336
 173  5015.055
 174  4024.04
 175  2563.978
 176  1930.536
 177  2687.156
 178  3681.007
 179  3840.572
 180  4762.351
 181  5730.564
 182  5354.178
 183  3822.146
 184  2766.728
 185  3134.737
 186  3917.804
 187  3570.941
 188  4141.399
 189  4880.022
 190  4654.632
 191  3322.609
 192  2145.938
 193  2267.265
 194  3545.955
 195  3984.287
 196  4332.714
 197  5064.617
 198  5334.682
 199  4132.08
 200  2835.203
 201  2193.211
 202  2955.742
 203  3893.351
 204  3725.409
 205  4083.236
 206  4744.311
 207  3839.808
 208  2663.497
 209  1903.746
 210  2754.57
 211  3090.222
 212  3531.931
 213  4454.39
 214  5643.864
 215  5293.651
 216  4140.338
 217  2572.034
 218  2888.736
 219  3688.495
 220  3706.812
 221  3857.426
 222  4309.247
 223  4478.373
 224  3565.998
 225  2543.278
 226  3117.356
 227  3708.75
 228  4156.333
 229  4403.291
 230  5412.731
 231  5321.668
 232  4632.972
 233  3469.094
 234  2533.246
 235  3037.386
 236  3244.824
 237  3373.018
 238  4318.62
 239  5301.782
 240  4909.892
 241  2803.542
 242  1877.365
 243  2396.35
 244  3347.984
 245  3884.248
 246  4428.605
 247  5087.802
 248  5126.221
 249  3702.425
 250  3088.515
 251  3223.709
 252  3876.476
 253  3559.142
 254  3653.44
 255  4599.823
 256  4735.844
 257  3182.722
 258  2715.515
 259  2777.608
 260  3546.813
 261  3527.855
 262  4298.362
 263  5156.731
 264  5092.925
 265  4349.067
 266  3016.052
 267  2798.059
 268  3496.993
 269  4031.273
 270  3908.284
 271  3851.115
 272  5056.855
 273  3888.977
 274  2562.271
 275  2167.851
 276  2658.96
 277  3190.518
 278  3670.191
 279  4569.116
 280  5430.976
 281  5088.423
 282  3876.496
 283  2976.837
 284  2977.956
 285  3853.768
 286  3680.197
 287  3531.554
 288  4058.787
 289  4569.445
 290  3500.125
 291  2424.782
 292  2576.74
 293  3391.957
 294  3844.7
 295  4087.843
 296  4821.822
 297  5252.871
 298  4902.775
 299  3727.761
 300  3532.038
 301  4824.12
 302  6079.484
 303  5944.997
 304  6363.733
 305  6391.544
 306  5040.638
 307  2809.848
 308  1894.134
 309  2914.301
 310  3558.197
 311  3710.683
 312  4358.715
 313  5906.126
 314  5745.732
 315  4348.781
 316  3267.787
 317  3535.713
 318  3587.752
 319  3305.017
 320  3340.59
 321  4715.079
 322  4999.949
 323  4030.808
 324  2903.252
 325  2607.227
 326  3187.05
 327  3639.66
 328  4032.886
 329  4917.847
 330  4777.332
 331  4448.175
 332  3200.335
 333  2790.944
 334  3852.687
 335  4431.178
 336  4288.495
 337  4352.998
 338  5181.813
 339  4131.952
 340  2302.401
 341  2010.281
 342  3382.662
 343  4598.702
 344  4449.777
 345  4329.256
 346  5015.921
 347  5150.935
 348  3963.518
 349  3003.44
 350  2937.311
 351  4026.441
 352  3949.043
 353  4016.415
 354  4916.181
 355  5117.88
 356  3858.04
 357  2579.934
 358  2440.506
 359  3026.008
 360  3441.069
 361  3947.343
 362  4599.107
 363  5444.084
 364  4774.121
 365  3151.562
 366  2500.644
 367  3330.125
 368  3905.059
 369  3580.662
 370  3954.18
 371  4664.562
 372  4051.287
 373  2605.033
 374  1810.194
 375  2406.704
 376  3684.258
 377  3773.292
 378  4302.095
 379  5635.258
 380  5385.09
 381  4106.651
 382  2552.591
 383  2210.416
 384  2960.951
 385  3338.883
 386  4151.974
 387  4855.306
 388  5376.482
 389  4189.293
 390  1965.962
 391  2060.26
 392  2735.64
 393  3382.349
 394  3708.852
 395  5139.921
 396  5849.302
 397  5238.182
 398  3711.355
 399  2720.869
 400  3234.162
 401  3592.914
 402  3362.271
 403  3639.955
 404  4424.246
 405  4273.558
 406  2908.682
 407  2402.684
 408  3220.106
 409  3787.979
 410  3805.635
 411  4109.249
 412  5174.565
 413  5086.531
 414  4038.82
 415  2736.064
 416  3006.441
 417  4008.533
 418  4295.005
 419  4184.528
 420  4779.376
 421  4773.521
 422  3801.52
 423  2427.685
 424  1768.023
 425  3138.181
 426  3930.137
 427  4068.153
 428  4898.268
 429  5180.854
 430  4705.44
 431  3562.734
 432  3021.981
 433  3959.959
 434  4375.887
 435  3628.148
 436  3765.557
 437  4818.484
 438  4570.602
 439  3369.971
 440  2153.009
 441  3104.891
 442  4127.52
 443  3788.142
 444  4302.883
 445  4925.346
 446  4964.393
 447  3742.795
 448  3023.506
 449  3334.423
 450  3851.673
 451  4228.437
 452  4375.67
 453  4845.72
 454  5345.508
 455  3829.002
 456  1999.58
 457  1954.353
 458  2980.684
 459  3803.06
 460  4456.255
 461  5347.665
 462  5609.342
 463  4716.395
 464  2842.504
 465  2290.399
 466  2858.146
 467  3715.23
 468  3871.29
 469  4085.837
 470  5139.826
 471  4650.102
 472  3509.675
 473  2177.293
 474  2343.336
 475  3618.847
 476  3840.03
 477  4114.719
 478  5096.984
 479  5163.782
 480  4200.568
 481  3284.41
 482  3096.717
 483  4001.533
 484  4191.031
 485  3763.051
 486  4842.76
 487  5460.274
 488  3950.114
 489  2414.599
 490  2043.301
 491  3008.75
 492  3917.486
 493  4099.426
 494  4799.911
 495  5621.748
 496  4717.81
 497  3465.314
 498  2706.052
 499  2988.948
 500  3805.496
 501  3637.609
 502  4083.076
 503  4774.786
 504  4734.541
 505  3392.085
 506  2325.77
 507  2863.065
 508  3727.189
 509  3562.237
 510  3582.457
 511  4606.119
