# Input file       =  1206186294.114467_cleaned.dat
# Candidate        =  PSR_0332+5434
# Telescope        =  AR
# Epoch_topo       =  58204.489735121148
# Epoch_bary       =  N/A
# T_sample         =  0.002
# Data Folded      =  7340032
# Data Avg         =  0.120349830516456
# Data StdDev      =  5.76104297903581 
# Profile Bins     =  256
# Profile Avg      =  3445.96052820906 
# Profile StdDev   =  975.50636895254  
# Reduced chi-sqr  =  2.693
# Prob(Noise)      <  2.75e-41   (~13.4 sigma)
# P_topo (ms)      =  714.572178044697  +/- 0.000155
# P'_topo (s/s)    =  -0                +/- 8.19e-11
# P''_topo (s/s^2) =  0                 +/- 3.61e-14
# P_bary (ms)      =  N/A
# P'_bary (s/s)    =  N/A
# P''_bary (s/s^2) =  N/A
# P_orb (s)        =  N/A
# asin(i)/c (s)    =  N/A
# eccentricity     =  N/A
# w (rad)          =  N/A
# T_peri           =  N/A
######################################################
   0  4924.582
   1  4410.824
   2  4551.021
   3  4111.468
   4  3820.115
   5  4098.979
   6  4202.022
   7  3504.097
   8  3273.416
   9  3124.068
  10  3526.855
  11  3532.344
  12  2049.714
  13  2149.192
  14  1416.744
  15  1396.625
  16  558.7846
  17  665.2068
  18  67.27327
  19  766.3185
  20  1734.394
  21  1345.884
  22  1505.436
  23  2527.357
  24  2940.191
  25  2715.729
  26  2546.26
  27  2284.411
  28  2934.244
  29  3882.414
  30  3631.5
  31  3833.939
  32  4529.22
  33  4402.753
  34  5117.981
  35  4826.816
  36  5333.507
  37  5396.725
  38  4900.83
  39  5705.855
  40  5474.953
  41  5178.327
  42  4080.15
  43  4027.879
  44  3208.406
  45  2758.875
  46  3029.801
  47  2713.958
  48  2027.719
  49  2992.384
  50  2372.176
  51  2401.973
  52  2967.396
  53  2864.057
  54  2295.027
  55  2557.308
  56  2762.114
  57  2399.847
  58  2479.2
  59  2988.898
  60  2816.206
  61  3009.118
  62  2903.927
  63  3438.264
  64  3910.631
  65  3877.01
  66  4250.645
  67  3884.611
  68  5035.691
  69  5188.976
  70  4701.087
  71  4578.952
  72  4771.633
  73  5318.692
  74  4928.902
  75  5034.141
  76  5400.019
  77  5870.921
  78  4428.649
  79  3900.661
  80  3452.696
  81  3064.849
  82  2557.538
  83  2753.081
  84  1846.913
  85  2274.752
  86  2738.731
  87  2100.049
  88  2500.9
  89  2102.549
  90  2758.953
  91  2501.74
  92  1458.346
  93  1947.275
  94  3288.267
  95  3945.992
  96  3967.121
  97  3499.784
  98  4811.562
  99  3605.628
 100  3704.033
 101  3548.808
 102  4035.177
 103  4429.255
 104  4429.112
 105  4685.27
 106  5947.385
 107  6636.125
 108  6302.958
 109  6535.28
 110  6130.531
 111  6659.702
 112  6036.829
 113  6097.226
 114  5257.438
 115  5580.733
 116  4994.496
 117  3822.157
 118  3160.017
 119  3732.265
 120  3715.113
 121  2927.305
 122  3014.36
 123  3289.61
 124  3931.114
 125  3290.846
 126  3444.379
 127  3848.067
 128  2579.475
 129  2284.166
 130  2375.349
 131  3163.347
 132  1852.658
 133  2543.017
 134  2769.673
 135  3095.576
 136  3578.49
 137  3316.512
 138  3571.538
 139  4416.665
 140  5210.625
 141  5382.662
 142  5082.037
 143  5202.989
 144  5303.051
 145  5765.714
 146  5728.303
 147  5738.941
 148  5859.752
 149  6309.64
 150  7431.399
 151  7579.923
 152  7481.91
 153  5465.132
 154  4048.624
 155  3785.285
 156  3855.662
 157  4207.564
 158  3883.441
 159  4097.357
 160  3365.118
 161  3150.727
 162  2705.692
 163  2832.684
 164  2218.169
 165  2246.728
 166  2612.22
 167  1825.495
 168  1622.246
 169  2082.729
 170  2445.101
 171  2660.939
 172  3045.226
 173  3164.804
 174  3430.277
 175  3631.692
 176  3698.537
 177  4532.091
 178  4684.738
 179  4680.735
 180  4682.292
 181  4368.415
 182  4038.369
 183  4292.643
 184  4290.81
 185  4231.267
 186  4051.589
 187  3644.489
 188  4189.76
 189  4038.5
 190  3662.93
 191  2856.32
 192  3065.3
 193  2830.225
 194  2697.311
 195  1824.033
 196  2044.409
 197  1761.902
 198  2056.806
 199  2735.189
 200  2339.128
 201  1697.798
 202  1541.01
 203  1515.466
 204  1622.672
 205  1748.785
 206  956.4427
 207  2488.216
 208  2083.615
 209  1681.407
 210  2162.357
 211  2519.23
 212  3038.422
 213  3548.094
 214  3352.693
 215  4055.716
 216  4182.271
 217  4636.792
 218  3828.974
 219  3819.498
 220  4215.385
 221  4541.099
 222  4166.54
 223  3793.53
 224  3560.438
 225  3520.638
 226  3243.985
 227  2877.075
 228  2490.551
 229  2606.828
 230  2345.37
 231  1973.346
 232  1839.638
 233  2262.032
 234  2790.187
 235  2071.289
 236  1872.731
 237  1228.319
 238  1347.526
 239  1357.057
 240  1007.895
 241  1654.914
 242  1756.546
 243  1245.967
 244  1070.695
 245  1258.056
 246  1741.872
 247  1908.785
 248  1588.436
 249  3050.107
 250  3334.557
 251  3586.549
 252  3905.541
 253  4259.44
 254  4716.011
 255  4756.794
