# Input file       =  1206272451.117398_cleaned.dat
# Candidate        =  PSR_0332+5434
# Telescope        =  AR
# Epoch_topo       =  58205.486922655073
# Epoch_bary       =  N/A
# T_sample         =  0.002
# Data Folded      =  7340032
# Data Avg         =  -0.0477031935193485
# Data StdDev      =  6.35089446653895 
# Profile Bins     =  1024
# Profile Avg      =  -341.911719507276
# Profile StdDev   =  537.692395560905 
# Reduced chi-sqr  =  0.477
# Prob(Noise)      <  1   (~0.0 sigma)
# P_topo (ms)      =  714.571643844376  +/- 0.00105
# P'_topo (s/s)    =  -0                +/- 5.57e-10
# P''_topo (s/s^2) =  0                 +/- 2.46e-13
# P_bary (ms)      =  N/A
# P'_bary (s/s)    =  N/A
# P''_bary (s/s^2) =  N/A
# P_orb (s)        =  N/A
# asin(i)/c (s)    =  N/A
# eccentricity     =  N/A
# w (rad)          =  N/A
# T_peri           =  N/A
######################################################
   0  -165.2712
   1  -180.4306
   2  -132.8946
   3  -122.8172
   4  -145.948
   5  -210.4132
   6  -245.3987
   7  -420.3277
   8  -437.2413
   9  -376.5571
  10  -163.7403
  11  -265.801
  12  -227.6416
  13  -263.5143
  14  -176.9227
  15  -221.2882
  16  -224.5101
  17  -306.449
  18  -207.2288
  19  -44.13083
  20  77.66526
  21  -45.03627
  22  -240.2821
  23  -237.1627
  24  -352.4767
  25  -391.5006
  26  -291.6805
  27  -70.02973
  28  -131.4249
  29  -241.517
  30  -321.2806
  31  -311.974
  32  -238.9471
  33  -181.6131
  34  -260.8752
  35  -386.7566
  36  -459.5248
  37  -441.2086
  38  -423.1667
  39  -388.851
  40  -421.3295
  41  -516.629
  42  -512.9203
  43  -370.0334
  44  -296.3639
  45  -392.6244
  46  -504.2532
  47  -449.1798
  48  -371.8211
  49  -371.7593
  50  -438.6573
  51  -543.2444
  52  -585.9008
  53  -602.3264
  54  -550.4615
  55  -396.1981
  56  -408.0556
  57  -565.6736
  58  -680.8517
  59  -695.7708
  60  -675.1053
  61  -692.8268
  62  -626.2567
  63  -549.673
  64  -513.6053
  65  -571.8013
  66  -639.8937
  67  -615.7466
  68  -536.8796
  69  -593.8391
  70  -612.8652
  71  -740.2307
  72  -711.9952
  73  -706.9608
  74  -637.8259
  75  -740.0103
  76  -807.0269
  77  -892.7738
  78  -847.7101
  79  -807.2474
  80  -741.0215
  81  -697.5282
  82  -796.0469
  83  -773.0253
  84  -648.8323
  85  -590.6375
  86  -660.9615
  87  -713.541
  88  -722.8651
  89  -595.7963
  90  -630.9711
  91  -664.4313
  92  -811.4708
  93  -770.0325
  94  -845.1971
  95  -795.9876
  96  -746.9273
  97  -639.6984
  98  -638.4111
  99  -559.2365
 100  -566.4376
 101  -648.5357
 102  -733.1436
 103  -608.5049
 104  -648.8761
 105  -655.563
 106  -652.4373
 107  -590.7487
 108  -569.731
 109  -442.7888
 110  -399.6172
 111  -424.757
 112  -625.1364
 113  -650.5863
 114  -509.4858
 115  -415.5484
 116  -314.7461
 117  -217.9463
 118  -219.536
 119  -272.3825
 120  -353.7522
 121  -367.0275
 122  -458.9182
 123  -517.081
 124  -436.1144
 125  -398.0623
 126  -405.5879
 127  -431.7773
 128  -348.2007
 129  -429.7514
 130  -401.8441
 131  -312.309
 132  -212.2724
 133  -114.3328
 134  -133.1674
 135  -146.5676
 136  -204.1556
 137  -297.3825
 138  -334.7159
 139  -384.3777
 140  -455.3319
 141  -619.351
 142  -659.6138
 143  -663.7733
 144  -611.4484
 145  -500.2025
 146  -398.4781
 147  -407.4922
 148  -446.8481
 149  -466.3936
 150  -382.6526
 151  -460.5116
 152  -355.2986
 153  -369.9073
 154  -346.1952
 155  -310.0982
 156  -161.3228
 157  -160.9008
 158  -120.3504
 159  -182.155
 160  -118.9952
 161  -231.3741
 162  -300.0432
 163  -271.8652
 164  -137.8853
 165  -19.87888
 166  106.9481
 167  136.9434
 168  0.2547525
 169  -131.221
 170  -218.9185
 171  -345.5458
 172  -397.6602
 173  -346.5067
 174  -215.8472
 175  -124.4761
 176  -222.611
 177  -285.903
 178  -299.2298
 179  -323.337
 180  -432.9647
 181  -426.1168
 182  -286.3106
 183  -281.0264
 184  -296.8326
 185  -317.9593
 186  -272.3339
 187  -307.5948
 188  -444.2994
 189  -452.9014
 190  -335.1773
 191  -303.8897
 192  -280.7014
 193  -350.5006
 194  -310.2019
 195  -355.565
 196  -175.8294
 197  -132.8753
 198  7.615001
 199  62.44225
 200  140.5202
 201  -7.237589
 202  -240.6142
 203  -254.3305
 204  -257.5966
 205  -310.8354
 206  -293.2805
 207  -299.2043
 208  -276.6613
 209  -212.7609
 210  -105.0543
 211  -155.1297
 212  -189.8387
 213  -172.1357
 214  -110.1648
 215  -188.7341
 216  -220.9007
 217  -317.9988
 218  -367.8904
 219  -424.0694
 220  -410.3865
 221  -338.1733
 222  -196.1633
 223  -160.2585
 224  -271.6133
 225  -358.1933
 226  -380.6099
 227  -419.2229
 228  -325.251
 229  -201.2249
 230  -159.5021
 231  -193.2197
 232  -213.682
 233  -204.7199
 234  -173.486
 235  -205.1698
 236  -301.8987
 237  -342.5113
 238  -352.8458
 239  -288.8117
 240  -258.6503
 241  -179.5189
 242  -140.1135
 243  -170.6939
 244  -318.2183
 245  -491.6465
 246  -441.2326
 247  -305.559
 248  -245.4884
 249  -317.9864
 250  -475.0974
 251  -426.7873
 252  -510.3976
 253  -547.485
 254  -539.7756
 255  -444.5438
 256  -268.5112
 257  -213.2197
 258  -239.1267
 259  -303.1364
 260  -408.7411
 261  -394.6716
 262  -388.9755
 263  -395.1836
 264  -399.5703
 265  -293.8776
 266  -209.7047
 267  -246.6803
 268  -374.7286
 269  -359.855
 270  -393.6586
 271  -427.4862
 272  -433.6195
 273  -405.8868
 274  -348.8423
 275  -490.3919
 276  -496.935
 277  -453.475
 278  -428.1428
 279  -587.8731
 280  -681.0262
 281  -531.7302
 282  -410.507
 283  -268.2635
 284  -435.1136
 285  -533.2558
 286  -539.1598
 287  -409.4535
 288  -285.54
 289  -244.2103
 290  -205.5232
 291  -174.1636
 292  -246.597
 293  -322.7673
 294  -281.3612
 295  -322.8015
 296  -307.925
 297  -282.987
 298  -237.4981
 299  -271.8325
 300  -379.868
 301  -307.7493
 302  -283.1739
 303  -268.8388
 304  -238.9511
 305  -196.9476
 306  -136.3278
 307  -113.3652
 308  -48.25225
 309  -109.7448
 310  -168.8702
 311  -202.6717
 312  -135.5247
 313  -102.8377
 314  -172.6333
 315  -199.5678
 316  -311.1786
 317  -281.2301
 318  -316.2117
 319  -367.9473
 320  -518.7447
 321  -391.1921
 322  -303.388
 323  -251.4333
 324  -299.6927
 325  -213.9368
 326  -201.7968
 327  -245.6095
 328  -317.2177
 329  -367.3438
 330  -285.4322
 331  -287.8649
 332  -252.3186
 333  -255.4391
 334  -308.9189
 335  -351.3725
 336  -364.6682
 337  -233.0512
 338  -176.209
 339  -181.3385
 340  -362.3792
 341  -451.1561
 342  -498.13
 343  -387.1622
 344  -309.244
 345  -291.1667
 346  -285.0749
 347  -425.2482
 348  -384.2105
 349  -378.179
 350  -214.0475
 351  -179.6026
 352  -240.3519
 353  -392.9332
 354  -512.0454
 355  -390.1037
 356  -386.2577
 357  -469.4654
 358  -554.3146
 359  -666.6597
 360  -639.9258
 361  -590.2047
 362  -622.9414
 363  -515.0363
 364  -447.8236
 365  -384.1779
 366  -485.5234
 367  -430.3902
 368  -454.9319
 369  -426.3114
 370  -553.3413
 371  -551.6557
 372  -507.7747
 373  -383.5053
 374  -388.2002
 375  -421.2811
 376  -397.5785
 377  -220.9145
 378  -152.0342
 379  -113.9677
 380  -343.1936
 381  -429.7973
 382  -511.5447
 383  -505.5068
 384  -555.3675
 385  -388.003
 386  -289.6346
 387  -245.3932
 388  -153.9721
 389  -117.1746
 390  -105.0421
 391  -201.582
 392  -170.0993
 393  -125.9879
 394  -197.2584
 395  -375.0304
 396  -433.4846
 397  -374.577
 398  -444.2057
 399  -518.9876
 400  -542.4372
 401  -427.5402
 402  -332.7101
 403  -240.5861
 404  -146.9599
 405  -168.3246
 406  -261.6739
 407  -325.5049
 408  -431.2313
 409  -544.5152
 410  -630.4484
 411  -654.8085
 412  -664.7065
 413  -598.6008
 414  -472.6956
 415  -439.2809
 416  -362.175
 417  -292.3408
 418  -308.5664
 419  -310.0616
 420  -393.2937
 421  -504.0544
 422  -562.6974
 423  -583.3372
 424  -541.7623
 425  -549.7476
 426  -574.9391
 427  -649.3553
 428  -397.6237
 429  -348.9273
 430  -433.7585
 431  -577.651
 432  -661.5703
 433  -642.6498
 434  -798.7877
 435  -737.1252
 436  -716.4742
 437  -592.9163
 438  -594.2726
 439  -619.1326
 440  -638.8484
 441  -588.9233
 442  -451.5348
 443  -500.9532
 444  -553.2851
 445  -543.0919
 446  -496.4862
 447  -435.4243
 448  -527.9088
 449  -522.3969
 450  -447.7545
 451  -432.1132
 452  -446.5117
 453  -495.831
 454  -510.893
 455  -376.0581
 456  -326.4497
 457  -157.7829
 458  -158.3291
 459  -73.78121
 460  -163.2739
 461  -211.5325
 462  -345.0137
 463  -403.9365
 464  -454.0367
 465  -400.4268
 466  -431.3001
 467  -551.6227
 468  -608.2998
 469  -452.0538
 470  -361.4165
 471  -450.8368
 472  -335.4218
 473  -96.87383
 474  -0.9758409
 475  -3.76707
 476  -89.1269
 477  -133.1685
 478  -319.4621
 479  -344.0132
 480  -296.3146
 481  -323.0521
 482  -380.6265
 483  -550.5345
 484  -512.153
 485  -472.4718
 486  -293.5199
 487  -298.2384
 488  -293.4371
 489  -259.9081
 490  -238.7515
 491  -415.1108
 492  -505.7714
 493  -542.5262
 494  -549.8027
 495  -588.8062
 496  -610.3422
 497  -576.1506
 498  -509.9328
 499  -335.9555
 500  -250.9834
 501  -200.3614
 502  -236.2171
 503  -270.0978
 504  -323.1746
 505  -394.8924
 506  -387.9674
 507  -320.977
 508  -370.5125
 509  -250.4876
 510  -330.2102
 511  -283.0494
 512  -369.2156
 513  -415.4871
 514  -519.4626
 515  -470.2597
 516  -378.6523
 517  -222.8083
 518  -217.1963
 519  -380.7702
 520  -417.1895
 521  -266.0742
 522  -213.6726
 523  -109.7136
 524  -171.298
 525  -147.6244
 526  -164.7175
 527  -50.59822
 528  -122.518
 529  -277.0799
 530  -254.637
 531  -193.2695
 532  -88.26868
 533  -116.6467
 534  -151.3183
 535  -187.1576
 536  -222.495
 537  -256.8481
 538  -247.9547
 539  -258.9223
 540  -160.3515
 541  -123.7753
 542  -50.1862
 543  -124.4876
 544  -72.55131
 545  -37.18521
 546  16.66604
 547  20.9054
 548  -26.51518
 549  -143.6199
 550  -222.951
 551  -152.9039
 552  -96.57622
 553  -122.1779
 554  -53.43106
 555  -57.92583
 556  -58.7685
 557  -138.5976
 558  -270.7327
 559  -376.3313
 560  -404.3159
 561  -413.1582
 562  -343.376
 563  -363.1655
 564  -389.5391
 565  -527.5052
 566  -451.9483
 567  -268.1882
 568  -131.3131
 569  -74.39812
 570  -195.6446
 571  -140.2144
 572  -170.9104
 573  -18.4964
 574  -130.4179
 575  -164.8913
 576  -207.3092
 577  -302.6369
 578  -337.6527
 579  -395.4422
 580  -285.0212
 581  -291.0672
 582  -293.3083
 583  -365.7728
 584  -353.0818
 585  -301.7738
 586  -273.4437
 587  -226.4143
 588  -103.5422
 589  -67.92854
 590  -9.491903
 591  -19.91693
 592  -40.47678
 593  -33.04216
 594  17.03826
 595  54.0577
 596  -49.89318
 597  -203.8707
 598  -228.7218
 599  -181.4045
 600  35.22939
 601  187.1082
 602  346.1913
 603  391.4212
 604  452.5325
 605  801.1683
 606  948.339
 607  916.8945
 608  582.3549
 609  469.9978
 610  334.0409
 611  244.09
 612  35.5125
 613  -209.3957
 614  -448.3579
 615  -671.3207
 616  -708.7016
 617  -693.2576
 618  -515.111
 619  -425.9084
 620  -340.566
 621  -230.6829
 622  -338.423
 623  -366.1223
 624  -420.5855
 625  -335.6146
 626  -319.527
 627  -381.8916
 628  -358.2003
 629  -394.2563
 630  -283.3796
 631  -263.0214
 632  -198.8548
 633  -335.8253
 634  -293.244
 635  -248.3786
 636  -77.49839
 637  19.54859
 638  73.34044
 639  4.14976
 640  -247.5752
 641  -357.3685
 642  -294.8301
 643  -263.8515
 644  -359.957
 645  -483.0887
 646  -386.9024
 647  -410.5894
 648  -383.2987
 649  -416.2752
 650  -279.736
 651  -143.6974
 652  -161.4367
 653  -187.2085
 654  -212.6228
 655  -32.39555
 656  -49.07988
 657  -254.6877
 658  -321.6815
 659  -371.9381
 660  -388.0193
 661  -426.1764
 662  -313.4442
 663  -289.8755
 664  -375.4053
 665  -572.8879
 666  -612.0801
 667  -606.3094
 668  -475.3425
 669  -430.4403
 670  -398.1937
 671  -471.9899
 672  -334.1698
 673  -198.1224
 674  -189.7295
 675  -248.9753
 676  -289.7777
 677  -374.5744
 678  -467.4338
 679  -585.1489
 680  -650.2643
 681  -677.0845
 682  -681.0577
 683  -609.4773
 684  -577.5364
 685  -604.8325
 686  -596.3992
 687  -511.5365
 688  -604.7535
 689  -545.9193
 690  -585.0767
 691  -517.4344
 692  -589.14
 693  -466.6841
 694  -236.0626
 695  -252.6987
 696  -350.0406
 697  -475.1067
 698  -410.0194
 699  -385.2895
 700  -338.8225
 701  -453.2195
 702  -534.025
 703  -506.3848
 704  -355.0939
 705  -391.3215
 706  -450.9207
 707  -490.2258
 708  -316.6474
 709  -333.2837
 710  -412.6831
 711  -407.2345
 712  -420.923
 713  -469.485
 714  -564.1458
 715  -543.6339
 716  -588.9034
 717  -590.7684
 718  -548.4507
 719  -555.3357
 720  -547.9211
 721  -723.3257
 722  -709.9755
 723  -602.0919
 724  -679.9133
 725  -694.643
 726  -769.3032
 727  -753.2089
 728  -782.6146
 729  -813.6156
 730  -640.8209
 731  -469.0119
 732  -518.0947
 733  -525.2477
 734  -582.1094
 735  -566.3832
 736  -630.6565
 737  -668.6486
 738  -580.5311
 739  -417.4456
 740  -427.4007
 741  -501.2356
 742  -594.0652
 743  -626.3677
 744  -590.8583
 745  -437.3004
 746  -362.5364
 747  -346.8933
 748  -481.9843
 749  -615.2314
 750  -680.1147
 751  -639.5961
 752  -549.0368
 753  -532.7639
 754  -548.3315
 755  -513.1236
 756  -509.7045
 757  -484.0373
 758  -441.6522
 759  -433.3446
 760  -483.9242
 761  -564.8205
 762  -525.6232
 763  -480.5551
 764  -378.4393
 765  -396.9563
 766  -518.7695
 767  -533.8734
 768  -608.8848
 769  -547.7786
 770  -620.6893
 771  -562.2399
 772  -492.8667
 773  -473.111
 774  -578.5104
 775  -550.8133
 776  -380.8704
 777  -345.7492
 778  -319.5162
 779  -375.9908
 780  -460.3521
 781  -548.3161
 782  -501.2223
 783  -408.2205
 784  -311.3537
 785  -370.489
 786  -390.8522
 787  -322.4611
 788  -456.1796
 789  -549.3688
 790  -612.478
 791  -569.9581
 792  -592.2729
 793  -474.6637
 794  -506.0498
 795  -569.5345
 796  -562.2872
 797  -482.0758
 798  -301.4426
 799  -241.9142
 800  -347.6066
 801  -386.9659
 802  -412.3087
 803  -317.8219
 804  -361.757
 805  -460.6007
 806  -459.4923
 807  -422.5051
 808  -514.3903
 809  -470.6302
 810  -403.7501
 811  -338.4578
 812  -442.6974
 813  -487.3653
 814  -339.7521
 815  -310.0451
 816  -440.7835
 817  -512.5643
 818  -439.0223
 819  -426.2543
 820  -406.19
 821  -479.5242
 822  -456.4759
 823  -517.2257
 824  -421.5293
 825  -302.2215
 826  -262.951
 827  -347.1432
 828  -271.7612
 829  -209.2546
 830  -266.7687
 831  -290.9931
 832  -205.6089
 833  -212.9527
 834  -248.6132
 835  -369.8255
 836  -432.9058
 837  -411.1173
 838  -264.6573
 839  -279.5674
 840  -278.9969
 841  -270.1981
 842  -224.6017
 843  -283.9563
 844  -339.7751
 845  -372.8792
 846  -369.3708
 847  -372.5018
 848  -346.1559
 849  -279.6621
 850  -264.5621
 851  -409.4894
 852  -307.3499
 853  -251.1729
 854  -161.685
 855  -251.9366
 856  -327.0082
 857  -412.4142
 858  -484.3522
 859  -382.0563
 860  -357.6396
 861  -319.2941
 862  -402.017
 863  -357.871
 864  -283.899
 865  -319.1087
 866  -390.8473
 867  -544.2668
 868  -531.7684
 869  -530.5159
 870  -515.0126
 871  -495.7488
 872  -543.8754
 873  -515.4955
 874  -453.5515
 875  -433.1657
 876  -452.92
 877  -352.2495
 878  -345.5398
 879  -286.7419
 880  -401.5805
 881  -431.1609
 882  -226.1603
 883  -85.19235
 884  -150.7271
 885  -274.8177
 886  -268.4986
 887  -216.6846
 888  -393.2837
 889  -441.0961
 890  -511.4644
 891  -426.1147
 892  -323.8894
 893  -308.9294
 894  -315.7855
 895  -427.0441
 896  -371.0527
 897  -448.8561
 898  -518.0001
 899  -567.1879
 900  -470.2379
 901  -361.3229
 902  -300.2211
 903  -395.0096
 904  -287.4229
 905  -229.9677
 906  -138.4222
 907  -148.9467
 908  -202.0732
 909  -289.7811
 910  -335.9655
 911  -477.2729
 912  -420.1774
 913  -352.2215
 914  -311.4702
 915  -279.9819
 916  -246.1603
 917  -229.5005
 918  -257.6321
 919  -355.4365
 920  -243.4964
 921  -100.6312
 922  19.99315
 923  -38.27579
 924  -26.87481
 925  -55.03672
 926  -21.32435
 927  -158.4282
 928  -227.5594
 929  -414.0906
 930  -309.4834
 931  -232.9053
 932  -107.6679
 933  -20.79486
 934  -10.26569
 935  -135.1077
 936  -291.4617
 937  -383.7488
 938  -372.8218
 939  -421.2079
 940  -499.3718
 941  -545.1024
 942  -509.902
 943  -347.8702
 944  -243.0579
 945  -189.0324
 946  -153.3465
 947  -157.2516
 948  -198.6105
 949  -263.1095
 950  -274.1744
 951  -288.9821
 952  -325.4124
 953  -439.7749
 954  -512.6261
 955  -466.3527
 956  -357.1912
 957  -354.0746
 958  -400.9826
 959  -270.009
 960  -197.2318
 961  -195.2309
 962  -241.9836
 963  -202.5643
 964  -191.4354
 965  -243.6482
 966  -300.7464
 967  -325.903
 968  -412.4964
 969  -429.0517
 970  -254.0343
 971  -246.9921
 972  -281.6611
 973  -352.9383
 974  -239.9898
 975  -234.7859
 976  -197.1207
 977  -198.5323
 978  -162.6535
 979  -308.7967
 980  -271.858
 981  -236.0984
 982  -344.8723
 983  -363.7463
 984  -286.2707
 985  -194.218
 986  -210.0614
 987  -182.8815
 988  -33.03534
 989  -2.1244
 990  -11.04696
 991  -79.13999
 992  -110.0556
 993  -54.20492
 994  79.28831
 995  106.6052
 996  40.70372
 997  -33.27599
 998  -14.27825
 999  -20.76726
1000  39.29316
1001  49.16565
1002  52.0081
1003  135.3973
1004  93.70139
1005  7.339422
1006  -0.03304739
1007  39.28149
1008  185.138
1009  144.919
1010  51.42364
1011  44.97693
1012  -9.879667
1013  -24.02789
1014  6.214383
1015  35.15102
1016  6.807225
1017  -73.75196
1018  -101.4846
1019  -61.63353
1020  -133.1095
1021  -293.9203
1022  -402.2105
1023  -315.2926
