# Input file       =  1206100079.114177-PSRB0329-2ms-sampling-dd.dat
# Candidate        =  PSR_0332+5434
# Telescope        =  AR
# Epoch_topo       =  58203.491876321496
# Epoch_bary       =  N/A
# T_sample         =  0.002
# Data Folded      =  7340032
# Data Avg         =  -1.13488290946981e-09
# Data StdDev      =  7.29203333727678 
# Profile Bins     =  512
# Profile Avg      =  0.664573705983541
# Profile StdDev   =  873.097292832752 
# Reduced chi-sqr  =  0.338
# Prob(Noise)      <  1   (~0.0 sigma)
# P_topo (ms)      =  714.572698461452  +/- 0.000836
# P'_topo (s/s)    =  -0                +/- 4.41e-10
# P''_topo (s/s^2) =  0                 +/- 1.95e-13
# P_bary (ms)      =  N/A
# P'_bary (s/s)    =  N/A
# P''_bary (s/s^2) =  N/A
# P_orb (s)        =  N/A
# asin(i)/c (s)    =  N/A
# eccentricity     =  N/A
# w (rad)          =  N/A
# T_peri           =  N/A
######################################################
   0  -44.3518
   1  -87.73437
   2  -205.5958
   3  -547.2336
   4  -105.7085
   5  -63.91727
   6  -37.41246
   7  -13.77876
   8  225.3524
   9  -134.0491
  10  -407.9583
  11  -135.0396
  12  20.62566
  13  -126.2152
  14  29.3857
  15  -159.4294
  16  -589.7897
  17  -145.545
  18  -256.9942
  19  -231.5287
  20  -56.77478
  21  -313.2083
  22  -482.7273
  23  -319.2397
  24  80.83952
  25  -255.6805
  26  -181.6043
  27  -334.5974
  28  66.60539
  29  145.554
  30  206.7948
  31  340.5914
  32  -10.38013
  33  -26.7347
  34  131.3658
  35  211.5783
  36  455.4892
  37  531.6916
  38  504.4366
  39  405.0531
  40  496.5072
  41  452.2968
  42  430.5379
  43  934.0931
  44  434.8114
  45  394.4474
  46  131.2279
  47  200.1492
  48  -49.44775
  49  -102.9144
  50  -83.4097
  51  27.37467
  52  -222.061
  53  -367.134
  54  -338.4537
  55  -420.3128
  56  -289.0751
  57  -143.8801
  58  -109.935
  59  -351.306
  60  -177.6707
  61  -190.8001
  62  270.6545
  63  157.6081
  64  309.0223
  65  342.3284
  66  407.9764
  67  126.0162
  68  -111.0138
  69  105.3517
  70  88.3242
  71  312.0991
  72  698.8824
  73  376.9504
  74  384.1856
  75  80.97032
  76  0.5976582
  77  -290.2631
  78  -269.4703
  79  225.5274
  80  497.4071
  81  205.7141
  82  321.5384
  83  248.9473
  84  -3.046458
  85  133.7133
  86  38.85958
  87  43.66213
  88  -233.7355
  89  -99.97706
  90  309.0747
  91  -75.28063
  92  -263.8507
  93  -113.9691
  94  74.1436
  95  140.0645
  96  82.95451
  97  580.3035
  98  188.4651
  99  -178.0976
 100  -200.0259
 101  -10.49204
 102  39.83131
 103  171.5701
 104  313.6663
 105  142.7017
 106  403.2413
 107  39.97827
 108  115.0524
 109  325.0992
 110  721.0892
 111  463.7418
 112  453.2616
 113  483.6773
 114  503.3017
 115  493.3217
 116  398.7454
 117  312.3792
 118  314.0339
 119  248.9725
 120  2.311919
 121  -215.0119
 122  -43.63329
 123  22.69164
 124  -51.00208
 125  -7.807427
 126  -76.70873
 127  495.4839
 128  155.9077
 129  -34.11115
 130  -62.7414
 131  -141.9951
 132  122.9152
 133  67.60806
 134  288.6152
 135  451.1012
 136  413.8616
 137  617.7631
 138  308.2425
 139  110.2366
 140  -115.0864
 141  -394.3492
 142  -94.22192
 143  266.6566
 144  182.7787
 145  254.8113
 146  2.329438
 147  -234.5406
 148  -84.58276
 149  113.3718
 150  210.2092
 151  -156.0505
 152  -586.0594
 153  -513.2333
 154  -73.36559
 155  -82.82438
 156  -84.4414
 157  -166.9721
 158  -198.8952
 159  -446.6683
 160  -743.5393
 161  -633.9016
 162  -362.0109
 163  84.51821
 164  -79.99953
 165  110.1312
 166  366.7917
 167  161.6264
 168  14.82541
 169  173.7182
 170  343.6271
 171  196.2974
 172  265.845
 173  337.0269
 174  284.1891
 175  107.5158
 176  86.21822
 177  67.8399
 178  -83.04713
 179  -127.881
 180  -6.163833
 181  -503.1844
 182  -498.5695
 183  -115.795
 184  67.02041
 185  -73.99181
 186  -188.2353
 187  -477.0807
 188  -634.0934
 189  -434.1001
 190  -294.4091
 191  -332.5282
 192  -663.0733
 193  -688.8796
 194  -340.6698
 195  -484.5293
 196  -625.9912
 197  -695.7189
 198  -657.9636
 199  -517.4248
 200  -187.8899
 201  77.24987
 202  -250.1631
 203  -8.937373
 204  -173.3438
 205  200.3148
 206  509.6536
 207  193.8973
 208  -175.3586
 209  -79.69276
 210  271.4901
 211  358.3965
 212  285.8764
 213  395.0695
 214  342.4452
 215  218.8205
 216  230.3792
 217  362.1495
 218  436.8785
 219  495.9427
 220  249.1175
 221  122.0319
 222  -9.206161
 223  120.5798
 224  220.4504
 225  -56.53088
 226  112.2673
 227  -173.9595
 228  -286.8229
 229  62.56659
 230  -125.5701
 231  -107.8367
 232  24.03827
 233  112.7459
 234  -187.5596
 235  -302.0021
 236  -198.2721
 237  -109.2209
 238  230.7489
 239  215.5524
 240  380.1461
 241  299.537
 242  146.232
 243  153.6246
 244  214.3806
 245  -7.857275
 246  185.9266
 247  40.31443
 248  106.7651
 249  101.5799
 250  264.65
 251  183.0185
 252  -4.20568
 253  191.1769
 254  15.71352
 255  -350.7079
 256  -329.8707
 257  -18.36803
 258  -77.16953
 259  -194.3577
 260  -191.6029
 261  33.27182
 262  232.252
 263  -61.78932
 264  -48.55087
 265  -209.5616
 266  -438.5239
 267  -395.1313
 268  -58.78695
 269  268.9412
 270  216.2897
 271  17.50936
 272  -52.26199
 273  39.41232
 274  19.54958
 275  356.7856
 276  422.1098
 277  493.5085
 278  350.6628
 279  164.4464
 280  -8.24227
 281  -133.1833
 282  193.3181
 283  -150.6573
 284  -121.2713
 285  -28.16225
 286  214.5361
 287  26.67939
 288  249.6832
 289  255.7829
 290  -134.485
 291  4.488745
 292  225.6332
 293  354.8458
 294  252.1456
 295  521.1219
 296  304.5597
 297  -100.3781
 298  -383.6343
 299  -249.9942
 300  -184.479
 301  268.6664
 302  300.2135
 303  -79.54887
 304  -222.3884
 305  -150.2904
 306  -610.6747
 307  -169.7604
 308  125.8245
 309  122.1692
 310  75.30012
 311  131.0754
 312  135.5654
 313  -210.3458
 314  -380.8741
 315  -426.7654
 316  -327.6513
 317  -862.8651
 318  -462.3836
 319  39.2784
 320  41.05341
 321  190.5274
 322  -46.02208
 323  -123.5911
 324  -489.8156
 325  -646.9189
 326  -436.7079
 327  -464.4913
 328  -355.4348
 329  -491.628
 330  -642.5082
 331  -667.4063
 332  -260.548
 333  -507.8946
 334  -599.1309
 335  -669.6483
 336  -530.577
 337  -302.7015
 338  -314.9812
 339  -258.6541
 340  -151.4806
 341  133.9672
 342  -65.36997
 343  -425.9208
 344  -33.10757
 345  -112.517
 346  -369.2751
 347  -627.6457
 348  -424.6761
 349  -606.4155
 350  -432.6547
 351  -512.3795
 352  -455.7151
 353  -467.0751
 354  -454.9731
 355  -497.9994
 356  -301.3062
 357  -717.8267
 358  -943.0676
 359  -763.8398
 360  -586.6113
 361  -601.1084
 362  -590.8793
 363  -762.9573
 364  -679.5606
 365  -741.9373
 366  -684.9009
 367  -268.9606
 368  208.51
 369  133.5159
 370  -109.0142
 371  272.33
 372  357.0312
 373  146.8887
 374  185.2396
 375  360.5321
 376  132.6092
 377  506.0931
 378  530.9923
 379  213.7318
 380  64.85596
 381  315.9729
 382  210.736
 383  91.71999
 384  469.5624
 385  567.0915
 386  145.4427
 387  -161.0067
 388  206.846
 389  414.0456
 390  302.8769
 391  474.2217
 392  649.5633
 393  239.6466
 394  -70.27676
 395  -253.2659
 396  -366.4612
 397  194.6032
 398  353.3072
 399  208.2726
 400  229.5903
 401  -32.09119
 402  219.5587
 403  253.7399
 404  312.9225
 405  179.7835
 406  30.67973
 407  -77.6919
 408  -245.2686
 409  123.5262
 410  223.1669
 411  338.5222
 412  -337.4762
 413  -368.6842
 414  -527.9852
 415  -804.5062
 416  -366.8548
 417  -277.0887
 418  -276.308
 419  -317.5305
 420  -9.200973
 421  50.38647
 422  52.54608
 423  182.3667
 424  102.2588
 425  199.3126
 426  537.7127
 427  1075.823
 428  1726.885
 429  2108.797
 430  2246.7
 431  1920.783
 432  918.9708
 433  478.9688
 434  122.8711
 435  203.1171
 436  162.6393
 437  139.1196
 438  -38.65526
 439  -558.6385
 440  -440.2967
 441  -561.8218
 442  -407.6825
 443  -228.2878
 444  -129.8549
 445  -357.3776
 446  -215.1525
 447  -284.774
 448  -270.3922
 449  -378.8056
 450  -445.4929
 451  -532.5357
 452  -257.4675
 453  -94.68047
 454  51.36627
 455  145.1994
 456  142.2506
 457  357.9305
 458  -145.2986
 459  -375.3499
 460  -346.0162
 461  -329.2595
 462  -460.1504
 463  -64.41988
 464  -97.76891
 465  -78.9669
 466  120.2606
 467  123.6041
 468  -64.53127
 469  53.81724
 470  514.8058
 471  59.56021
 472  -539.0754
 473  -85.30058
 474  150.6467
 475  375.1562
 476  407.3567
 477  435.5844
 478  373.9592
 479  216.4958
 480  376.3168
 481  470.0857
 482  217.4675
 483  124.2917
 484  -27.13149
 485  140.765
 486  350.5196
 487  174.4834
 488  226.9714
 489  331.679
 490  240.1809
 491  82.76917
 492  -131.9098
 493  87.14108
 494  62.48372
 495  37.38923
 496  354.0403
 497  -146.6135
 498  -143.2137
 499  220.0263
 500  231.4807
 501  -158.7139
 502  -91.09359
 503  -175.8159
 504  -94.54095
 505  183.9894
 506  -8.32141
 507  -201.4151
 508  -154.8963
 509  -637.7995
 510  -439.5827
 511  -161.8882
