# Input file       =  1206287371.110199_cleaned.dat
# Candidate        =  PSR_0332+5434
# Telescope        =  AR
# Epoch_topo       =  58205.659607756934
# Epoch_bary       =  N/A
# T_sample         =  0.002
# Data Folded      =  7340032
# Data Avg         =  0.0267890450339061
# Data StdDev      =  1.00006967210735 
# Profile Bins     =  512
# Profile Avg      =  384.118388950056 
# Profile StdDev   =  119.74137842973  
# Reduced chi-sqr  =  1.181
# Prob(Noise)      <  0.00289   (~2.8 sigma)
# P_topo (ms)      =  714.571885864177  +/- 0.00021
# P'_topo (s/s)    =  -0                +/- 1.11e-10
# P''_topo (s/s^2) =  0                 +/- 4.89e-14
# P_bary (ms)      =  N/A
# P'_bary (s/s)    =  N/A
# P''_bary (s/s^2) =  N/A
# P_orb (s)        =  N/A
# asin(i)/c (s)    =  N/A
# eccentricity     =  N/A
# w (rad)          =  N/A
# T_peri           =  N/A
######################################################
   0  963.6285
   1  798.9587
   2  517.6244
   3  497.6409
   4  366.2439
   5  430.1923
   6  393.086
   7  357.4283
   8  408.7522
   9  499.8047
  10  462.8113
  11  384.9596
  12  363.0006
  13  322.2389
  14  328.3278
  15  354.8558
  16  473.505
  17  428.1521
  18  362.9217
  19  382.5193
  20  298.9398
  21  360.5355
  22  236.7314
  23  172.0008
  24  205.6142
  25  230.5506
  26  370.8821
  27  417.3817
  28  246.3911
  29  178.8312
  30  281.9703
  31  367.1779
  32  333.3491
  33  307.3708
  34  336.7177
  35  303.0755
  36  218.9454
  37  197.0699
  38  272.282
  39  288.6101
  40  249.7281
  41  237.9181
  42  329.4083
  43  436.8554
  44  452.2466
  45  366.2012
  46  424.6886
  47  484.6368
  48  428.9425
  49  380.4222
  50  389.8179
  51  406.923
  52  261.4684
  53  394.3867
  54  420.3618
  55  373.2592
  56  366.3273
  57  403.6973
  58  451.2889
  59  540.5792
  60  386.1937
  61  375.3881
  62  332.527
  63  380.1042
  64  399.5424
  65  345.3896
  66  250.5122
  67  271.3058
  68  420.6401
  69  323.3585
  70  284.9316
  71  347.6005
  72  226.6268
  73  298.1039
  74  382.5449
  75  452.6926
  76  362.9387
  77  228.5643
  78  204.7566
  79  248.4538
  80  343.5438
  81  320.8015
  82  348.1014
  83  350.2235
  84  339.1864
  85  392.994
  86  315.2467
  87  300.5845
  88  282.1589
  89  354.1617
  90  455.3688
  91  385.489
  92  360.1761
  93  339.3019
  94  291.0368
  95  388.2878
  96  275.958
  97  233.8144
  98  337.3217
  99  425.2067
 100  393.2087
 101  493.9321
 102  480.8361
 103  375.6385
 104  348.2068
 105  489.44
 106  547.9974
 107  372.0548
 108  455.6847
 109  534.8749
 110  462.9672
 111  442.6474
 112  454.2101
 113  478.6815
 114  395.0494
 115  340.5985
 116  489.9164
 117  480.0134
 118  451.7986
 119  425.1407
 120  337.9832
 121  278.5974
 122  384.8011
 123  387.1908
 124  444.7504
 125  434.5189
 126  469.5186
 127  412.6743
 128  416.3715
 129  462.4322
 130  400.7657
 131  448.1082
 132  464.0014
 133  514.6766
 134  535.9914
 135  442.295
 136  433.003
 137  363.7297
 138  407.2622
 139  373.6214
 140  395.9541
 141  498.4019
 142  378.1907
 143  382.2322
 144  406.7473
 145  398.5848
 146  384.6125
 147  429.2463
 148  381.1536
 149  304.289
 150  469.0803
 151  444.3969
 152  418.1647
 153  449.5732
 154  284.5406
 155  273.4124
 156  281.5418
 157  392.1563
 158  458.3104
 159  326.0887
 160  278.8104
 161  333.6375
 162  375.6558
 163  366.161
 164  430.1106
 165  368.653
 166  443.5323
 167  471.6948
 168  463.288
 169  493.1339
 170  508.7473
 171  468.228
 172  563.2449
 173  453.5501
 174  422.3795
 175  376.1144
 176  370.3705
 177  444.5207
 178  457.7469
 179  418.1258
 180  357.0798
 181  437.1376
 182  451.6877
 183  402.4663
 184  493.0585
 185  561.3295
 186  431.1004
 187  476.3127
 188  459.4892
 189  344.3769
 190  395.7041
 191  528.0024
 192  501.257
 193  403.6264
 194  293.058
 195  354.2428
 196  332.9728
 197  335.351
 198  466.062
 199  501.1665
 200  402.3901
 201  402.1179
 202  386.1496
 203  252.072
 204  362.8827
 205  503.6512
 206  496.893
 207  410.1519
 208  422.4579
 209  399.5937
 210  465.5545
 211  535.8496
 212  371.7659
 213  452.004
 214  455.6656
 215  333.6774
 216  297.1139
 217  271.7368
 218  349.2565
 219  541.1727
 220  441.0754
 221  284.3341
 222  326.5821
 223  396.2126
 224  302.4679
 225  291.1754
 226  394.4478
 227  301.2563
 228  284.759
 229  382.7386
 230  495.9496
 231  450.704
 232  367.6138
 233  382.9254
 234  374.2095
 235  412.8378
 236  411.9609
 237  395.3945
 238  330.9861
 239  307.671
 240  369.8553
 241  423.7993
 242  405.4117
 243  280.4973
 244  247.5896
 245  366.4013
 246  349.9487
 247  360.6023
 248  422.8745
 249  502.5014
 250  534.4755
 251  546.8406
 252  420.7147
 253  374.2081
 254  476.3173
 255  456.3178
 256  514.1397
 257  522.7374
 258  448.4926
 259  391.7552
 260  363.5187
 261  447.317
 262  434.4431
 263  431.0429
 264  413.3589
 265  423.7023
 266  424.3276
 267  403.4497
 268  397.3896
 269  370.8987
 270  417.147
 271  527.0266
 272  454.0312
 273  282.1541
 274  376.6174
 275  508.9731
 276  456.1309
 277  421.3197
 278  341.1509
 279  507.8157
 280  390.6547
 281  345.62
 282  398.2156
 283  461.9643
 284  362.1517
 285  325.6862
 286  336.5003
 287  437.8857
 288  507.1591
 289  493.7137
 290  444.8547
 291  381.9977
 292  450.9111
 293  439.5164
 294  418.8057
 295  455.7343
 296  484.307
 297  492.5202
 298  513.9788
 299  385.5909
 300  431.8943
 301  355.9547
 302  302.4242
 303  210.0157
 304  359.5287
 305  384.6128
 306  426.1504
 307  423.9616
 308  455.3676
 309  393.167
 310  511.1577
 311  431.8857
 312  379.0844
 313  371.1883
 314  271.8878
 315  272.9638
 316  420.9453
 317  478.6848
 318  358.0694
 319  381.3841
 320  405.3272
 321  419.7389
 322  377.5578
 323  333.993
 324  257.1238
 325  191.7467
 326  376.2127
 327  541.8328
 328  394.4112
 329  314.8524
 330  316.0008
 331  333.5005
 332  413.3961
 333  412.0363
 334  354.4706
 335  344.7033
 336  395.2973
 337  364.7995
 338  467.9391
 339  518.6749
 340  460.6602
 341  357.4122
 342  394.0052
 343  395.2851
 344  487.0729
 345  468.2368
 346  388.5032
 347  451.7148
 348  463.653
 349  441.9391
 350  395.274
 351  348.4637
 352  500.0538
 353  534.8065
 354  477.3154
 355  505.9531
 356  473.6302
 357  496.6411
 358  515.7134
 359  412.3701
 360  373.9851
 361  335.8467
 362  449.6122
 363  374.9819
 364  270.3584
 365  278.6025
 366  349.541
 367  312.6613
 368  352.8756
 369  361.0687
 370  365.1145
 371  504.2057
 372  470.0055
 373  543.1402
 374  496.2198
 375  455.4189
 376  384.6635
 377  405.3085
 378  422.0547
 379  496.789
 380  621.0262
 381  452.9279
 382  358.3615
 383  462.1154
 384  385.947
 385  429.6377
 386  482.4833
 387  541.7189
 388  407.7601
 389  408.9072
 390  438.0526
 391  460.4697
 392  434.0839
 393  465.4832
 394  439.0184
 395  352.2338
 396  243.5836
 397  378.7665
 398  488.7062
 399  412.3907
 400  400.7277
 401  424.8391
 402  311.7774
 403  281.5966
 404  312.6046
 405  356.4735
 406  301.7491
 407  370.109
 408  353.0816
 409  242.5021
 410  238.3759
 411  394.1999
 412  380.677
 413  378.0323
 414  405.1136
 415  370.1479
 416  326.4174
 417  324.03
 418  439.4969
 419  330.4821
 420  326.4425
 421  331.1331
 422  248.9101
 423  361.231
 424  425.8387
 425  280.2517
 426  253.9543
 427  407.4121
 428  451.1198
 429  418.0086
 430  369.1611
 431  256.6806
 432  320.0554
 433  389.2988
 434  374.0178
 435  421.8863
 436  439.0906
 437  381.5142
 438  383.198
 439  455.5836
 440  367.2141
 441  171.1906
 442  230.6987
 443  272.7818
 444  406.9841
 445  224.0024
 446  191.5643
 447  404.7428
 448  260.9651
 449  155.1599
 450  310.2111
 451  231.8197
 452  405.3281
 453  376.1121
 454  365.0024
 455  406.4193
 456  362.8643
 457  329.3462
 458  272.0479
 459  279.5019
 460  297.5273
 461  347.7408
 462  318.5085
 463  287.6957
 464  175.236
 465  105.1545
 466  222.2982
 467  313.0211
 468  197.8684
 469  245.2209
 470  322.3004
 471  316.4064
 472  334.0446
 473  308.2759
 474  349.1033
 475  273.7406
 476  206.0206
 477  293.6816
 478  418.0218
 479  424.6266
 480  381.2569
 481  358.251
 482  262.9227
 483  241.4944
 484  290.6603
 485  432.8644
 486  405.9754
 487  330.5577
 488  272.7053
 489  226.04
 490  243.3645
 491  248.7228
 492  136.7001
 493  199.4532
 494  356.2022
 495  403.713
 496  303.1949
 497  201.1623
 498  277.9365
 499  382.4361
 500  326.7906
 501  242.1907
 502  203.0774
 503  272.201
 504  344.6777
 505  257.2827
 506  427.6907
 507  427.2746
 508  357.6804
 509  571.9755
 510  783.6891
 511  903.0725
