# Input file       =  1206186294.114467_cleaned.dat
# Candidate        =  PSR_0332+5434
# Telescope        =  AR
# Epoch_topo       =  58204.489735121148
# Epoch_bary       =  N/A
# T_sample         =  0.002
# Data Folded      =  7340032
# Data Avg         =  0.0152785884091027
# Data StdDev      =  1.00026035917323 
# Profile Bins     =  512
# Profile Avg      =  218.565230002762 
# Profile StdDev   =  119.764209971125 
# Reduced chi-sqr  =  1.276
# Prob(Noise)      <  2.27e-05   (~4.1 sigma)
# P_topo (ms)      =  714.572178032741  +/- 0.000257
# P'_topo (s/s)    =  -0                +/- 1.35e-10
# P''_topo (s/s^2) =  0                 +/- 5.98e-14
# P_bary (ms)      =  N/A
# P'_bary (s/s)    =  N/A
# P''_bary (s/s^2) =  N/A
# P_orb (s)        =  N/A
# asin(i)/c (s)    =  N/A
# eccentricity     =  N/A
# w (rad)          =  N/A
# T_peri           =  N/A
######################################################
   0  285.3561
   1  286.7138
   2  272.7776
   3  210.801
   4  342.8436
   5  402.12
   6  243.6704
   7  316.0657
   8  321.4461
   9  266.0259
  10  254.5969
  11  272.8894
  12  350.9056
  13  299.8212
  14  344.1885
  15  395.2305
  16  402.0623
  17  288.7717
  18  239.1791
  19  207.1896
  20  186.1198
  21  134.9325
  22  181.1476
  23  131.3102
  24  179.8941
  25  140.109
  26  112.9892
  27  182.1048
  28  159.2956
  29  72.18864
  30  76.05479
  31  66.5502
  32  109.9829
  33  154.5022
  34  139.0593
  35  110.0333
  36  113.1323
  37  116.1515
  38  158.224
  39  101.7463
  40  86.22612
  41  173.9547
  42  143.5544
  43  176.3756
  44  146.9161
  45  120.1641
  46  65.26759
  47  57.15886
  48  46.40131
  49  141.0163
  50  150.0133
  51  247.0386
  52  334.4683
  53  333.9245
  54  246.6999
  55  207.7576
  56  182.3389
  57  340.9052
  58  313.1675
  59  262.897
  60  185.6924
  61  213.8069
  62  99.32409
  63  137.2587
  64  250.4007
  65  288.0202
  66  227.3392
  67  217.9161
  68  312.0762
  69  276.8175
  70  210.1401
  71  247.6424
  72  243.5706
  73  292.3145
  74  350.1261
  75  375.9167
  76  374.9172
  77  266.4972
  78  294.5332
  79  386.2292
  80  357.7829
  81  321.0949
  82  393.7823
  83  448.7072
  84  401.9169
  85  366.164
  86  411.1487
  87  455.8634
  88  415.9197
  89  335.7689
  90  280.7448
  91  365.5473
  92  458.0725
  93  413.7773
  94  283.2678
  95  230.4204
  96  228.2097
  97  222.1091
  98  259.906
  99  235.1234
 100  225.4856
 101  277.6715
 102  290.2276
 103  199.6421
 104  232.0883
 105  225.576
 106  197.7968
 107  190.778
 108  202.373
 109  262.8417
 110  253.6661
 111  196.7531
 112  235.5021
 113  188.3496
 114  235.5481
 115  238.9051
 116  270.7122
 117  204.8593
 118  104.9367
 119  142.3061
 120  151.7459
 121  139.911
 122  141.9934
 123  244.8501
 124  269.886
 125  128.1681
 126  83.61975
 127  214.8974
 128  227.5787
 129  206.7155
 130  103.3197
 131  193.3246
 132  209.0765
 133  199.5827
 134  285.7323
 135  242.4817
 136  152.5012
 137  188.3926
 138  203.2275
 139  194.1571
 140  287.5665
 141  263.2841
 142  291.6048
 143  320.9869
 144  359.5911
 145  273.6257
 146  242.4947
 147  303.1485
 148  244.7178
 149  270.9274
 150  284.4889
 151  283.1995
 152  335.9659
 153  304.6061
 154  348.2906
 155  330.2307
 156  292.598
 157  263.8094
 158  406.2989
 159  453.5457
 160  403.9213
 161  519.0692
 162  657.0055
 163  622.447
 164  652.1543
 165  697.2736
 166  621.5762
 167  420.8391
 168  343.2291
 169  257.2344
 170  166.3376
 171  194.5634
 172  221.2037
 173  193.7378
 174  224.5863
 175  211.7829
 176  296.6205
 177  223.0056
 178  239.2514
 179  285.0583
 180  318.3943
 181  225.8684
 182  183.9198
 183  195.0033
 184  177.7025
 185  122.4798
 186  181.3246
 187  141.2803
 188  182.0627
 189  112.2042
 190  96.66819
 191  105.0952
 192  184.6392
 193  227.8013
 194  214.2225
 195  119.3546
 196  105.8802
 197  91.00671
 198  108.2224
 199  142.5841
 200  134.4593
 201  130.2158
 202  173.8034
 203  172.1097
 204  210.3363
 205  220.8787
 206  179.4914
 207  151.1397
 208  110.6807
 209  153.8128
 210  201.807
 211  176.4845
 212  201.7181
 213  216.6498
 214  173.1441
 215  248.3506
 216  281.2955
 217  236.5395
 218  222.6339
 219  232.1474
 220  225.3578
 221  242.6908
 222  217.1061
 223  189.8865
 224  170.9706
 225  183.7151
 226  177.4615
 227  207.6427
 228  199.3198
 229  191.0617
 230  247.8645
 231  197.2847
 232  228.219
 233  260.6508
 234  194.1268
 235  175.0325
 236  91.5772
 237  251.7518
 238  186.5714
 239  172.4546
 240  256.1486
 241  227.0546
 242  203.1239
 243  132.5503
 244  128.8646
 245  169.5916
 246  88.60783
 247  152.439
 248  151.7533
 249  153.1085
 250  79.26204
 251  12.1987
 252  68.72283
 253  64.91465
 254  74.14948
 255  88.20763
 256  43.11275
 257  81.33902
 258  98.57677
 259  213.5795
 260  145.5887
 261  133.4149
 262  190.491
 263  123.6108
 264  112.6606
 265  84.97972
 266  105.9004
 267  142.9377
 268  64.76047
 269  120.0097
 270  85.82995
 271  108.5062
 272  140.9539
 273  60.5409
 274  95.0346
 275  222.0734
 276  218.8405
 277  196.9194
 278  184.109
 279  182.4225
 280  151.2731
 281  184.7266
 282  177.7083
 283  263.5586
 284  256.5512
 285  228.02
 286  281.5988
 287  264.8652
 288  278.3161
 289  196.3723
 290  223.5786
 291  283.7956
 292  304.9631
 293  212.3923
 294  308.311
 295  350.6697
 296  287.1938
 297  276.4354
 298  203.041
 299  198.2668
 300  232.0159
 301  269.6876
 302  255.8316
 303  269.9924
 304  276.683
 305  298.8171
 306  242.7349
 307  220.3636
 308  209.6743
 309  203.4751
 310  141.9121
 311  200.1039
 312  161.4947
 313  154.7192
 314  242.4209
 315  179.0714
 316  170.5167
 317  132.2103
 318  174.6642
 319  149.4393
 320  154.4121
 321  181.4949
 322  112.5463
 323  92.6543
 324  106.0163
 325  117.2991
 326  95.58295
 327  133.3815
 328  169.2696
 329  233.1688
 330  205.5818
 331  161.5635
 332  102.6372
 333  93.25813
 334  164.5606
 335  115.6338
 336  70.68748
 337  89.66698
 338  135.6128
 339  141.2421
 340  127.7665
 341  100.8008
 342  87.6573
 343  126.6596
 344  164.0164
 345  147.1056
 346  133.0736
 347  101.951
 348  92.1469
 349  109.3642
 350  89.36874
 351  71.49312
 352  56.85595
 353  82.66929
 354  117.5321
 355  141.4751
 356  120.5389
 357  61.80748
 358  85.35285
 359  196.297
 360  216.2309
 361  123.5254
 362  246.7738
 363  198.6566
 364  229.7588
 365  244.5377
 366  231.9786
 367  249.1103
 368  285.2426
 369  363.23
 370  312.098
 371  276.4525
 372  347.2435
 373  352.3577
 374  375.8696
 375  336.4297
 376  243.9464
 377  324.6725
 378  374.4543
 379  284.7437
 380  257.5036
 381  270.8634
 382  325.5978
 383  362.6634
 384  328.8397
 385  405.3075
 386  316.0601
 387  231.777
 388  264.8145
 389  248.1798
 390  271.8375
 391  278.3249
 392  264.0281
 393  308.2841
 394  268.9924
 395  317.2836
 396  314.4488
 397  148.4129
 398  107.3005
 399  163.645
 400  165.2191
 401  36.36921
 402  3.924799
 403  50.83197
 404  134.2137
 405  106.587
 406  61.77405
 407  115.4751
 408  64.50663
 409  33.55107
 410  57.25816
 411  84.6792
 412  82.37003
 413  180.1698
 414  120.6756
 415  104.4188
 416  87.25356
 417  111.4041
 418  85.74186
 419  125.8343
 420  197.8212
 421  242.0262
 422  220.7243
 423  185.7781
 424  210.2033
 425  219.8584
 426  107.5903
 427  136.0828
 428  141.8938
 429  136.4662
 430  229.7042
 431  301.2964
 432  263.3842
 433  198.1002
 434  261.5285
 435  239.1911
 436  300.755
 437  341.9528
 438  322.6683
 439  291.6801
 440  245.7872
 441  334.7711
 442  294.4872
 443  285.6129
 444  308.1779
 445  312.0795
 446  343.2946
 447  377.7326
 448  322.7211
 449  243.4471
 450  299.4645
 451  378.8725
 452  354.7383
 453  322.4707
 454  376.9254
 455  419.1576
 456  305.439
 457  243.0589
 458  274.6899
 459  265.7251
 460  284.3036
 461  210.6985
 462  207.8327
 463  228.8122
 464  170.3168
 465  206.3629
 466  205.6418
 467  259.6992
 468  132.3803
 469  61.89682
 470  160.8618
 471  231.8868
 472  253.9431
 473  209.0797
 474  156.997
 475  141.1747
 476  177.7159
 477  249.8357
 478  172.2527
 479  230.8613
 480  224.1122
 481  173.0034
 482  186.7243
 483  184.2786
 484  182.3031
 485  165.838
 486  216.4687
 487  195.6814
 488  210.1818
 489  227.7848
 490  223.0408
 491  270.3942
 492  232.4816
 493  216.9273
 494  200.8177
 495  240.0378
 496  244.6317
 497  222.1018
 498  187.866
 499  253.8538
 500  215.585
 501  254.9991
 502  298.836
 503  287.0746
 504  254.1396
 505  293.0925
 506  269.1986
 507  264.9305
 508  202.3904
 509  300.7242
 510  365.114
 511  349.065
