# Input file       =  1206171627.11937_cleaned.dat
# Candidate        =  PSR_0332+5434
# Telescope        =  AR
# Epoch_topo       =  58204.319978233449
# Epoch_bary       =  N/A
# T_sample         =  0.002
# Data Folded      =  7208960
# Data Avg         =  0.0165243326747429
# Data StdDev      =  1.00007261559776 
# Profile Bins     =  512
# Profile Avg      =  232.741980729593 
# Profile StdDev   =  118.667792300511 
# Reduced chi-sqr  =  2.214
# Prob(Noise)      <  5.83e-49   (~14.7 sigma)
# P_topo (ms)      =  714.572249903751  +/- 5.3e-05
# P'_topo (s/s)    =  -0                +/- 2.85e-11
# P''_topo (s/s^2) =  0                 +/- 1.28e-14
# P_bary (ms)      =  N/A
# P'_bary (s/s)    =  N/A
# P''_bary (s/s^2) =  N/A
# P_orb (s)        =  N/A
# asin(i)/c (s)    =  N/A
# eccentricity     =  N/A
# w (rad)          =  N/A
# T_peri           =  N/A
######################################################
   0  1265.022
   1  1052.266
   2  804.6917
   3  399.8645
   4  111.171
   5  154.6273
   6  236.363
   7  294.7413
   8  228.3321
   9  270.5532
  10  437.7757
  11  331.0643
  12  338.1926
  13  324.2245
  14  443.1743
  15  359.3178
  16  276.3412
  17  251.8721
  18  254.7687
  19  214.2538
  20  211.8725
  21  235.0118
  22  196.7035
  23  144.9301
  24  131.8413
  25  281.6287
  26  226.8834
  27  224.9395
  28  166.093
  29  115.4371
  30  164.456
  31  267.3156
  32  271.0379
  33  230.5368
  34  422.5473
  35  382.7196
  36  143.1799
  37  79.51627
  38  205.3093
  39  360.6051
  40  479.1853
  41  248.6425
  42  234.9848
  43  337.3495
  44  360.7451
  45  314.5268
  46  232.8223
  47  200.4209
  48  362.9434
  49  241.0295
  50  263.9739
  51  390.6752
  52  299.8222
  53  307.0274
  54  216.7438
  55  103.3585
  56  90.9168
  57  148.7649
  58  214.1763
  59  279.9377
  60  335.4651
  61  297.1481
  62  240.0556
  63  231.0824
  64  217.2208
  65  180.5733
  66  176.7648
  67  266.0383
  68  239.8612
  69  209.1646
  70  76.5236
  71  25.01092
  72  172.904
  73  265.0414
  74  128.0145
  75  234.4804
  76  290.955
  77  322.07
  78  317.3426
  79  171.1668
  80  74.66427
  81  50.63682
  82  274.1319
  83  356.8716
  84  307.707
  85  378.2225
  86  203.8978
  87  -44.66862
  88  103.6166
  89  180.9045
  90  122.0938
  91  293.341
  92  388.5445
  93  362.5871
  94  288.6563
  95  253.0964
  96  120.6945
  97  72.07832
  98  162.8179
  99  137.0435
 100  107.9782
 101  191.7771
 102  266.9415
 103  91.79959
 104  233.0606
 105  302.0873
 106  244.7141
 107  159.0601
 108  180.6546
 109  273.5427
 110  303.7401
 111  247.335
 112  185.9679
 113  257.9163
 114  317.7478
 115  150.853
 116  180.0294
 117  222.8499
 118  303.5226
 119  375.6071
 120  233.2015
 121  191.4411
 122  318.4511
 123  224.0699
 124  307.4502
 125  284.6341
 126  200.8515
 127  249.4789
 128  199.8474
 129  177.4506
 130  314.6194
 131  320.3423
 132  191.6947
 133  356.4953
 134  316.2379
 135  304.3997
 136  170.9753
 137  46.04272
 138  305.2627
 139  294.211
 140  173.5999
 141  290.4031
 142  301.016
 143  234.316
 144  230.9321
 145  350.378
 146  366.4038
 147  265.2226
 148  216.6172
 149  168.6468
 150  329.2686
 151  321.0236
 152  128.3547
 153  126.9048
 154  319.5349
 155  295.8585
 156  270.5284
 157  298.4257
 158  352.3123
 159  312.375
 160  230.5959
 161  141.8012
 162  168.8576
 163  108.6177
 164  157.0936
 165  146.5927
 166  317.6533
 167  316.5699
 168  260.7473
 169  216.6889
 170  34.82899
 171  132.066
 172  227.5849
 173  254.7186
 174  303.5805
 175  332.52
 176  244.1286
 177  257.8344
 178  272.0945
 179  278.2566
 180  265.6397
 181  97.59869
 182  158.699
 183  343.675
 184  337.556
 185  212.0805
 186  174.5034
 187  139.0035
 188  197.9719
 189  230.5473
 190  241.3084
 191  234.3092
 192  300.642
 193  167.7576
 194  157.6416
 195  116.835
 196  168.8928
 197  235.6673
 198  254.5031
 199  237.9287
 200  254.9213
 201  271.499
 202  201.5437
 203  150.1451
 204  124.0431
 205  98.9288
 206  118.9791
 207  85.04021
 208  192.4351
 209  326.616
 210  176.0205
 211  151.4086
 212  173.6369
 213  145.6346
 214  266.2371
 215  250.8679
 216  232.0369
 217  207.0292
 218  190.1603
 219  52.62061
 220  105.8022
 221  202.7084
 222  288.4411
 223  189.9642
 224  236.8107
 225  328.1871
 226  353.3426
 227  243.5488
 228  177.8342
 229  141.517
 230  29.64923
 231  55.07582
 232  235.9895
 233  272.2021
 234  92.90718
 235  88.24541
 236  107.4806
 237  113.12
 238  270.3333
 239  210.9739
 240  260.8629
 241  385.9656
 242  363.2952
 243  169.0614
 244  216.1418
 245  285.1803
 246  345.8468
 247  464.9203
 248  375.3823
 249  285.8604
 250  224.3593
 251  226.6026
 252  59.16467
 253  110.6547
 254  289.8661
 255  271.3096
 256  237.8683
 257  295.8955
 258  351.4162
 259  230.9543
 260  90.75788
 261  143.7596
 262  201.1987
 263  313.8458
 264  261.9543
 265  316.4085
 266  261.1452
 267  145.2312
 268  106.9706
 269  40.85583
 270  85.64214
 271  172.1489
 272  222.5971
 273  280.1954
 274  346.7151
 275  296.8727
 276  113.7087
 277  130.6908
 278  229.7346
 279  271.523
 280  261.6309
 281  221.7952
 282  289.5469
 283  215.7053
 284  125.3692
 285  -22.22615
 286  -17.22894
 287  137.8568
 288  289.2299
 289  312.5549
 290  270.8609
 291  268.4377
 292  432.4313
 293  301.5825
 294  206.2227
 295  250.5685
 296  319.4357
 297  256.8753
 298  124.2022
 299  148.7045
 300  240.2304
 301  240.1459
 302  168.987
 303  107.7984
 304  222.2788
 305  208.4072
 306  290.2283
 307  422.1379
 308  420.0801
 309  297.0059
 310  52.13314
 311  122.5573
 312  176.8499
 313  163.0558
 314  209.5423
 315  231.3491
 316  281.6129
 317  226.1995
 318  143.9601
 319  142.9167
 320  189.5341
 321  96.06112
 322  172.4781
 323  235.6083
 324  250.4585
 325  228.7725
 326  124.0481
 327  57.92579
 328  309.2436
 329  322.683
 330  242.5361
 331  258.5998
 332  293.6852
 333  343.1168
 334  76.22774
 335  136.7796
 336  209.5734
 337  236.4726
 338  363.9825
 339  294.4438
 340  272.6235
 341  341.6912
 342  177.9283
 343  103.1154
 344  211.5106
 345  200.8034
 346  162.5235
 347  148.0231
 348  317.2703
 349  221.407
 350  70.44289
 351  11.31832
 352  100.4036
 353  197.6332
 354  293.6872
 355  159.8606
 356  213.7539
 357  295.3478
 358  254.7464
 359  171.7953
 360  72.39982
 361  125.9768
 362  251.3126
 363  303.4123
 364  283.5885
 365  253.6675
 366  149.3625
 367  218.0131
 368  234.4656
 369  126.6974
 370  152.8123
 371  325.6046
 372  233.6113
 373  400.2325
 374  402.0549
 375  327.8227
 376  291.3133
 377  192.7379
 378  357.4293
 379  275.3215
 380  314.7634
 381  308.8649
 382  106.8009
 383  84.05965
 384  105.7144
 385  38.14745
 386  170.2585
 387  149.4968
 388  185.868
 389  401.9709
 390  537.2848
 391  396.1324
 392  263.3844
 393  214.057
 394  210.1336
 395  106.3127
 396  131.8561
 397  245.9849
 398  319.2724
 399  268.2836
 400  252.221
 401  123.5682
 402  152.4596
 403  163.1143
 404  178.0766
 405  338.306
 406  351.9839
 407  281.6191
 408  51.85612
 409  82.8851
 410  11.6198
 411  198.9692
 412  341.0376
 413  163.3542
 414  153.5397
 415  207.663
 416  123.7012
 417  56.01449
 418  50.9838
 419  172.1843
 420  63.00235
 421  193.9328
 422  373.9722
 423  424.5285
 424  368.5056
 425  267.1136
 426  85.19012
 427  107.5556
 428  84.96318
 429  203.424
 430  202.3502
 431  245.9144
 432  332.3284
 433  187.2451
 434  267.3807
 435  379.2638
 436  382.5356
 437  398.2628
 438  433.1499
 439  377.3945
 440  196.6847
 441  248.0725
 442  240.284
 443  171.6904
 444  155.1861
 445  105.1203
 446  128.4263
 447  351.2173
 448  321.3159
 449  236.4598
 450  103.0639
 451  68.74251
 452  -12.23934
 453  167.0657
 454  233.524
 455  313.3937
 456  299.5998
 457  246.8185
 458  210.8023
 459  291.7689
 460  264.374
 461  175.3644
 462  137.0463
 463  256.1556
 464  295.4134
 465  218.61
 466  142.1922
 467  202.3211
 468  204.611
 469  122.7188
 470  178.7013
 471  321.824
 472  306.7058
 473  167.0742
 474  226.1062
 475  106.6095
 476  237.7684
 477  192.1229
 478  109.9781
 479  162.6777
 480  181.7633
 481  251.3057
 482  157.1707
 483  93.47214
 484  107.3402
 485  100.299
 486  52.1748
 487  77.82829
 488  163.1993
 489  243.2019
 490  167.3777
 491  213.3622
 492  234.3651
 493  231.3166
 494  316.3432
 495  186.5037
 496  175.9117
 497  166.1785
 498  215.761
 499  86.00521
 500  58.9875
 501  81.20473
 502  172.6449
 503  237.9596
 504  299.9375
 505  284.6779
 506  413.0497
 507  489.051
 508  395.8163
 509  628.5455
 510  1039.119
 511  1186.239
