# Input file       =  1206272451.117398_cleaned.dat
# Candidate        =  PSR_0332+5434
# Telescope        =  AR
# Epoch_topo       =  58205.486922655073
# Epoch_bary       =  N/A
# T_sample         =  0.002
# Data Folded      =  7340032
# Data Avg         =  -0.0477031935193485
# Data StdDev      =  6.35089446653895 
# Profile Bins     =  512
# Profile Avg      =  -683.823439014553
# Profile StdDev   =  760.411878187111 
# Reduced chi-sqr  =  0.533
# Prob(Noise)      <  1   (~0.0 sigma)
# P_topo (ms)      =  714.571643844376  +/- 0.00105
# P'_topo (s/s)    =  -0                +/- 5.57e-10
# P''_topo (s/s^2) =  0                 +/- 2.46e-13
# P_bary (ms)      =  N/A
# P'_bary (s/s)    =  N/A
# P''_bary (s/s^2) =  N/A
# P_orb (s)        =  N/A
# asin(i)/c (s)    =  N/A
# eccentricity     =  N/A
# w (rad)          =  N/A
# T_peri           =  N/A
######################################################
   0  -992.8881
   1  -1107.275
   2  -1205.197
   3  -1236.76
   4  -841.9299
   5  -1108.832
   6  -1205.372
   7  -784.7486
   8  -844.9889
   9  -1308.104
  10  -1178.471
  11  -1083.823
  12  -1022.027
  13  -918.6755
  14  -921.1953
  15  -1089.19
  16  -853.2896
  17  -924.5734
  18  -1145.63
  19  -1171.001
  20  -1042.762
  21  -1062.056
  22  -915.1335
  23  -663.4219
  24  -852.7945
  25  -1046.828
  26  -702.5757
  27  -761.0736
  28  -797.9314
  29  -1158.124
  30  -1166.191
  31  -977.0634
  32  -1135.881
  33  -761.3206
  34  -595.8709
  35  -796.8737
  36  -691.0234
  37  -919.6514
  38  -942.4417
  39  -861.9058
  40  -788.828
  41  -815.834
  42  -768.3721
  43  -942.3403
  44  -829.465
  45  -941.512
  46  -926.6053
  47  -567.2819
  48  -610.726
  49  -481.5929
  50  -489.3515
  51  -467.2569
  52  -814.1797
  53  -663.0248
  54  -561.3992
  55  -492.1751
  56  -633.2741
  57  -742.5688
  58  -712.1863
  59  -552.9276
  60  -705.0024
  61  -414.6912
  62  -587.615
  63  -903.2595
  64  -733.6235
  65  -723.294
  66  -631.8722
  67  -721.5876
  68  -1077.737
  69  -1049.139
  70  -1045.019
  71  -961.0762
  72  -881.9866
  73  -688.6436
  74  -699.5098
  75  -630.4853
  76  -245.7731
  77  -538.9272
  78  -636.367
  79  -956.2076
  80  -731.2604
  81  -629.101
  82  -802.0215
  83  -979.0151
  84  -1022.773
  85  -665.4126
  86  -674.5723
  87  -354.6027
  88  -359.4252
  89  -641.9815
  90  -893.0376
  91  -654.8097
  92  -521.5435
  93  -494.9644
  94  -586.955
  95  -67.86149
  96  -65.17604
  97  -82.75535
  98  -405.6782
  99  -713.1596
 100  -328.2611
 101  -31.0983
 102  -446.0247
 103  -760.9591
 104  -930.05
 105  -1050.019
 106  -567.1649
 107  -343.834
 108  -361.6729
 109  -539.2976
 110  -624.0696
 111  -963.2617
 112  -813.4755
 113  -753.1814
 114  -449.8325
 115  -442.2413
 116  -389.1121
 117  -553.829
 118  -750.4283
 119  -665.4114
 120  -540.9539
 121  -582.5062
 122  -433.2587
 123  -365.6041
 124  -575.7104
 125  -593.2089
 126  -634.2155
 127  -404.598
 128  -197.8431
 129  -22.39294
 130  -195.2853
 131  49.66663
 132  134.9997
 133  -52.43187
 134  25.79482
 135  108.1466
 136  222.2316
 137  3.361813
 138  238.7453
 139  186.0209
 140  28.91297
 141  -8.301897
 142  31.90863
 143  -180.8582
 144  -203.2488
 145  -705.8243
 146  -464.6841
 147  -312.5233
 148  -270.592
 149  -473.5971
 150  -860.5126
 151  -524.8577
 152  -498.0842
 153  -430.293
 154  -450.2212
 155  -507.2805
 156  49.46807
 157  -308.5987
 158  -599.9181
 159  -668.5478
 160  -203.4184
 161  -569.5456
 162  -541.1847
 163  -455.6058
 164  -854.0934
 165  -863.6197
 166  -817.1199
 167  -1025.764
 168  -658.3992
 169  -905.475
 170  -808.6777
 171  -825.7943
 172  -1134.308
 173  -1147.174
 174  -799.9642
 175  -1269.913
 176  -1367.854
 177  -1312.531
 178  -1055.882
 179  -1220.563
 180  -1146.128
 181  -1218.844
 182  -1455.666
 183  -1341.006
 184  -1558.518
 185  -1735.021
 186  -1538.887
 187  -1510.338
 188  -1399.277
 189  -1255.944
 190  -1434.197
 191  -1230.376
 192  -1484.877
 193  -1617.756
 194  -1534.691
 195  -1265.317
 196  -1130.372
 197  -1383.008
 198  -1261.358
 199  -1308.277
 200  -1146.003
 201  -831.7798
 202  -1071.753
 203  -1146.741
 204  -716.079
 205  -434.6693
 206  -633.4044
 207  -836.1772
 208  -948.672
 209  -806.7764
 210  -775.7135
 211  -826.8958
 212  -510.4388
 213  -246.7816
 214  -354.4547
 215  -643.4631
 216  -854.1387
 217  -1284.601
 218  -1270.593
 219  -889.1677
 220  -856.8449
 221  -847.3521
 222  -812.3678
 223  -712.3151
 224  -459.4276
 225  -282.4596
 226  -298.0435
 227  -546.673
 228  -389.3369
 229  108.7628
 230  115.0885
 231  -364.2296
 232  -747.6672
 233  -543.9644
 234  -356.8488
 235  -589.9743
 236  -769.3918
 237  -698.9022
 238  -581.025
 239  -586.5105
 240  -763.4976
 241  -781.7342
 242  -583.1187
 243  -664.369
 244  -515.7105
 245  -109.0822
 246  208.4788
 247  -273.7352
 248  -514.3893
 249  -603.3917
 250  -573.3567
 251  -309.7436
 252  -348.9866
 253  -286.5262
 254  -415.7358
 255  -696.2487
 256  -833.5095
 257  -514.2283
 258  -447.5454
 259  -743.2634
 260  -729.0314
 261  -354.4241
 262  -414.9461
 263  -370.4073
 264  -521.5649
 265  -695.9352
 266  -537.3387
 267  -317.3328
 268  -508.991
 269  -923.9275
 270  -545.2819
 271  -809.0267
 272  -941.2863
 273  -1084.639
 274  -696.1779
 275  -455.5932
 276  -722.0908
 277  -780.1438
 278  -793.6103
 279  -491.0195
 280  -635.1966
 281  -760.2614
 282  -859.2336
 283  -753.5297
 284  -989.87
 285  -890.3693
 286  -1274.234
 287  -920.8135
 288  -712.1078
 289  -1074.105
 290  -681.9463
 291  -442.3181
 292  -423.7023
 293  -605.828
 294  -633.2198
 295  -518.2538
 296  -656.1964
 297  -581.7735
 298  -501.6629
 299  -330.2687
 300  -156.4086
 301  -292.4577
 302  -334.6072
 303  -274.3769
 304  -517.3232
 305  -600.8831
 306  -900.5583
 307  -682.0745
 308  -543.2483
 309  -412.5146
 310  -576.6875
 311  -646.6218
 312  -538.4243
 313  -570.9963
 314  -710.3861
 315  -403.1393
 316  -562.5954
 317  -952.0894
 318  -682.0121
 319  -577.7724
 320  -815.3837
 321  -572.1892
 322  -434.8695
 323  -916.7488
 324  -773.433
 325  -1041.682
 326  -1304.898
 327  -1205.739
 328  -950.0111
 329  -875.0649
 330  -881.9252
 331  -990.3943
 332  -1050.41
 333  -765.3442
 334  -816.87
 335  -357.8185
 336  -478.1306
 337  -953.6652
 338  -1054.952
 339  -658.9261
 340  -390.7003
 341  -229.5806
 342  -368.9724
 343  -333.0114
 344  -816.523
 345  -829.1308
 346  -1055.573
 347  -750.7372
 348  -369.9183
 349  -443.3896
 350  -771.636
 351  -1189.918
 352  -1316.86
 353  -1054.65
 354  -789.3624
 355  -603.2775
 356  -717.3441
 357  -1080.824
 358  -1113.505
 359  -1136.658
 360  -1022.767
 361  -791.9801
 362  -1250.643
 363  -1452.402
 364  -1442.125
 365  -1183.735
 366  -1260.456
 367  -1025.152
 368  -1066.562
 369  -1029.016
 370  -972.7413
 371  -961.1269
 372  -882.075
 373  -1003.075
 374  -682.2007
 375  -311.2768
 376  -241.5814
 377  -565.6414
 378  -866.6089
 379  -837.4538
 380  -1165.27
 381  -803.6844
 382  -765.5702
 383  -84.87806
 384  -104.7783
 385  -468.3595
 386  -640.9384
 387  -716.976
 388  -1069.216
 389  -741.671
 390  -588.3646
 391  -507.7548
 392  -936.5779
 393  -1093.125
 394  -1198.653
 395  -1077.825
 396  -569.8391
 397  -437.2715
 398  -599.6609
 399  -781.4983
 400  -689.2922
 401  -585.8359
 402  -653.9129
 403  -947.1169
 404  -826.0471
 405  -442.0107
 406  -805.3284
 407  -464.5026
 408  -285.6324
 409  -303.3257
 410  -186.2804
 411  -532.803
 412  -273.5198
 413  -267.6896
 414  -417.3014
 415  -501.6387
 416  -407.0566
 417  -175.3574
 418  -194.3792
 419  -17.24042
 420  -12.40227
 421  -373.5646
 422  -243.9437
 423  -165.8089
 424  -122.457
 425  -428.8562
 426  -791.1622
 427  -748.2204
 428  -759.2993
 429  -968.1411
 430  -383.7785
 431  -278.1946
 432  -303.6293
 433  -155.8428
 434  -377.9726
 435  -651.1791
 436  -672.2084
 437  -587.3757
 438  -719.1353
 439  -573.8436
 440  -313.5368
 441  -74.99319
 442  -62.31554
 443  -6.648041
 444  -11.55617
 445  -436.1495
 446  -121.3348
 447  555.4509
 448  860.6431
 449  1774.69
 450  1467.909
 451  782.8995
 452  253.8654
 453  -695.442
 454  -1390.833
 455  -1188.497
 456  -753.3292
 457  -572.3021
 458  -790.9262
 459  -656.9787
 460  -739.1562
 461  -670.433
 462  -462.9466
 463  -632.2207
 464  -300.191
 465  100.6004
 466  -277.1091
 467  -647.3203
 468  -635.3124
 469  -863.428
 470  -797.3336
 471  -684.0159
 472  -299.1245
 473  -399.2459
 474  -86.93855
 475  -587.8238
 476  -768.2321
 477  -723.101
 478  -685.6562
 479  -1194.676
 480  -1063.043
 481  -833.2879
 482  -789.6717
 483  -382.9773
 484  -547.3853
 485  -860.1616
 486  -1239.521
 487  -1356.728
 488  -1184.057
 489  -1199.084
 490  -1121.163
 491  -1129.891
 492  -1106.01
 493  -678.0561
 494  -625.6564
 495  -873.4984
 496  -726.51
 497  -1000.391
 498  -844.8192
 499  -850.649
 500  -792.8382
 501  -755.6112
 502  -830.2254
 503  -1043.645
 504  -1140.488
 505  -1127.625
 506  -1107.988
 507  -1437.4
 508  -1280.309
 509  -1469.159
 510  -1542.448
 511  -1429.709
