# Input file       =  1207808803.09915_cleaned.dat
# Candidate        =  PSR_0332+5434
# Telescope        =  AR
# Epoch_topo       =  58223.268774295721
# Epoch_bary       =  N/A
# T_sample         =  0.002
# Data Folded      =  7208960
# Data Avg         =  0.406160758719356
# Data StdDev      =  6.00017741301592 
# Profile Bins     =  1024
# Profile Avg      =  2859.34956395634 
# Profile StdDev   =  503.443132908943 
# Reduced chi-sqr  =  1.712
# Prob(Noise)      <  4.42e-41   (~13.4 sigma)
# P_topo (ms)      =  714.559945020102  +/- 4.35e-05
# P'_topo (s/s)    =  -0                +/- 2.34e-11
# P''_topo (s/s^2) =  0                 +/- 1.05e-14
# P_bary (ms)      =  N/A
# P'_bary (s/s)    =  N/A
# P''_bary (s/s^2) =  N/A
# P_orb (s)        =  N/A
# asin(i)/c (s)    =  N/A
# eccentricity     =  N/A
# w (rad)          =  N/A
# T_peri           =  N/A
######################################################
   0  2758.336
   1  2837.257
   2  2814.439
   3  2882.371
   4  2960.098
   5  2922.803
   6  2952.59
   7  3007.09
   8  2967.166
   9  2883.712
  10  2695.408
  11  2688.72
  12  2625.149
  13  2626.288
  14  2826.664
  15  2789.812
  16  2589.209
  17  2469.219
  18  2754.957
  19  3114.194
  20  3278.532
  21  3451.996
  22  3598.065
  23  3545.168
  24  3520.747
  25  3617.411
  26  3767.673
  27  3654.944
  28  3441.365
  29  3324.909
  30  3138.964
  31  3159.078
  32  3240.062
  33  3230.374
  34  3023.602
  35  2846.541
  36  2920.094
  37  3024.9
  38  3073.976
  39  3041.684
  40  3058.311
  41  3005.286
  42  2914.136
  43  2898.853
  44  2957.767
  45  3016.446
  46  3009.394
  47  3123.243
  48  2991.673
  49  2886.213
  50  2748.434
  51  2927.517
  52  3153.106
  53  3316.781
  54  3378.209
  55  3511.383
  56  3600.024
  57  3799.686
  58  3772.239
  59  3925.488
  60  3836.134
  61  3655.344
  62  3477.608
  63  3501.041
  64  3323.167
  65  3159.153
  66  2995.365
  67  2997.342
  68  2962.525
  69  2922.196
  70  3020.026
  71  2991.175
  72  2975.853
  73  2932.552
  74  2853.086
  75  2914.466
  76  2932.976
  77  3021.124
  78  3082.342
  79  3093.134
  80  3031.416
  81  2973.84
  82  2833.628
  83  2731.366
  84  2813.442
  85  2987.806
  86  3153.04
  87  3215.92
  88  3287.471
  89  3492.472
  90  3545.18
  91  3784.65
  92  3711.47
  93  3618.256
  94  3446.403
  95  3426.685
  96  3333.169
  97  3175.539
  98  2941.802
  99  2926.673
 100  2904.578
 101  2977.041
 102  2909.074
 103  2857.385
 104  2815.125
 105  2844.413
 106  2932.47
 107  2870.505
 108  2755.426
 109  2718.545
 110  2942.896
 111  3057.73
 112  3129.774
 113  3016.617
 114  2963.948
 115  2921.246
 116  3069.872
 117  3173.967
 118  3120.548
 119  3108.58
 120  3144.201
 121  3202.103
 122  3235.73
 123  3254.083
 124  3522.81
 125  3551.067
 126  3513.136
 127  3404.347
 128  3247.008
 129  3179.644
 130  3080.22
 131  3095.165
 132  2888.648
 133  2675.137
 134  2587.541
 135  2498.329
 136  2495.251
 137  2600.271
 138  2877.055
 139  2988.611
 140  2810.919
 141  2623.734
 142  2629.132
 143  2600.007
 144  2579.934
 145  2653.038
 146  2669.944
 147  2678.445
 148  2679.177
 149  2796.869
 150  2848.526
 151  2880.623
 152  3039.315
 153  3099.876
 154  3165.959
 155  3200.865
 156  3228.599
 157  3224.398
 158  3085.054
 159  3125.831
 160  3151.837
 161  2953.434
 162  2908.091
 163  2873.284
 164  2961.869
 165  2850.517
 166  2661.38
 167  2512.566
 168  2372.675
 169  2670.01
 170  2932.389
 171  3029.776
 172  2892.347
 173  2686.275
 174  2717.29
 175  2657.481
 176  2612.165
 177  2687.079
 178  2728.274
 179  2762.254
 180  2820.15
 181  2910.358
 182  2921.846
 183  2834.625
 184  2929.412
 185  3085.267
 186  3140.424
 187  3189.076
 188  3195.311
 189  3191.794
 190  3097.308
 191  3105.604
 192  3297.638
 193  3279.692
 194  3133.734
 195  2964.945
 196  2807.844
 197  2728.566
 198  2664.463
 199  2715.502
 200  2722.129
 201  2533.643
 202  2628.419
 203  2747.113
 204  3003.585
 205  2978.644
 206  2990.801
 207  3052.323
 208  2903.702
 209  2734.865
 210  2790.214
 211  2920.148
 212  2881.616
 213  2702.367
 214  2639.76
 215  2607.171
 216  2678.825
 217  2799.412
 218  2910.488
 219  3066.102
 220  3157.562
 221  3319.813
 222  3448.842
 223  3490.217
 224  3576.874
 225  3642.713
 226  3470.296
 227  3116.251
 228  2955.494
 229  3013.241
 230  3157.244
 231  3156.958
 232  3082.938
 233  2868.639
 234  2799.855
 235  2777.153
 236  2747.713
 237  2850.707
 238  2782.765
 239  2903.093
 240  2927.992
 241  2973.881
 242  2879.436
 243  2826.396
 244  2765.715
 245  2677.069
 246  2605.105
 247  2681.117
 248  2679.497
 249  2734.628
 250  2831.977
 251  2988.007
 252  3121.167
 253  3223.892
 254  3384.564
 255  3277.978
 256  3125.859
 257  3160.399
 258  3344.269
 259  3301.48
 260  3144.029
 261  3098.787
 262  3109.713
 263  2759.668
 264  2673.677
 265  2491.444
 266  2537.553
 267  2473.619
 268  2622.042
 269  2629.783
 270  2534.732
 271  2448.426
 272  2582.375
 273  2585.612
 274  2551.434
 275  2497.57
 276  2483.859
 277  2544.482
 278  2721.384
 279  2752.427
 280  2635.092
 281  2422.902
 282  2517.118
 283  2745.136
 284  3023.476
 285  3072.827
 286  3050.251
 287  3215.815
 288  3112.09
 289  3198.333
 290  3240.623
 291  3387.213
 292  3261.882
 293  3171.844
 294  2951.853
 295  2831.813
 296  2614.098
 297  2857.597
 298  2792.616
 299  2830.359
 300  2698.312
 301  2573.221
 302  2654.613
 303  2726.875
 304  2807.542
 305  2699.407
 306  2409.527
 307  2284.387
 308  2237.393
 309  2295.069
 310  2489.864
 311  2537.617
 312  2700.853
 313  2627.947
 314  2718.624
 315  2816.562
 316  2828.927
 317  2975.761
 318  2979.875
 319  3042.348
 320  3112.944
 321  3082.253
 322  3183.145
 323  3188.772
 324  3176.271
 325  3136.295
 326  3113.542
 327  3185.292
 328  3108.738
 329  2897.266
 330  2737.013
 331  2469.937
 332  2459.181
 333  2468.083
 334  2614.144
 335  2575.741
 336  2565.63
 337  2604.75
 338  2789.715
 339  2623.357
 340  2488.502
 341  2265.347
 342  2328.222
 343  2480.172
 344  2492.45
 345  2506.974
 346  2374.556
 347  2667.305
 348  2950.678
 349  3213.503
 350  3237.432
 351  3237.346
 352  3164.002
 353  3203.238
 354  3119.779
 355  3248.125
 356  3133.107
 357  3209.194
 358  3193.097
 359  3231.926
 360  3089.959
 361  2826.846
 362  2774.862
 363  2756.803
 364  2751.696
 365  2680.348
 366  2535.499
 367  2668.713
 368  2803.941
 369  2820.743
 370  2728.768
 371  2459.543
 372  2417.371
 373  2540.388
 374  2664.847
 375  2718.719
 376  2568.759
 377  2551.291
 378  2533.371
 379  2596.322
 380  2789.243
 381  2875.835
 382  3039.293
 383  3231.101
 384  3315.391
 385  3449.666
 386  3426.593
 387  3626.572
 388  3624.943
 389  3578.728
 390  3448.443
 391  3250.618
 392  3219.921
 393  3223.174
 394  3188.598
 395  3092.214
 396  2965.241
 397  2985.823
 398  2723.5
 399  2703.698
 400  2756.804
 401  2951.19
 402  2999.751
 403  2940.127
 404  2805.95
 405  2829.662
 406  2897.511
 407  2865.807
 408  2788.786
 409  2795.799
 410  2921.977
 411  2859.774
 412  2721.35
 413  2716.171
 414  2703.053
 415  2911.236
 416  3009.895
 417  3165.096
 418  3369.825
 419  3522.86
 420  3667.107
 421  3662.123
 422  3559.259
 423  3421.93
 424  3351.592
 425  3167.044
 426  3044.186
 427  2953.667
 428  2962.581
 429  2893.749
 430  2924.44
 431  2740.342
 432  2570.866
 433  2440.197
 434  2540.019
 435  2646.075
 436  2722.687
 437  2668.443
 438  2577.441
 439  2644.273
 440  2697.287
 441  2691.284
 442  2499.305
 443  2481.601
 444  2416.209
 445  2463.515
 446  2432.315
 447  2556.282
 448  2713.648
 449  2808.574
 450  2836.096
 451  2982.794
 452  2953.3
 453  2982.9
 454  2827.081
 455  2961.858
 456  3041.176
 457  3226.939
 458  3179.007
 459  3059.125
 460  2976.277
 461  2928.706
 462  2774.515
 463  2607.247
 464  2391.581
 465  2533.924
 466  2513.27
 467  2465.461
 468  2454.798
 469  2532.338
 470  2455.598
 471  2392.711
 472  2360.112
 473  2425.422
 474  2385.499
 475  2541.749
 476  2622.492
 477  2490.372
 478  2331.122
 479  2336.971
 480  2547.745
 481  2583.569
 482  2721.339
 483  2757.947
 484  2843.456
 485  2828.733
 486  2905.041
 487  3055.911
 488  3084.277
 489  2905.171
 490  2897.177
 491  2810.925
 492  2759.412
 493  2544.219
 494  2289.112
 495  2215.615
 496  2233.302
 497  2106.553
 498  2060.037
 499  2035.921
 500  2224.393
 501  2337.594
 502  2199.86
 503  2261.393
 504  2264.235
 505  2300.853
 506  2098.46
 507  1964.709
 508  2203.96
 509  2342.695
 510  2370
 511  2130.657
 512  2006.219
 513  2213.055
 514  2472.935
 515  2786.298
 516  2921.668
 517  2913.585
 518  2968.853
 519  2963.491
 520  3001.991
 521  2874.528
 522  2759.919
 523  2694.212
 524  2650.725
 525  2567.563
 526  2511.767
 527  2503.201
 528  2496.775
 529  2430.449
 530  2373.267
 531  2290.387
 532  2179.612
 533  2212.314
 534  2288.562
 535  2215.174
 536  2179.587
 537  2193.097
 538  2256.678
 539  2239.253
 540  2265.292
 541  2274.934
 542  2259.343
 543  2120.624
 544  2104.615
 545  2231.019
 546  2384.714
 547  2411.146
 548  2498.652
 549  2587.671
 550  2883.117
 551  3103.258
 552  3180.971
 553  3033.907
 554  2849.584
 555  2870.11
 556  2788.632
 557  2755.635
 558  2599.567
 559  2556.291
 560  2558.366
 561  2428.99
 562  2285.124
 563  2248.945
 564  2312.534
 565  2289.954
 566  2350.454
 567  2444.931
 568  2623.146
 569  2577.582
 570  2399.966
 571  2243.747
 572  2230.494
 573  2356.054
 574  2400.063
 575  2399.107
 576  2261.648
 577  2207.153
 578  2470.688
 579  2535.958
 580  2547.44
 581  2507.964
 582  2752.273
 583  2983.227
 584  3203.521
 585  3313.619
 586  3556.629
 587  3452.198
 588  3465.04
 589  3206.272
 590  3123.487
 591  2887.718
 592  2787.946
 593  2827.462
 594  2853.182
 595  2891.677
 596  2849.769
 597  2873.861
 598  3038.826
 599  3383.305
 600  3794.199
 601  4003.8
 602  4110.108
 603  4141.848
 604  4125.144
 605  4136.379
 606  4137.673
 607  3858.727
 608  3484.09
 609  3159.461
 610  3068.319
 611  2946.008
 612  2884.989
 613  2800.666
 614  2807.572
 615  2963.607
 616  3203.665
 617  3380.098
 618  3554.104
 619  3553.468
 620  3679.48
 621  3622.256
 622  3580.952
 623  3411.839
 624  3138.167
 625  3122.501
 626  3099.931
 627  2981.262
 628  2812.113
 629  2753.169
 630  2738.482
 631  2697.164
 632  2747.103
 633  2746.715
 634  2760.24
 635  2784.271
 636  2895.407
 637  2867.555
 638  2806.412
 639  2781.032
 640  2879.587
 641  2901.098
 642  2751.502
 643  2702.04
 644  2800.777
 645  2881.439
 646  2884.536
 647  2901.421
 648  3069.743
 649  3260.106
 650  3272.017
 651  3280.56
 652  3226.639
 653  3326.073
 654  3414.154
 655  3463.041
 656  3414.074
 657  3151.903
 658  2964.464
 659  2760.1
 660  2596.962
 661  2576.836
 662  2508.826
 663  2438.951
 664  2540.89
 665  2610.794
 666  2572.447
 667  2592.085
 668  2567.966
 669  2542.71
 670  2388.172
 671  2306.419
 672  2324.364
 673  2403.349
 674  2541.421
 675  2594.058
 676  2656.131
 677  2619.078
 678  2605.233
 679  2585.795
 680  2746.612
 681  3043.99
 682  3393.371
 683  3399.014
 684  3317.149
 685  3200.593
 686  3257.535
 687  3164.733
 688  3176.156
 689  3082.535
 690  3013.894
 691  2822.252
 692  2685.219
 693  2600.242
 694  2651.749
 695  2610.403
 696  2495.04
 697  2489.793
 698  2426.546
 699  2528.641
 700  2371.34
 701  2374.432
 702  2440.309
 703  2603.476
 704  2683.12
 705  2574.511
 706  2486.857
 707  2454.396
 708  2494.011
 709  2463.185
 710  2428.441
 711  2373.399
 712  2524.172
 713  2721.135
 714  2929.327
 715  3093.69
 716  3217.027
 717  3191.218
 718  3175.756
 719  3191.696
 720  3171.556
 721  3229.825
 722  3067.903
 723  2907.266
 724  2683.863
 725  2488.014
 726  2296.603
 727  2113.237
 728  2199.912
 729  2113.04
 730  2326.925
 731  2285.684
 732  2388.032
 733  2381.094
 734  2570.32
 735  2577.609
 736  2630.889
 737  2553.908
 738  2458.29
 739  2368.081
 740  2319.734
 741  2389.122
 742  2288.646
 743  2225.829
 744  2182.065
 745  2198.575
 746  2336.747
 747  2628.756
 748  2860.598
 749  2974.124
 750  3168.825
 751  3302.399
 752  3155.804
 753  2941.963
 754  3031.432
 755  3059.197
 756  3037.828
 757  2659.406
 758  2689.204
 759  2594.212
 760  2598.404
 761  2449.138
 762  2462.973
 763  2441.798
 764  2338.413
 765  2392.957
 766  2518.747
 767  2634.969
 768  2712.77
 769  2735.439
 770  2786.521
 771  2776.277
 772  2629.27
 773  2443.037
 774  2433.281
 775  2498.947
 776  2577.824
 777  2559.627
 778  2689.269
 779  2855.003
 780  2955.184
 781  3086.42
 782  3297.469
 783  3498.896
 784  3631.422
 785  3509.478
 786  3561.334
 787  3542.201
 788  3510.089
 789  3311.608
 790  3100.918
 791  3000.904
 792  2915.633
 793  2819.293
 794  2766.647
 795  2729.347
 796  2529.88
 797  2463.608
 798  2509.394
 799  2566.398
 800  2571.481
 801  2717.206
 802  2874.262
 803  2820.565
 804  2793.682
 805  2768.01
 806  2823.275
 807  2839.017
 808  2874.943
 809  2800.318
 810  2634.23
 811  2632.772
 812  2707.268
 813  2863.33
 814  2908.109
 815  3109.519
 816  3177.71
 817  3380.229
 818  3484.704
 819  3640.447
 820  3378.311
 821  3332.658
 822  3176.63
 823  3222.925
 824  3051.017
 825  2904.559
 826  2847.46
 827  2812.264
 828  2734.832
 829  2604.535
 830  2652.823
 831  2640.779
 832  2746.374
 833  2759.67
 834  2748.288
 835  2466.793
 836  2379.788
 837  2512.153
 838  2666.745
 839  2606.5
 840  2508.088
 841  2590.641
 842  2719.207
 843  2967.804
 844  3004.51
 845  3097.611
 846  3136.584
 847  3280.444
 848  3256.549
 849  3172.506
 850  3110.227
 851  3292.099
 852  3178.171
 853  3205.097
 854  3177.706
 855  3287.153
 856  3120.245
 857  3073.163
 858  3053.36
 859  2757.072
 860  2577.899
 861  2588.98
 862  2834.07
 863  2988.68
 864  2874.856
 865  2871.61
 866  2872.363
 867  2893.236
 868  2831.774
 869  2640.232
 870  2638.173
 871  2547.895
 872  2546.972
 873  2468.854
 874  2458.876
 875  2617.685
 876  2658.902
 877  2763.32
 878  2875.21
 879  2859.385
 880  2893.855
 881  2941.716
 882  3232.849
 883  3336.13
 884  3468.174
 885  3355.425
 886  3241.92
 887  2978.855
 888  3003.267
 889  2878.485
 890  2774.267
 891  2538.876
 892  2350.465
 893  2389.254
 894  2266.764
 895  2509.529
 896  2541.779
 897  2623.334
 898  2546.497
 899  2699.451
 900  2607.911
 901  2584.554
 902  2476.456
 903  2633.942
 904  2708.825
 905  2619.845
 906  2417.783
 907  2451.737
 908  2637.029
 909  2676.699
 910  2538.177
 911  2551.269
 912  2753.417
 913  3071.799
 914  3249.795
 915  3226.944
 916  3305.828
 917  3411.862
 918  3337.603
 919  3275.593
 920  3168.197
 921  3102.257
 922  2870.93
 923  2869.087
 924  2834.385
 925  2665.702
 926  2435.978
 927  2468.79
 928  2560.823
 929  2403.384
 930  2400.506
 931  2628.768
 932  2746.594
 933  2589.196
 934  2480.283
 935  2448.832
 936  2494.06
 937  2505.232
 938  2544.461
 939  2489.505
 940  2568.006
 941  2701.887
 942  2759.981
 943  2560.454
 944  2533.281
 945  2639.065
 946  2896.402
 947  2926.279
 948  3118.826
 949  3317.479
 950  3549.849
 951  3516.167
 952  3473.479
 953  3386.345
 954  3216.366
 955  3028.558
 956  2789.118
 957  2679.393
 958  2529.966
 959  2483.379
 960  2508.04
 961  2527.263
 962  2552.107
 963  2553.92
 964  2551.024
 965  2562.267
 966  2492.5
 967  2642.083
 968  2685.913
 969  2891.53
 970  2761.761
 971  2806.961
 972  2733.414
 973  2736.632
 974  2577.008
 975  2569.248
 976  2674.038
 977  2817.561
 978  2819.683
 979  2756.412
 980  3015.835
 981  3145.93
 982  3207.403
 983  3117.944
 984  3172.837
 985  3238.355
 986  3303.941
 987  3334.616
 988  3292.517
 989  3108.022
 990  2936.836
 991  2781.312
 992  2630.144
 993  2451.073
 994  2402.836
 995  2599.082
 996  2707.667
 997  2736.288
 998  2704.494
 999  2655.828
1000  2765.692
1001  2779.863
1002  2725.125
1003  2726.305
1004  2633.959
1005  2815.173
1006  2780.195
1007  2830.126
1008  2748.032
1009  2897.315
1010  3022.291
1011  3131.147
1012  3194.777
1013  3506.779
1014  3731.807
1015  3861.576
1016  3791.763
1017  3603.756
1018  3464.822
1019  3304.1
1020  3414.002
1021  3391.147
1022  3076.945
1023  2884.091
