# Input file       =  1207909654.116253_cleaned.dat
# Candidate        =  PSR_0332+5434
# Telescope        =  AR
# Epoch_topo       =  58224.436031438112
# Epoch_bary       =  N/A
# T_sample         =  0.002
# Data Folded      =  7340032
# Data Avg         =  -0.0146789905213947
# Data StdDev      =  5.75294021018422 
# Profile Bins     =  512
# Profile Avg      =  -211.133754337164
# Profile StdDev   =  688.816999459348 
# Reduced chi-sqr  =  1.197
# Prob(Noise)      <  0.00144   (~3.0 sigma)
# P_topo (ms)      =  714.559058033924  +/- 0.000611
# P'_topo (s/s)    =  -0                +/- 3.23e-10
# P''_topo (s/s^2) =  0                 +/- 1.42e-13
# P_bary (ms)      =  N/A
# P'_bary (s/s)    =  N/A
# P''_bary (s/s^2) =  N/A
# P_orb (s)        =  N/A
# asin(i)/c (s)    =  N/A
# eccentricity     =  N/A
# w (rad)          =  N/A
# T_peri           =  N/A
######################################################
   0  -775.0168
   1  -801.7158
   2  -649.488
   3  -315.1231
   4  -315.855
   5  -215.9304
   6  -149.3425
   7  -138.3766
   8  -141.728
   9  -555.4402
  10  -316.4883
  11  -5.348629
  12  273.4465
  13  333.0458
  14  458.712
  15  212.0756
  16  -99.75645
  17  -12.34933
  18  140.1631
  19  44.64983
  20  -159.7542
  21  -12.09264
  22  18.68727
  23  -13.01081
  24  -114.2769
  25  39.26009
  26  -168.8274
  27  -125.7022
  28  86.48535
  29  296.5488
  30  249.9695
  31  232.9355
  32  -128.4911
  33  -429.2562
  34  -69.76067
  35  -111.1801
  36  -104.321
  37  -33.3232
  38  -26.45416
  39  -184.8459
  40  -280.1317
  41  -379.8184
  42  -228.6452
  43  101.8481
  44  296.0594
  45  -102.6658
  46  -29.43802
  47  -117.0413
  48  70.69389
  49  179.4801
  50  301.0097
  51  215.4846
  52  -106.5294
  53  283.9214
  54  26.26538
  55  196.5246
  56  469.0895
  57  578.3826
  58  435.2014
  59  656.1942
  60  756.7064
  61  797.4625
  62  553.3626
  63  267.977
  64  575.7143
  65  535.662
  66  157.9805
  67  384.5556
  68  745.6415
  69  995.0901
  70  590.0561
  71  423.2258
  72  510.1428
  73  229.0494
  74  154.2632
  75  503.2771
  76  646.0027
  77  143.3238
  78  266.1191
  79  347.7657
  80  474.0543
  81  273.5251
  82  -162.7517
  83  -147.2014
  84  -102.2089
  85  47.85686
  86  -283.3004
  87  122.8351
  88  210.0746
  89  20.22272
  90  -114.4043
  91  117.8413
  92  225.9654
  93  488.6674
  94  29.79449
  95  -125.2385
  96  -60.90344
  97  -105.1149
  98  13.05781
  99  -1.573546
 100  -481.339
 101  -361.7497
 102  -438.9698
 103  -739.373
 104  -368.6131
 105  -350.4998
 106  -248.7169
 107  -156.4644
 108  176.125
 109  -243.3848
 110  -394.2973
 111  -529.9149
 112  -364.7249
 113  -316.1211
 114  -384.9927
 115  -373.2421
 116  -466.8755
 117  -936.5554
 118  -1062.475
 119  -1098.632
 120  -1018.365
 121  -979.3463
 122  -1107.697
 123  -1152.056
 124  -1154.336
 125  -842.1583
 126  -881.0856
 127  -1150.8
 128  -1320.298
 129  -1014.592
 130  -754.5087
 131  -843.5549
 132  -1114.447
 133  -850.4696
 134  -953.3349
 135  -909.1869
 136  -865.2059
 137  -956.3931
 138  -908.5167
 139  -799.3655
 140  -435.1893
 141  -5.506842
 142  52.60602
 143  -426.9028
 144  -425.3598
 145  -319.3057
 146  -380.4629
 147  -307.0419
 148  -140.434
 149  48.36371
 150  185.2599
 151  40.4801
 152  -424.0959
 153  -460.1907
 154  -382.7451
 155  -240.0692
 156  73.81631
 157  383.6311
 158  663.8825
 159  578.939
 160  41.1993
 161  -258.5226
 162  -327.9713
 163  19.04916
 164  -74.53512
 165  -76.54808
 166  -20.80163
 167  -191.5453
 168  -190.6589
 169  -231.2422
 170  86.02921
 171  -529.6879
 172  -716.2621
 173  -338.788
 174  -47.89921
 175  -483.5787
 176  -295.2018
 177  -538.4658
 178  -486.8358
 179  -168.0464
 180  -13.19541
 181  -38.67138
 182  -272.2821
 183  -9.16456
 184  14.94849
 185  -38.44647
 186  -141.6845
 187  -362.7585
 188  -315.9053
 189  146.1172
 190  67.17097
 191  337.0932
 192  117.9518
 193  -95.82239
 194  -309.0248
 195  -470.7834
 196  -332.2497
 197  -225.9127
 198  -178.0707
 199  -555.2872
 200  -617.3591
 201  -359.805
 202  -379.4806
 203  -376.3511
 204  -363.9723
 205  -252.8334
 206  -619.3946
 207  -503.0892
 208  -263.977
 209  -173.4813
 210  4.734846
 211  -391.4727
 212  -508.6398
 213  -457.5102
 214  -444.1013
 215  -120.8491
 216  -393.0254
 217  -330.4871
 218  107.1743
 219  -216.4652
 220  -484.3414
 221  -550.7631
 222  -162.3796
 223  -206.0816
 224  -235.6596
 225  144.0586
 226  368.0808
 227  267.3109
 228  225.4154
 229  722.7501
 230  369.5906
 231  716.7708
 232  733.7255
 233  733.9214
 234  338.0565
 235  359.5685
 236  444.7263
 237  416.8789
 238  478.1047
 239  217.9042
 240  -202.2007
 241  -8.168121
 242  263.4355
 243  -57.20937
 244  41.23502
 245  527.1125
 246  605.3353
 247  237.3135
 248  300.9711
 249  84.72076
 250  -259.7115
 251  -173.2043
 252  -219.9872
 253  -322.8016
 254  77.44331
 255  -221.9945
 256  -97.39772
 257  198.4084
 258  151.8003
 259  -168.2418
 260  -177.3842
 261  -15.61703
 262  -356.7507
 263  -643.5163
 264  -686.529
 265  -434.2851
 266  -225.2912
 267  -119.6087
 268  -768.3643
 269  -759.3176
 270  -541.3628
 271  -270.5918
 272  -289.2811
 273  -350.7316
 274  -586.4215
 275  -898.5477
 276  -703.2797
 277  -545.6944
 278  -429.1536
 279  -705.1837
 280  -973.5328
 281  -643.0297
 282  -530.8415
 283  -702.3309
 284  -900.5447
 285  -1003.448
 286  -1072.573
 287  -1104.837
 288  -1403.192
 289  -1769.359
 290  -1729.636
 291  -1665.396
 292  -1612.094
 293  -1633.799
 294  -1470.356
 295  -1256.271
 296  -1205.559
 297  -1220.411
 298  -1659.952
 299  -1550.237
 300  -1275.871
 301  -1185.842
 302  -1246.521
 303  -1143.82
 304  -1379.881
 305  -1415.496
 306  -1421.354
 307  -1484.349
 308  -1375.909
 309  -1734.957
 310  -1458.407
 311  -1526.917
 312  -1495.387
 313  -1551.419
 314  -1314.538
 315  -1195.82
 316  -1395.758
 317  -1368.723
 318  -1134.964
 319  -415.6501
 320  -505.3072
 321  -406.4624
 322  -692.1011
 323  -883.0712
 324  -556.9202
 325  -593.6649
 326  -615.7206
 327  -214.6221
 328  -386.1975
 329  -523.7551
 330  -503.7775
 331  -369.323
 332  -678.3337
 333  -695.2298
 334  -959.7903
 335  -1079.938
 336  -892.6722
 337  -551.4073
 338  -246.0941
 339  -630.0681
 340  -571.1915
 341  -178.4162
 342  -316.3508
 343  -32.68111
 344  -326.7122
 345  -543.7032
 346  -501.6854
 347  -93.27855
 348  -238.4857
 349  -51.99625
 350  -124.9716
 351  -22.97616
 352  -136.4053
 353  186.0821
 354  164.1377
 355  359.3961
 356  385.3959
 357  62.4009
 358  375.7354
 359  587.2255
 360  646.5496
 361  576.1107
 362  710.4742
 363  462.455
 364  344.6808
 365  520.1835
 366  446.1386
 367  722.2825
 368  568.8186
 369  968.4427
 370  900.9714
 371  497.1139
 372  749.1006
 373  608.6396
 374  272.2425
 375  -12.7635
 376  48.69158
 377  397.2663
 378  422.2065
 379  454.0684
 380  838.2274
 381  840.666
 382  542.5946
 383  634.8574
 384  542.3352
 385  500.6733
 386  469.9878
 387  216.5117
 388  185.5877
 389  59.76161
 390  -211.7218
 391  -11.9646
 392  -97.09732
 393  -308.8083
 394  -5.997133
 395  333.2482
 396  108.0283
 397  -343.1617
 398  -286.542
 399  -158.2036
 400  -255.1764
 401  -249.6698
 402  166.9869
 403  287.3992
 404  -9.460711
 405  -236.374
 406  -378.9004
 407  -67.9817
 408  -48.85596
 409  -226.3981
 410  -310.9652
 411  -428.5732
 412  -395.6402
 413  -203.3181
 414  195.3497
 415  -123.7982
 416  -379.3885
 417  -323.3546
 418  -495.1927
 419  -478.6114
 420  -246.7174
 421  161.6239
 422  5.566845
 423  -2.916713
 424  32.5622
 425  482.0696
 426  387.2849
 427  -145.7005
 428  -63.21461
 429  14.06825
 430  214.9264
 431  55.50002
 432  679.0134
 433  1325.062
 434  1424.443
 435  1625.541
 436  1343.345
 437  894.2099
 438  656.7068
 439  229.4687
 440  82.75297
 441  -3.243307
 442  204.6067
 443  -135.8969
 444  -162.4542
 445  -137.0789
 446  -55.14435
 447  150.625
 448  283.3342
 449  415.5275
 450  333.197
 451  403.2174
 452  223.597
 453  384.5099
 454  265.2061
 455  248.0036
 456  17.38663
 457  -497.3769
 458  -306.0958
 459  -51.41513
 460  48.1771
 461  -188.8394
 462  -279.4435
 463  -378.1247
 464  -517.0337
 465  -284.9822
 466  -290.8257
 467  -103.5377
 468  -518.4359
 469  -744.3748
 470  -712.9655
 471  -703.5867
 472  -217.8363
 473  -275.5119
 474  -573.5541
 475  -758.5593
 476  -336.5034
 477  -571.5955
 478  -488.5448
 479  -333.0943
 480  -463.6527
 481  -387.0161
 482  29.25901
 483  7.450917
 484  -268.1893
 485  -607.1392
 486  -722.8916
 487  -536.524
 488  -810.182
 489  -854.2087
 490  -589.0465
 491  -139.1551
 492  -544.386
 493  -334.6194
 494  -287.9759
 495  -440.4442
 496  -162.4007
 497  -233.9686
 498  -389.9613
 499  -754.7892
 500  -759.3477
 501  -610.0359
 502  -753.7816
 503  -832.4542
 504  -644.384
 505  -798.3979
 506  -924.1255
 507  -834.1588
 508  -634.3986
 509  -583.4625
 510  -461.833
 511  -467.2397
