# Input file       =  1207644063.222042_cleaned.dat
# Candidate        =  PSR_0332+5434
# Telescope        =  AR
# Epoch_topo       =  58221.362062755114
# Epoch_bary       =  N/A
# T_sample         =  0.002
# Data Folded      =  7340032
# Data Avg         =  0.0229437353783787
# Data StdDev      =  2.84204011405238 
# Profile Bins     =  512
# Profile Avg      =  328.795520011254 
# Profile StdDev   =  340.286092360062 
# Reduced chi-sqr  =  2.151
# Prob(Noise)      <  3.93e-45   (~14.0 sigma)
# P_topo (ms)      =  714.561349312099  +/- 0.000228
# P'_topo (s/s)    =  -0                +/- 1.2e-10
# P''_topo (s/s^2) =  0                 +/- 5.32e-14
# P_bary (ms)      =  N/A
# P'_bary (s/s)    =  N/A
# P''_bary (s/s^2) =  N/A
# P_orb (s)        =  N/A
# asin(i)/c (s)    =  N/A
# eccentricity     =  N/A
# w (rad)          =  N/A
# T_peri           =  N/A
######################################################
   0  164.282
   1  216.6809
   2  346.6634
   3  83.11802
   4  34.16654
   5  -3.418613
   6  105.1718
   7  107.5627
   8  417.5836
   9  357.0427
  10  154.0956
  11  124.4097
  12  34.1085
  13  87.22662
  14  80.86429
  15  250.8955
  16  414.9975
  17  487.5495
  18  278.9684
  19  334.6933
  20  452.3112
  21  235.2575
  22  121.0592
  23  41.45381
  24  219.9595
  25  380.3989
  26  383.2549
  27  795.1707
  28  501.7683
  29  510.4988
  30  601.2336
  31  611.9582
  32  861.7681
  33  554.8138
  34  708.543
  35  716.7045
  36  540.5958
  37  285.1953
  38  121.5273
  39  249.8454
  40  331.9859
  41  329.9756
  42  533.8044
  43  765.8285
  44  962.4362
  45  859.8906
  46  1036.647
  47  1830.982
  48  2641.197
  49  2647.175
  50  3090.681
  51  2944.869
  52  2370.614
  53  1548.666
  54  1026.529
  55  584.6419
  56  -5.754939
  57  -12.18938
  58  257.5316
  59  557.0747
  60  641.977
  61  736.0216
  62  687.1431
  63  531.3387
  64  593.6113
  65  468.5748
  66  425.2121
  67  310.8851
  68  433.636
  69  547.2145
  70  462.9741
  71  396.4237
  72  25.39041
  73  179.3042
  74  428.9236
  75  121.89
  76  387.4232
  77  386.0724
  78  243.5342
  79  153.3569
  80  461.5576
  81  534.2424
  82  350.886
  83  313.8131
  84  465.1212
  85  689.0745
  86  511.4786
  87  429.6241
  88  695.438
  89  618.3749
  90  159.6518
  91  309.222
  92  404.0637
  93  477.6806
  94  107.7884
  95  190.4734
  96  546.2291
  97  853.3398
  98  784.9045
  99  768.9275
 100  680.7727
 101  671.3901
 102  794.414
 103  636.3896
 104  503.0155
 105  649.5906
 106  785.3694
 107  554.3195
 108  180.7332
 109  555.4362
 110  783.1439
 111  901.0084
 112  807.6412
 113  509.4836
 114  456.5089
 115  153.4976
 116  510.4694
 117  419.9995
 118  109.5592
 119  -78.76569
 120  -44.52158
 121  130.3981
 122  239.4006
 123  250.6494
 124  365.1005
 125  294.5474
 126  326.5139
 127  425.9987
 128  200.3826
 129  316.7347
 130  495.5855
 131  356.4611
 132  215.5314
 133  183.8902
 134  193.7042
 135  558.3524
 136  344.1244
 137  237.2677
 138  422.3553
 139  432.269
 140  227.9149
 141  -163.958
 142  243.4335
 143  434.0512
 144  154.209
 145  110.1122
 146  323.2987
 147  122.0026
 148  223.6775
 149  -22.70462
 150  120.9558
 151  386.6483
 152  342.0017
 153  176.866
 154  239.8696
 155  436.2316
 156  286.3186
 157  105.2246
 158  99.34922
 159  222.8457
 160  411.1093
 161  587.1705
 162  374.6335
 163  150.6004
 164  22.5765
 165  -43.31976
 166  -165.6816
 167  74.61191
 168  42.54554
 169  131.417
 170  304.515
 171  581.8313
 172  265.2733
 173  119.0152
 174  165.7094
 175  290.2717
 176  392.713
 177  506.1217
 178  711.6845
 179  739.6024
 180  366.9336
 181  177.4387
 182  -57.80075
 183  228.3649
 184  543.6403
 185  478.676
 186  32.46539
 187  150.6884
 188  242.469
 189  318.6614
 190  545.5277
 191  96.74047
 192  -5.291949
 193  151.0062
 194  552.6503
 195  859.3995
 196  545.9373
 197  456.0037
 198  218.8989
 199  167.6249
 200  86.83102
 201  -44.82243
 202  -214.662
 203  -329.377
 204  251.2565
 205  191.2327
 206  -271.3239
 207  -78.59573
 208  158.9491
 209  112.4002
 210  270.4734
 211  -89.55414
 212  213.679
 213  303.5927
 214  346.3271
 215  350.9725
 216  7.68012
 217  82.93331
 218  267.8619
 219  120.3557
 220  77.22041
 221  47.86176
 222  111.1573
 223  -161.952
 224  -362.4164
 225  -242.1331
 226  85.16087
 227  59.8627
 228  482.2003
 229  267.852
 230  -66.04989
 231  47.43723
 232  1.130415
 233  196.8521
 234  40.33573
 235  186.8967
 236  203.7131
 237  183.3878
 238  91.11754
 239  -74.24693
 240  42.6067
 241  385.1521
 242  633.9122
 243  481.5102
 244  363.6157
 245  319.3652
 246  385.4337
 247  330.2629
 248  339.3366
 249  199.4047
 250  61.46038
 251  459.1683
 252  416.9266
 253  452.1558
 254  377.138
 255  253.5272
 256  753.4921
 257  878.6637
 258  682.5427
 259  720.0469
 260  325.8956
 261  306.8539
 262  326.4283
 263  324.0187
 264  316.6826
 265  211.9426
 266  164.5238
 267  273.0662
 268  385.1231
 269  315.5634
 270  231.8087
 271  36.16478
 272  72.4947
 273  -8.418048
 274  76.2518
 275  184.9935
 276  426.0384
 277  242.3156
 278  421.8714
 279  510.7545
 280  554.0208
 281  502.641
 282  540.4726
 283  181.2794
 284  28.46769
 285  64.97105
 286  339.6976
 287  574.348
 288  473.9744
 289  361.4006
 290  224.4099
 291  324.6935
 292  267.8672
 293  296.3561
 294  317.7625
 295  354.2256
 296  288.2769
 297  256.9556
 298  186.8274
 299  143.7633
 300  263.562
 301  101.1081
 302  -55.58555
 303  -82.03945
 304  198.7182
 305  267.0833
 306  286.1833
 307  411.1538
 308  314.7374
 309  366.3182
 310  423.6829
 311  228.1258
 312  295.7356
 313  387.5262
 314  229.2218
 315  379.9342
 316  650.6948
 317  332.5844
 318  414.7318
 319  86.1254
 320  177.4243
 321  380.6448
 322  339.0966
 323  462.1701
 324  573.5418
 325  326.0056
 326  262.8519
 327  91.8984
 328  37.39191
 329  345.3649
 330  93.67748
 331  69.6002
 332  314.6043
 333  365.5169
 334  93.62476
 335  -14.90921
 336  337.8125
 337  -91.20358
 338  -264.5602
 339  -110.0942
 340  76.35302
 341  101.7829
 342  347.5696
 343  94.32088
 344  -193.5155
 345  131.2877
 346  275.2758
 347  31.10761
 348  -29.71774
 349  211.6623
 350  2.29194
 351  -224.3515
 352  -195.8375
 353  -98.48345
 354  -219.5759
 355  -261.6793
 356  11.12918
 357  328.8608
 358  297.092
 359  -40.82444
 360  -64.48071
 361  -58.73022
 362  -21.03174
 363  -271.1921
 364  -107.0437
 365  -14.73507
 366  143.6671
 367  124.9186
 368  144.1635
 369  26.57532
 370  -124.9239
 371  -101.0693
 372  -122.2134
 373  -119.7752
 374  10.04146
 375  56.91943
 376  -83.81171
 377  129.2104
 378  383.3913
 379  -8.781172
 380  -170.9353
 381  423.8445
 382  522.7047
 383  166.2932
 384  -253.8247
 385  -66.86717
 386  51.7576
 387  284.1339
 388  180.8806
 389  35.92471
 390  288.3639
 391  599.3205
 392  569.5507
 393  410.2347
 394  285.6364
 395  158.7718
 396  625.4445
 397  687.4088
 398  661.9645
 399  495.4357
 400  346.5301
 401  300.3657
 402  348.3499
 403  161.8049
 404  319.787
 405  744.8235
 406  667.8952
 407  377.2028
 408  516.9991
 409  802.9412
 410  166.6845
 411  411.1502
 412  798.8358
 413  664.0515
 414  266.0498
 415  310.3082
 416  450.1619
 417  37.58371
 418  224.245
 419  367.4596
 420  403.5932
 421  113.6386
 422  298.6768
 423  272.3383
 424  500.9308
 425  638.3739
 426  465.4146
 427  418.8812
 428  527.1409
 429  431.8726
 430  395.1449
 431  424.0982
 432  436.3372
 433  167.6059
 434  -146.6575
 435  -79.7082
 436  -116.2923
 437  206.9837
 438  249.4689
 439  65.22842
 440  -52.1127
 441  119.3486
 442  141.7235
 443  -269.5929
 444  -332.9114
 445  -82.74189
 446  -63.5522
 447  333.2075
 448  216.3673
 449  -48.82568
 450  106.4398
 451  203.2353
 452  -40.88781
 453  240.2439
 454  199.7093
 455  290.5627
 456  375.9891
 457  208.6156
 458  392.7587
 459  508.5972
 460  613.0275
 461  764.949
 462  768.5812
 463  637.7407
 464  331.114
 465  260.1386
 466  210.3807
 467  551.7106
 468  503.4583
 469  568.9622
 470  698.8707
 471  849.6771
 472  834.156
 473  946.0083
 474  886.0975
 475  740.5347
 476  678.3726
 477  666.7712
 478  320.6709
 479  598.2903
 480  836.1515
 481  622.5663
 482  413.2411
 483  516.6018
 484  608.5584
 485  472.4851
 486  268.2272
 487  145.6717
 488  384.3103
 489  610.3978
 490  237.9402
 491  182.4427
 492  368.9436
 493  369.1792
 494  632.8519
 495  668.5228
 496  644.0807
 497  500.1296
 498  142.7867
 499  180.9061
 500  287.2769
 501  574.528
 502  528.3969
 503  492.7898
 504  510.7873
 505  462.8388
 506  454.3152
 507  674.9933
 508  255.3688
 509  132.1843
 510  53.07462
 511  157.8458
