# Input file       =  1207752188.129288_cleaned.dat
# Candidate        =  PSR_0332+5434
# Telescope        =  AR
# Epoch_topo       =  58222.613508440831
# Epoch_bary       =  N/A
# T_sample         =  0.002
# Data Folded      =  7340032
# Data Avg         =  0.0300242042932642
# Data StdDev      =  1.00008477609181 
# Profile Bins     =  512
# Profile Avg      =  430.472270321737 
# Profile StdDev   =  119.743186875651 
# Reduced chi-sqr  =  1.644
# Prob(Noise)      <  1.89e-18   (~8.7 sigma)
# P_topo (ms)      =  714.56080112821   +/- 0.00031
# P'_topo (s/s)    =  -0                +/- 1.64e-10
# P''_topo (s/s^2) =  0                 +/- 7.22e-14
# P_bary (ms)      =  N/A
# P'_bary (s/s)    =  N/A
# P''_bary (s/s^2) =  N/A
# P_orb (s)        =  N/A
# asin(i)/c (s)    =  N/A
# eccentricity     =  N/A
# w (rad)          =  N/A
# T_peri           =  N/A
######################################################
   0  277.4171
   1  288.3661
   2  339.4403
   3  389.5443
   4  453.1065
   5  519.1262
   6  517.2645
   7  425.1804
   8  350.8661
   9  395.7159
  10  479.9258
  11  470.7768
  12  449.7752
  13  394.8103
  14  417.0192
  15  401.9837
  16  426.6769
  17  473.8045
  18  458.6394
  19  348.0277
  20  368.7829
  21  543.628
  22  569.2599
  23  514.9562
  24  501.0305
  25  506.9193
  26  510.0187
  27  541.1208
  28  483.053
  29  545.1997
  30  466.6538
  31  450.1708
  32  539.1118
  33  566.4003
  34  487.9874
  35  470.6648
  36  472.7118
  37  392.3183
  38  411.7354
  39  446.4134
  40  404.0363
  41  421.6345
  42  392.1174
  43  355.3857
  44  316.8087
  45  420.6298
  46  484.2137
  47  368.3152
  48  390.9077
  49  450.3054
  50  430.885
  51  432.7917
  52  328.368
  53  313.1874
  54  358.3967
  55  425.0147
  56  423.7989
  57  333.9518
  58  412.635
  59  410.6894
  60  323.7367
  61  308.2417
  62  324.5114
  63  290.2166
  64  334.276
  65  298.4266
  66  378.9799
  67  418.7273
  68  458.2486
  69  373.9137
  70  443.65
  71  477.2578
  72  432.4276
  73  350.1905
  74  289.3018
  75  330.7727
  76  444.5627
  77  485.9277
  78  483.7802
  79  377.2141
  80  368.5678
  81  384.9646
  82  396.9792
  83  393.5642
  84  365.4829
  85  252.5874
  86  250.8756
  87  422.169
  88  396.3875
  89  446.9242
  90  489.3293
  91  374.2574
  92  329.9461
  93  315.422
  94  429.7762
  95  419.7794
  96  431.8332
  97  388.7154
  98  424.2725
  99  437.4061
 100  428.7508
 101  304.0602
 102  339.0215
 103  420.6454
 104  401.937
 105  478.059
 106  496.471
 107  466.4256
 108  474.1385
 109  533.3643
 110  578.618
 111  510.6961
 112  495.8326
 113  344.0337
 114  406.5301
 115  424.1338
 116  434.0438
 117  413.4629
 118  305.8661
 119  377.5702
 120  474.2975
 121  523.8035
 122  523.5104
 123  498.6136
 124  442.2768
 125  424.02
 126  501.0033
 127  418.2281
 128  370.2801
 129  338.2856
 130  295.3748
 131  315.4785
 132  436.2076
 133  588.5724
 134  501.7564
 135  503.5276
 136  461.3797
 137  498.0689
 138  393.5433
 139  322.1719
 140  351.8579
 141  490.9797
 142  467.8508
 143  555.7433
 144  463.4865
 145  381.3648
 146  320.7382
 147  340.1465
 148  427.5562
 149  564.8386
 150  480.7421
 151  491.3387
 152  433.3216
 153  473.5936
 154  403.2319
 155  494.698
 156  611.5338
 157  543.7546
 158  522.4121
 159  453.3737
 160  516.0215
 161  540.1354
 162  453.3095
 163  532.4973
 164  456.7836
 165  441.7722
 166  450.8475
 167  431.5262
 168  469.2777
 169  475.3231
 170  474.4261
 171  477.878
 172  539.5443
 173  497.9161
 174  533.3174
 175  512.7141
 176  475.9343
 177  530.6877
 178  596.5674
 179  620.6255
 180  547.829
 181  545.5629
 182  523.8538
 183  514.0175
 184  441.1714
 185  373.5892
 186  535.8221
 187  426.9884
 188  427.14
 189  456.5202
 190  414.4531
 191  457.6652
 192  383.9196
 193  403.4343
 194  454.2643
 195  480.6641
 196  542.3047
 197  428.7959
 198  417.6713
 199  432.3564
 200  357.8653
 201  383.7822
 202  384.7627
 203  392.7563
 204  362.7032
 205  332.0916
 206  263.9684
 207  389.4159
 208  326.6488
 209  288.4177
 210  209.4344
 211  182.1366
 212  369.1316
 213  276.6073
 214  243.4272
 215  359.3203
 216  350.7426
 217  314.5358
 218  293.1722
 219  365.0258
 220  419.6922
 221  408.2981
 222  280.1403
 223  260.0964
 224  402.3395
 225  345.7406
 226  340.7827
 227  299.5819
 228  332.1642
 229  463.2394
 230  433.9035
 231  444.3473
 232  534.6174
 233  431.4132
 234  403.5305
 235  348.314
 236  454.0401
 237  397.0795
 238  303.0414
 239  417.2543
 240  448.5903
 241  448.311
 242  407.6057
 243  250.5841
 244  414.5247
 245  564.8687
 246  402.1219
 247  425.4554
 248  449.6621
 249  450.3296
 250  453.9734
 251  534.6505
 252  449.7712
 253  491.5687
 254  535.2203
 255  513.9615
 256  430.2262
 257  446.9102
 258  531.4973
 259  604.3197
 260  502.1391
 261  530.7641
 262  383.6476
 263  377.2943
 264  437.8136
 265  388.1516
 266  405.4876
 267  420.9287
 268  422.8372
 269  446.2939
 270  361.623
 271  355.1507
 272  335.86
 273  422.6018
 274  358.2065
 275  394.7798
 276  459.2848
 277  483.3112
 278  362.0139
 279  422.7033
 280  470.9932
 281  542.6299
 282  509.9232
 283  519.2269
 284  447.3881
 285  454.5414
 286  506.6548
 287  477.9859
 288  391.634
 289  329.6593
 290  448.9632
 291  428.5798
 292  432.5684
 293  579.6418
 294  597.6453
 295  439.0634
 296  641.9456
 297  857.1287
 298  1008.334
 299  1238.467
 300  1324.143
 301  1274.633
 302  1068.685
 303  784.9213
 304  638.492
 305  463.0743
 306  472.1586
 307  506.1515
 308  461.2942
 309  346.4545
 310  404.3375
 311  440.8344
 312  386.7842
 313  490.3512
 314  360.916
 315  422.6447
 316  356.7249
 317  405.2263
 318  513.5319
 319  493.481
 320  421.3874
 321  542.8818
 322  504.3459
 323  475.5081
 324  531.3989
 325  395.2059
 326  371.9551
 327  471.5929
 328  452.7384
 329  460.8452
 330  439.4261
 331  511.0277
 332  467.1952
 333  499.5215
 334  532.8051
 335  440.9281
 336  473.0562
 337  463.3666
 338  465.7104
 339  370.5666
 340  438.528
 341  432.1141
 342  351.6968
 343  369.7355
 344  302.6569
 345  238.3273
 346  412.6536
 347  410.0276
 348  427.9201
 349  426.1349
 350  391.2639
 351  284.0161
 352  296.2283
 353  308.6858
 354  259.7251
 355  371.0922
 356  434.7305
 357  348.5147
 358  344.0792
 359  281.2917
 360  400.1038
 361  450.2427
 362  473.4372
 363  418.2507
 364  363.6006
 365  418.3113
 366  499.17
 367  451.464
 368  397.7315
 369  342.7349
 370  276.547
 371  326.4597
 372  363.734
 373  358.6571
 374  391.9024
 375  359.7526
 376  289.1179
 377  312.2518
 378  394.611
 379  448.6561
 380  293.2578
 381  346.3013
 382  443.8905
 383  325.2557
 384  306.2845
 385  375.9813
 386  497.9495
 387  496.631
 388  321.9628
 389  299.5308
 390  375.7853
 391  362.1966
 392  428.8627
 393  419.9235
 394  397.2071
 395  370.5789
 396  370.553
 397  378.51
 398  478.8133
 399  531.749
 400  484.8518
 401  418.0051
 402  475.6238
 403  588.8223
 404  415.8577
 405  412.977
 406  356.454
 407  306.8082
 408  334.8598
 409  255.1182
 410  370.666
 411  286.9262
 412  299.5479
 413  321.3964
 414  377.2454
 415  356.3021
 416  345.5459
 417  486.2242
 418  454.7515
 419  429.2233
 420  254.1597
 421  302.0202
 422  351.8669
 423  384.8473
 424  442.5894
 425  276.2412
 426  279.7715
 427  404.0947
 428  503.7213
 429  382.216
 430  321.7612
 431  425.8715
 432  342.0197
 433  370.9682
 434  413.1161
 435  369.5003
 436  379.6676
 437  345.2298
 438  286.4597
 439  262.3839
 440  315.8336
 441  327.259
 442  246.8585
 443  354.6264
 444  454.8096
 445  509.4889
 446  583.9716
 447  585.0471
 448  515.3298
 449  365.5028
 450  387.688
 451  424.2112
 452  527.7448
 453  513.516
 454  508.2912
 455  449.5943
 456  479.8322
 457  376.6106
 458  485.668
 459  595.0958
 460  533.7064
 461  468.3784
 462  457.9729
 463  459.3363
 464  465.0645
 465  537.361
 466  491.0727
 467  470.2995
 468  498.7072
 469  483.8019
 470  453.9427
 471  354.2478
 472  362.45
 473  418.4907
 474  510.1312
 475  515.6075
 476  460.7619
 477  490.3577
 478  470.2831
 479  455.3412
 480  452.4419
 481  407.628
 482  485.3242
 483  433.1082
 484  339.9241
 485  388.1718
 486  340.8789
 487  325.8922
 488  378.1764
 489  448.1849
 490  498.541
 491  372.3067
 492  342.1541
 493  391.03
 494  413.9006
 495  462.3862
 496  402.4719
 497  444.5331
 498  400.6108
 499  352.0926
 500  404.3463
 501  410.8179
 502  420.3179
 503  485.2189
 504  463.1264
 505  389.917
 506  461.6743
 507  449.3969
 508  366.2567
 509  452.2001
 510  497.9183
 511  418.5486
