# Input file       =  1207752188.129288_cleaned.dat
# Candidate        =  PSR_0332+5434
# Telescope        =  AR
# Epoch_topo       =  58222.613508440831
# Epoch_bary       =  N/A
# T_sample         =  0.002
# Data Folded      =  7340032
# Data Avg         =  0.203573460219819
# Data StdDev      =  5.19369299368948 
# Profile Bins     =  512
# Profile Avg      =  2918.51233561534 
# Profile StdDev   =  621.856632143177 
# Reduced chi-sqr  =  0.855
# Prob(Noise)      <  0.992   (~0.0 sigma)
# P_topo (ms)      =  714.56080112821   +/- 0.000377
# P'_topo (s/s)    =  -0                +/- 1.99e-10
# P''_topo (s/s^2) =  0                 +/- 8.79e-14
# P_bary (ms)      =  N/A
# P'_bary (s/s)    =  N/A
# P''_bary (s/s^2) =  N/A
# P_orb (s)        =  N/A
# asin(i)/c (s)    =  N/A
# eccentricity     =  N/A
# w (rad)          =  N/A
# T_peri           =  N/A
######################################################
   0  2363.034
   1  2174.431
   2  2484.632
   3  2717.072
   4  2839.166
   5  3050.79
   6  3156.206
   7  2842.362
   8  2624.88
   9  2704.967
  10  2965.635
  11  2788.53
  12  2824.512
  13  2866.663
  14  2951.017
  15  2771.737
  16  2855.656
  17  3109.49
  18  3001.545
  19  2735.925
  20  2882.841
  21  3311.766
  22  3432.518
  23  3229.226
  24  3365.102
  25  3570.945
  26  3418.751
  27  3649.14
  28  3646.246
  29  3815.698
  30  3381.566
  31  3211.868
  32  3517.708
  33  3621.161
  34  3442.374
  35  3418.763
  36  3431.124
  37  3199.3
  38  3164.65
  39  3316.301
  40  3096.499
  41  2969.528
  42  2790.063
  43  2607.208
  44  2643.856
  45  2978.59
  46  3056.228
  47  2789.586
  48  2931.648
  49  2879.306
  50  2736.477
  51  2635.506
  52  2500.981
  53  2444.378
  54  2668.101
  55  2921.391
  56  2820.523
  57  2717.726
  58  2790.449
  59  2625.118
  60  2309.84
  61  2337.308
  62  2487.533
  63  2441.057
  64  2604.133
  65  2441.046
  66  2668.51
  67  2719.082
  68  2741.722
  69  2724.224
  70  3008.097
  71  3019.615
  72  2701.39
  73  2249.746
  74  2168.206
  75  2679.295
  76  2891.115
  77  2927.277
  78  2774.273
  79  2318.381
  80  2293.385
  81  2568.11
  82  2684.763
  83  2594.603
  84  2400.117
  85  2176.943
  86  2192.3
  87  2713.728
  88  2816.777
  89  3153.682
  90  3110.082
  91  2720.708
  92  2523.704
  93  2610.013
  94  3025.565
  95  2751.609
  96  2769.985
  97  2642.752
  98  2873.034
  99  2954.652
 100  2846.547
 101  2649.021
 102  2829.65
 103  3228.402
 104  3317.114
 105  3516.686
 106  3643.172
 107  3711.416
 108  3605.33
 109  3649.75
 110  3842.873
 111  3651.43
 112  3527.002
 113  3195.624
 114  3340.235
 115  3254.885
 116  3389.165
 117  3396.347
 118  3000.772
 119  2940.35
 120  3287.105
 121  3475.673
 122  3240.874
 123  3309.344
 124  3058.289
 125  2884.295
 126  3070.608
 127  2772.313
 128  2689.506
 129  2517.791
 130  2472.396
 131  2526.721
 132  2665.39
 133  3034.464
 134  2865.718
 135  2967.157
 136  2817.778
 137  2859.45
 138  2587.28
 139  2324.119
 140  2403.662
 141  2726.194
 142  2841.207
 143  3199.566
 144  3079.519
 145  2889.472
 146  2822.177
 147  2795.226
 148  2747.41
 149  3192.218
 150  3199.109
 151  3384.046
 152  3183.269
 153  3344.108
 154  3188.268
 155  3387.901
 156  3654.365
 157  3319.945
 158  3208.938
 159  2895.205
 160  2811.26
 161  2815.475
 162  2699.755
 163  3054.23
 164  2779.721
 165  2782.234
 166  2846.731
 167  2761.504
 168  3009.74
 169  2974.345
 170  3090.934
 171  3256.091
 172  3508.622
 173  3381.64
 174  3506.06
 175  3542.451
 176  3493.045
 177  3534.746
 178  3750.749
 179  3799.762
 180  3711.979
 181  3569.888
 182  3541.003
 183  3382.958
 184  3130.684
 185  2997.987
 186  3491.336
 187  3240.719
 188  3227.968
 189  3298.719
 190  3418.425
 191  3525.753
 192  3231.704
 193  3179.505
 194  3234.175
 195  3229.952
 196  3470.698
 197  3286.531
 198  3141.015
 199  3132.027
 200  2886.846
 201  2867.643
 202  2845.152
 203  2809.089
 204  2585.867
 205  2744.573
 206  2601.624
 207  2950.668
 208  2834.003
 209  2493.731
 210  2202.547
 211  2021.4
 212  2559.902
 213  2562.467
 214  2439.311
 215  2754.391
 216  2773.764
 217  2746.222
 218  2720.26
 219  2890.369
 220  2882.633
 221  2949.342
 222  2501.845
 223  2360.19
 224  2838.072
 225  2687.484
 226  2756.006
 227  2593.908
 228  2599.017
 229  3016.936
 230  2853.203
 231  2923.252
 232  3042.203
 233  2751.93
 234  2714.204
 235  2468.733
 236  2943.785
 237  2937.185
 238  2681.731
 239  2690.988
 240  2862.481
 241  2988.331
 242  2810.638
 243  2371.147
 244  2719.867
 245  2951.661
 246  2644.156
 247  2838.939
 248  2897.151
 249  3072.367
 250  3201.824
 251  3405.138
 252  3169.228
 253  3251.416
 254  3454.745
 255  3392.838
 256  3215.785
 257  3092.731
 258  3379.123
 259  3780.79
 260  3517.825
 261  3494.668
 262  2927.438
 263  2901.388
 264  3054.631
 265  2874.973
 266  3002.677
 267  3037.884
 268  2921.095
 269  2982.075
 270  2889.728
 271  2797.903
 272  2758.381
 273  3041.96
 274  2847.933
 275  2807.537
 276  2952.521
 277  3007.883
 278  2697.338
 279  2736.365
 280  2738.508
 281  3184.172
 282  2956.54
 283  2980.833
 284  2626.744
 285  2609.736
 286  2878.714
 287  2747.967
 288  2460.618
 289  2103.204
 290  2391.339
 291  2510.54
 292  2540.731
 293  3050.376
 294  3099.47
 295  2513.789
 296  3167.183
 297  3729.022
 298  4221.149
 299  5026.785
 300  5229.197
 301  5062.06
 302  4430.836
 303  3663.852
 304  3243.049
 305  2909.771
 306  2812.357
 307  2900.625
 308  2719.924
 309  2366.353
 310  2489.575
 311  2503.541
 312  2453.377
 313  2814.209
 314  2557.612
 315  2667.226
 316  2235.571
 317  2474.404
 318  2993.136
 319  3100.533
 320  2899.484
 321  3304.851
 322  3260.054
 323  3213.354
 324  3228.164
 325  3068.786
 326  3111.735
 327  3290.887
 328  3260.897
 329  3206.048
 330  3038.706
 331  3068.655
 332  3023.041
 333  3205.185
 334  3247.268
 335  2928.315
 336  3046.257
 337  2977.359
 338  2835.03
 339  2612.919
 340  2970.062
 341  2952.023
 342  2534.046
 343  2450.296
 344  2138.182
 345  2107.472
 346  2727.133
 347  2593.916
 348  2587.272
 349  2485.221
 350  2381.414
 351  2008.114
 352  1980.84
 353  2105.315
 354  1933.241
 355  2397.922
 356  2556.656
 357  2330.445
 358  2310.392
 359  2182.226
 360  2506.827
 361  2725.792
 362  2647.975
 363  2635.671
 364  2557.906
 365  2536.049
 366  2777.584
 367  2535.511
 368  2491.676
 369  2404.007
 370  2146.438
 371  2331.079
 372  2459.725
 373  2525.146
 374  2574.25
 375  2399.164
 376  2258.408
 377  2296.972
 378  2343.141
 379  2564.313
 380  2290.552
 381  2508.864
 382  2736.998
 383  2249.754
 384  2032.605
 385  2348.381
 386  2743.455
 387  2703.953
 388  2301.32
 389  1957.826
 390  2311.517
 391  2381.411
 392  2593.218
 393  2688.292
 394  2844.603
 395  2872.11
 396  2836.905
 397  2989.516
 398  3421.426
 399  3655.641
 400  3606.98
 401  3391.103
 402  3533.575
 403  3712.033
 404  3164.271
 405  3191.521
 406  3021.543
 407  3003.961
 408  3025.438
 409  2692.781
 410  3029.483
 411  2783.708
 412  2825.586
 413  3010.212
 414  3072.168
 415  3109.398
 416  2995.851
 417  3325.432
 418  3279.73
 419  3052.034
 420  2524.76
 421  2533.655
 422  2778.822
 423  2795.438
 424  2818.456
 425  2364.877
 426  2364.694
 427  2750.229
 428  3078.523
 429  2757.435
 430  2614.228
 431  2941.285
 432  2607.486
 433  2617.914
 434  2920.796
 435  2804.038
 436  2810
 437  2682.043
 438  2330.867
 439  2124.183
 440  2468.609
 441  2450.872
 442  2119.884
 443  2558.662
 444  2837.256
 445  3104.331
 446  3317.518
 447  3299.156
 448  3125.25
 449  2773.67
 450  2779.902
 451  2841.55
 452  3178.345
 453  3266.279
 454  3306.556
 455  3043.702
 456  3223.387
 457  2727.959
 458  3211.073
 459  3352.258
 460  3171.069
 461  3018.511
 462  3022.704
 463  2906.935
 464  3031.96
 465  3302.724
 466  3234.732
 467  3230.19
 468  3285.474
 469  3209.498
 470  3114.568
 471  2903.286
 472  2937.846
 473  3190.746
 474  3555.847
 475  3467.969
 476  3332.497
 477  3512.59
 478  3294.258
 479  3272.339
 480  3202.778
 481  2985.715
 482  3192.101
 483  3121.076
 484  2868.571
 485  2808.41
 486  2655.797
 487  2609.765
 488  2833.212
 489  3024.821
 490  3129.891
 491  2783.292
 492  2634.867
 493  2682.671
 494  2759.793
 495  2769.44
 496  2721.971
 497  2908.448
 498  2755.44
 499  2760.414
 500  2859.148
 501  2927.613
 502  2977.975
 503  3006.03
 504  3044.85
 505  2898.174
 506  2975.375
 507  2901.561
 508  2703.502
 509  3097.036
 510  3165.046
 511  2827.428
