# Input file       =  1207644063.222042_cleaned.dat
# Candidate        =  PSR_0332+5434
# Telescope        =  AR
# Epoch_topo       =  58221.362062755114
# Epoch_bary       =  N/A
# T_sample         =  0.002
# Data Folded      =  7340032
# Data Avg         =  0.0229437353783787
# Data StdDev      =  2.84204011405238 
# Profile Bins     =  512
# Profile Avg      =  328.795520046685 
# Profile StdDev   =  340.286092360062 
# Reduced chi-sqr  =  2.152
# Prob(Noise)      <  3.67e-45   (~14.1 sigma)
# P_topo (ms)      =  714.56134922933   +/- 0.000228
# P'_topo (s/s)    =  -0                +/- 1.2e-10
# P''_topo (s/s^2) =  0                 +/- 5.32e-14
# P_bary (ms)      =  N/A
# P'_bary (s/s)    =  N/A
# P''_bary (s/s^2) =  N/A
# P_orb (s)        =  N/A
# asin(i)/c (s)    =  N/A
# eccentricity     =  N/A
# w (rad)          =  N/A
# T_peri           =  N/A
######################################################
   0  312.2583
   1  311.1539
   2  332.0297
   3  322.7556
   4  317.6556
   5  199.1668
   6  167.0012
   7  276.0792
   8  393.9327
   9  306.0432
  10  231.2933
  11  29.79139
  12  75.53503
  13  -9.039208
  14  72.42783
  15  202.9691
  16  421.526
  17  242.6386
  18  427.7872
  19  513.7042
  20  554.3953
  21  505.3891
  22  529.2025
  23  172.0156
  24  23.95145
  25  75.94151
  26  346.1018
  27  577.6046
  28  472.4755
  29  357.5767
  30  218.8381
  31  335.5812
  32  259.0154
  33  306.2971
  34  310.2874
  35  352.7212
  36  284.5405
  37  262.5593
  38  176.5658
  39  151.8336
  40  260.0864
  41  89.82858
  42  -61.59355
  43  -70.4304
  44  203.9757
  45  268.3216
  46  286.1964
  47  424.9943
  48  303.3095
  49  371.122
  50  418.7557
  51  215.0014
  52  315.8799
  53  378.1383
  54  233.2657
  55  386.4261
  56  655.9159
  57  322.6358
  58  414.4204
  59  71.64008
  60  186.7108
  61  390.63
  62  329.3195
  63  480.5223
  64  553.9384
  65  333.1167
  66  250.9501
  67  88.29903
  68  45.58087
  69  345.1242
  70  83.58295
  71  79.97445
  72  319.9001
  73  363.3629
  74  78.17774
  75  -1.006051
  76  339.2375
  77  -118.2271
  78  -259.9521
  79  -104.1909
  80  87.33848
  81  105.4176
  82  353.1971
  83  67.39133
  84  -183.4913
  85  143.1205
  86  274.939
  87  16.33487
  88  -17.44748
  89  203.9156
  90  -5.365071
  91  -231.3094
  92  -181.1597
  93  -106.729
  94  -225.776
  95  -253.8733
  96  32.82636
  97  329.6646
  98  293.6785
  99  -56.10011
 100  -65.51993
 101  -46.69666
 102  -39.55906
 103  -263.3448
 104  -110.7817
 105  1.963024
 106  139.6564
 107  125.7549
 108  142.3494
 109  12.52314
 110  -118.5372
 111  -99.43966
 112  -122.8467
 113  -126.1392
 114  24.18875
 115  46.53171
 116  -81.06414
 117  143.9117
 118  376.2729
 119  -25.54636
 120  -151.3625
 121  440.6348
 122  515.9214
 123  142.1799
 124  -258.0155
 125  -60.87705
 126  64.31996
 127  285.6599
 128  170.3808
 129  39.02863
 130  306.3272
 131  605.5565
 132  563.4722
 133  405.1877
 134  271.8249
 135  173.7123
 136  637.732
 137  685.141
 138  654.8058
 139  494.7957
 140  334.7648
 141  307.4531
 142  343.6359
 143  162.6264
 144  329.131
 145  755.0285
 146  655.4764
 147  374.6747
 148  531.1569
 149  792.5724
 150  150.6059
 151  437.163
 152  802.0433
 153  648.2311
 154  252.4619
 155  323.4101
 156  439.9757
 157  30.83649
 158  233.8752
 159  384.221
 160  389.7345
 161  111.2706
 162  298.9669
 163  273.6944
 164  523.5247
 165  626.9606
 166  458.6352
 167  425.9343
 168  523.6316
 169  425.2161
 170  399.6864
 171  427.0988
 172  427.9509
 173  146.8402
 174  -145.4255
 175  -74.54369
 176  -108.6744
 177  211.6882
 178  242.6896
 179  59.03825
 180  -47.71223
 181  125.7626
 182  132.2946
 183  -291.4896
 184  -319.0462
 185  -80.01514
 186  -50.32389
 187  341.5723
 188  198.407
 189  -42.79528
 190  114.1132
 191  193.559
 192  -44.12919
 193  248.546
 194  204.3103
 195  298.0977
 196  367.8351
 197  205.8586
 198  404.0703
 199  508.5123
 200  625.9895
 201  765.4771
 202  767.0284
 203  626.0875
 204  324.2328
 205  255.4466
 206  220.7764
 207  556.1326
 208  504.5199
 209  577.1111
 210  704.1095
 211  855.3414
 212  825.0869
 213  953.5016
 214  880.6686
 215  734.434
 216  680.5735
 217  651.5627
 218  321.2645
 219  607.4184
 220  845.0768
 221  609.8209
 222  407.4196
 223  529.4549
 224  607.9998
 225  462.7775
 226  258.3177
 227  141.838
 228  401.3572
 229  606.3962
 230  225.6651
 231  187.6727
 232  368.3695
 233  375.1128
 234  650.2169
 235  662.686
 236  643.4261
 237  486.9462
 238  126.7167
 239  192.6489
 240  295.5215
 241  582.4126
 242  522.1323
 243  494.1076
 244  518.3477
 245  450.2551
 246  468.7315
 247  661.1559
 248  248.5177
 249  130.3764
 250  54.30768
 251  158.9007
 252  158.8125
 253  229.9187
 254  341.7185
 255  75.85852
 256  33.36121
 257  -3.145412
 258  100.1752
 259  126.1351
 260  416.158
 261  357.2307
 262  131.9443
 263  143.7043
 264  16.60709
 265  96.63158
 266  78.90987
 267  259.1805
 268  422.8167
 269  483.1919
 270  276.9413
 271  341.9275
 272  444.1309
 273  223.3842
 274  125.7188
 275  37.00793
 276  234.934
 277  377.4781
 278  393.4211
 279  804.3447
 280  484.0098
 281  525.0525
 282  589.5263
 283  629.7296
 284  852.4696
 285  550.8572
 286  714.332
 287  713.9615
 288  530.6302
 289  273.5688
 290  126.233
 291  256.0887
 292  330.4394
 293  334.2849
 294  538.3492
 295  786.5353
 296  952.9104
 297  866.047
 298  1043.261
 299  1892.436
 300  2637.342
 301  2662.738
 302  3093.465
 303  2931.287
 304  2342.709
 305  1520.462
 306  1005.851
 307  570.7446
 308  -29.4592
 309  3.748952
 310  267.4532
 311  562.1013
 312  644.3471
 313  740.5381
 314  680.7892
 315  525.0367
 316  598.8349
 317  460.7552
 318  422.9823
 319  308.1061
 320  446.9011
 321  545.6263
 322  462.9529
 323  380.4738
 324  15.78052
 325  200.0542
 326  425.3694
 327  108.7979
 328  406.0405
 329  374.7405
 330  235.5874
 331  166.3948
 332  467.2821
 333  526.2866
 334  348.1919
 335  326.4538
 336  456.9177
 337  699.677
 338  497.2915
 339  442.6691
 340  704.8514
 341  597.1627
 342  159.9
 343  311.9123
 344  410.6026
 345  470.3414
 346  94.28201
 347  201.9422
 348  567.1833
 349  855.9236
 350  779.5161
 351  770.2865
 352  680.0699
 353  667.8782
 354  798.8345
 355  627.5117
 356  499.1633
 357  665.9217
 358  783.976
 359  532.5132
 360  181.5582
 361  569.7734
 362  792.9032
 363  903.5568
 364  788.1359
 365  514.5368
 366  440.3567
 367  158.1973
 368  520.2752
 369  407.2534
 370  99.63721
 371  -85.72681
 372  -34.91484
 373  133.8372
 374  242.9532
 375  252.2886
 376  368.8413
 377  291.9876
 378  330.1486
 379  425.0718
 380  191.4457
 381  329.0654
 382  493.9668
 383  351.2054
 384  210.1897
 385  180.786
 386  200.2192
 387  567.2781
 388  332.2265
 389  243.9415
 390  431.3372
 391  422.2094
 392  215.2363
 393  -165.0273
 394  271.7384
 395  420.5822
 396  141.2367
 397  120.9689
 398  318.0076
 399  123.0727
 400  220.4997
 401  -29.40431
 402  131.1169
 403  399.8339
 404  332.9722
 405  169.2145
 406  248.5924
 407  433.0608
 408  285.5498
 409  97.5605
 410  104.5486
 411  227.7247
 412  420.1621
 413  590.3583
 414  359.4375
 415  144.6188
 416  23.62806
 417  -50.14972
 418  -164.2309
 419  82.60782
 420  40.5586
 421  139.4988
 422  315.8997
 423  581.7007
 424  243.3693
 425  127.4888
 426  160.5663
 427  300.8645
 428  392.5451
 429  510.2883
 430  727.7531
 431  728.4023
 432  350.9096
 433  171.4724
 434  -57.40894
 435  241.7155
 436  558.8035
 437  449.1176
 438  34.58128
 439  153.7852
 440  246.7076
 441  328.8388
 442  537.77
 443  78.53944
 444  3.902714
 445  159.458
 446  570.3001
 447  856.1829
 448  535.7668
 449  453.2836
 450  210.8422
 451  167.2185
 452  78.84768
 453  -44.49278
 454  -231.5867
 455  -306.9109
 456  260.3482
 457  178.6382
 458  -284.6237
 459  -55.01783
 460  154.7491
 461  116.2227
 462  257.9841
 463  -91.08083
 464  229.7212
 465  303.7156
 466  353.5682
 467  339.9744
 468  -3.051208
 469  94.30344
 470  270.5377
 471  112.5244
 472  77.89662
 473  43.65633
 474  115.2471
 475  -175.9852
 476  -366.0625
 477  -229.9885
 478  88.19496
 479  65.59826
 480  497.7274
 481  242.41
 482  -63.67879
 483  45.16225
 484  1.781874
 485  208.0289
 486  32.10829
 487  199.4811
 488  197.3988
 489  179.3188
 490  87.33753
 491  -78.5394
 492  58.86395
 493  393.273
 494  640.6142
 495  470.3207
 496  362.2553
 497  318.5003
 498  389.0009
 499  328.0793
 500  334.7011
 501  190.2155
 502  61.00161
 503  481.8709
 504  405.4191
 505  457.4098
 506  365.4289
 507  260.6357
 508  775.8441
 509  871.5238
 510  684.3943
 511  710.0372
