# Input file       =  1207722527.104559_cleaned.dat
# Candidate        =  PSR_0332+5434
# Telescope        =  AR
# Epoch_topo       =  58222.270209543509
# Epoch_bary       =  N/A
# T_sample         =  0.002
# Data Folded      =  7274496
# Data Avg         =  0.0228008911775441
# Data StdDev      =  1.00003981855514 
# Profile Bins     =  512
# Profile Avg      =  324.011718390921 
# Profile StdDev   =  119.202061670886 
# Reduced chi-sqr  =  2.056
# Prob(Noise)      <  1.58e-39   (~13.1 sigma)
# P_topo (ms)      =  714.56070788625   +/- 0.000195
# P'_topo (s/s)    =  -0                +/- 1.04e-10
# P''_topo (s/s^2) =  0                 +/- 4.62e-14
# P_bary (ms)      =  N/A
# P'_bary (s/s)    =  N/A
# P''_bary (s/s^2) =  N/A
# P_orb (s)        =  N/A
# asin(i)/c (s)    =  N/A
# eccentricity     =  N/A
# w (rad)          =  N/A
# T_peri           =  N/A
######################################################
   0  1378.357
   1  1228.635
   2  1020.722
   3  743.2673
   4  471.933
   5  391.6111
   6  340.2725
   7  310.0881
   8  366.9772
   9  402.5729
  10  357.0099
  11  334.1416
  12  304.6878
  13  252.5744
  14  359.0867
  15  372.1649
  16  184.2182
  17  311.0527
  18  360.889
  19  355.0772
  20  304.0029
  21  435.6022
  22  483.5814
  23  306.6768
  24  299.1549
  25  370.6377
  26  330.3199
  27  447.2236
  28  527.4573
  29  396.674
  30  312.61
  31  400.3801
  32  446.0204
  33  449.7206
  34  387.9544
  35  308.4236
  36  242.4182
  37  286.5256
  38  337.8346
  39  387.4676
  40  345.0697
  41  444.9778
  42  436.1802
  43  386.976
  44  394.8847
  45  356.7128
  46  414.4995
  47  376.9782
  48  347.1003
  49  438.2046
  50  446.0306
  51  332.1744
  52  274.958
  53  299.9729
  54  291.6438
  55  306.9295
  56  242.2157
  57  336.1417
  58  377.399
  59  515.6173
  60  443.2423
  61  464.7484
  62  287.8028
  63  351.719
  64  419.7988
  65  312.7095
  66  195.5014
  67  224.4339
  68  240.0285
  69  184.5357
  70  258.8905
  71  291.585
  72  315.4769
  73  154.175
  74  245.6828
  75  360.2373
  76  299.4957
  77  465.0814
  78  457.7543
  79  371.1459
  80  174.44
  81  264.0648
  82  244.9377
  83  201.6382
  84  187.3524
  85  266.9622
  86  370.4442
  87  328.0167
  88  304.4522
  89  302.1636
  90  324.7481
  91  241.5735
  92  254.0368
  93  313.4825
  94  369.5949
  95  314.2596
  96  368.7238
  97  352.6906
  98  419.8563
  99  306.4224
 100  234.4237
 101  322.8111
 102  331.3187
 103  130.4836
 104  255.7789
 105  289.0643
 106  238.8738
 107  218.7597
 108  327.6055
 109  376.0781
 110  326.3674
 111  325.0382
 112  299.3562
 113  266.6636
 114  260.0515
 115  191.7307
 116  161.8055
 117  187.4622
 118  223.1491
 119  330.1406
 120  281.6458
 121  240.2652
 122  148.4535
 123  190.5676
 124  138.74
 125  201.6473
 126  296.3156
 127  341.8878
 128  283.7926
 129  284.7177
 130  308.4393
 131  298.638
 132  244.5355
 133  361.9153
 134  348.1154
 135  249.3454
 136  287.0569
 137  338.905
 138  236.2543
 139  203.7926
 140  328.6265
 141  391.3033
 142  336.4256
 143  384.1801
 144  315.0423
 145  315.7984
 146  483.4865
 147  411.8843
 148  245.7838
 149  284.1716
 150  401.7219
 151  362.503
 152  287.9116
 153  380.5304
 154  364.1714
 155  220.3532
 156  193.1223
 157  423.7272
 158  463.7996
 159  442.2682
 160  437.3847
 161  473.4018
 162  323.9634
 163  264.4957
 164  315.8954
 165  265.5348
 166  329.0364
 167  386.9864
 168  431.1497
 169  335.3052
 170  330.2284
 171  435.3084
 172  437.8162
 173  343.7866
 174  353.8743
 175  368.2831
 176  388.403
 177  461.277
 178  423.5963
 179  489.7096
 180  364.0826
 181  252.6877
 182  213.0152
 183  302.2874
 184  363.038
 185  416.3958
 186  306.7206
 187  268.5189
 188  246.3909
 189  359.433
 190  275.0293
 191  218.7349
 192  302.9925
 193  333.9447
 194  370.141
 195  386.2855
 196  387.0597
 197  312.403
 198  278.1037
 199  311.2061
 200  308.7405
 201  196.2858
 202  272.3791
 203  297.8953
 204  430.7214
 205  316.8762
 206  176.7023
 207  189.775
 208  169.2658
 209  310.6613
 210  289.5252
 211  235.7188
 212  276.3489
 213  251.5519
 214  276.3416
 215  223.3237
 216  240.2053
 217  323.1089
 218  206.2599
 219  47.45573
 220  133.8103
 221  227.58
 222  321.7179
 223  332.1357
 224  363.4974
 225  292.8287
 226  342.0117
 227  358.3259
 228  288.813
 229  349.1106
 230  304.2721
 231  118.159
 232  191.3176
 233  384.4056
 234  546.9019
 235  353.3922
 236  316.3929
 237  363.6884
 238  274.243
 239  289.8267
 240  344.7686
 241  473.2612
 242  452.6524
 243  431.3394
 244  339.6914
 245  324.6097
 246  316.5989
 247  393.0461
 248  342.9753
 249  241.9112
 250  255.6594
 251  271.7914
 252  381.5157
 253  392.77
 254  416.9568
 255  333.0268
 256  371.0448
 257  503.42
 258  461.8398
 259  445.8248
 260  436.932
 261  262.016
 262  229.6705
 263  257.7961
 264  262.3412
 265  385.3442
 266  395.063
 267  275.1263
 268  350.4216
 269  305.1281
 270  276.2955
 271  373.2312
 272  344.5908
 273  278.9827
 274  307.3337
 275  270.8844
 276  361.2951
 277  411.0221
 278  535.9753
 279  331.6577
 280  216.8512
 281  302.0509
 282  393.8906
 283  300.5163
 284  295.6605
 285  410.5654
 286  404.8673
 287  331.1642
 288  255.1332
 289  166.096
 290  227.1678
 291  306.9117
 292  288.0197
 293  300.1898
 294  183.1046
 295  307.0514
 296  378.3674
 297  362.2422
 298  402.9007
 299  352.4739
 300  204.9276
 301  218.6628
 302  436.8275
 303  254.8793
 304  216.5247
 305  310.8968
 306  250.0117
 307  248.2429
 308  238.4005
 309  242.9462
 310  259.0695
 311  271.6434
 312  253.4397
 313  119.6763
 314  188.1612
 315  197.7635
 316  237.858
 317  419.0635
 318  346.1122
 319  259.7814
 320  177.8302
 321  202.1072
 322  191.7069
 323  290.3673
 324  349.4604
 325  217.3272
 326  273.0901
 327  463.8459
 328  337.9767
 329  285.7733
 330  353.9314
 331  289.3504
 332  294.2124
 333  203.3518
 334  313.161
 335  352.7048
 336  411.418
 337  393.499
 338  273.7136
 339  282.3667
 340  390.4814
 341  410.0473
 342  333.126
 343  294.7023
 344  322.9631
 345  260.7227
 346  170.9489
 347  315.3358
 348  346.1063
 349  281.5594
 350  311.1001
 351  280.1632
 352  263.517
 353  338.7533
 354  226.8835
 355  242.5664
 356  430.7182
 357  483.5103
 358  410.4879
 359  389.901
 360  277.6488
 361  229.7794
 362  246.8183
 363  134.5835
 364  251.3863
 365  288.7982
 366  114.436
 367  130.1651
 368  323.666
 369  362.305
 370  327.4493
 371  326.0637
 372  400.0547
 373  466.4249
 374  422.876
 375  409.2563
 376  360.3978
 377  341.5186
 378  246.9528
 379  320.2439
 380  360.615
 381  397.1191
 382  341.5305
 383  351.2414
 384  465.6267
 385  386.8745
 386  240.2261
 387  240.4906
 388  209.6894
 389  342.1663
 390  341.1312
 391  385.1603
 392  385.8949
 393  328.822
 394  286.2371
 395  269.4347
 396  189.3996
 397  271.6745
 398  304.2656
 399  200.3677
 400  325.1856
 401  428.8364
 402  427.8282
 403  358.9795
 404  277.5986
 405  284.5855
 406  359.3474
 407  322.4359
 408  321.5747
 409  355.0299
 410  378.2487
 411  355.5047
 412  263.2858
 413  323.5817
 414  328.0952
 415  325.5879
 416  263.2786
 417  302.7843
 418  247.5511
 419  308.6934
 420  373.0649
 421  265.5062
 422  333.0456
 423  329.3256
 424  222.8309
 425  320.4667
 426  327.1322
 427  318.4044
 428  314.6125
 429  296.2386
 430  231.4273
 431  371.2063
 432  299.3888
 433  160.3574
 434  164.8518
 435  293.8395
 436  294.502
 437  253.4553
 438  300.1071
 439  368.8722
 440  346.1159
 441  341.9452
 442  295.806
 443  394.6895
 444  365.0023
 445  331.2405
 446  285.7334
 447  303.4023
 448  290.3367
 449  211.9205
 450  189.7879
 451  158.6224
 452  185.5347
 453  215.8372
 454  273.9826
 455  334.7836
 456  395.0466
 457  378.2856
 458  187.1283
 459  355.3357
 460  390.6237
 461  263.9378
 462  231.6869
 463  225.642
 464  232.53
 465  257.618
 466  238.5627
 467  157.7399
 468  141.6951
 469  182.6807
 470  216.4291
 471  291.9399
 472  380.9721
 473  314.8288
 474  121.1623
 475  189.6426
 476  272.2112
 477  223.5028
 478  154.0076
 479  210.7377
 480  280.687
 481  343.4383
 482  298.8086
 483  172.2335
 484  163.5428
 485  182.1554
 486  233.8307
 487  249.7541
 488  471.0694
 489  423.8708
 490  383.0149
 491  374.7013
 492  322.3354
 493  321.1681
 494  478.4052
 495  353.2387
 496  178.2822
 497  218.7365
 498  235.4793
 499  273.0319
 500  397.5846
 501  489.912
 502  430.4514
 503  349.0424
 504  436.7089
 505  503.2076
 506  376.753
 507  469.8827
 508  614.0168
 509  766.4299
 510  1005.621
 511  1316.882
