# Input file       =  1207673922.110527_cleaned.dat
# Candidate        =  PSR_0332+5434
# Telescope        =  AR
# Epoch_topo       =  58221.707651742210
# Epoch_bary       =  N/A
# T_sample         =  0.002
# Data Folded      =  7340032
# Data Avg         =  0.00901634019627735
# Data StdDev      =  1.00003259994955 
# Profile Bins     =  512
# Profile Avg      =  129.239527099242 
# Profile StdDev   =  119.736939667712 
# Reduced chi-sqr  =  2.622
# Prob(Noise)      <  1.43e-75   (~18.4 sigma)
# P_topo (ms)      =  714.561674665941  +/- 0.000221
# P'_topo (s/s)    =  -0                +/- 1.16e-10
# P''_topo (s/s^2) =  0                 +/- 5.14e-14
# P_bary (ms)      =  N/A
# P'_bary (s/s)    =  N/A
# P''_bary (s/s^2) =  N/A
# P_orb (s)        =  N/A
# asin(i)/c (s)    =  N/A
# eccentricity     =  N/A
# w (rad)          =  N/A
# T_peri           =  N/A
######################################################
   0  1385.39
   1  1161.659
   2  947.4431
   3  611.3605
   4  303.2651
   5  144.0359
   6  119.5697
   7  101.44
   8  -0.9943808
   9  188.7447
  10  105.6754
  11  158.9808
  12  296.7618
  13  218.7959
  14  67.29209
  15  151.4127
  16  184.1804
  17  195.7316
  18  186.3212
  19  140.6424
  20  99.99255
  21  162.369
  22  147.9396
  23  166.7487
  24  238.0026
  25  235.5074
  26  140.2573
  27  212.5549
  28  195.0853
  29  213.9985
  30  140.9591
  31  285.6721
  32  143.7329
  33  140.4411
  34  267.0834
  35  185.0354
  36  240.6721
  37  204.4157
  38  98.08891
  39  137.2295
  40  214.7863
  41  294.0794
  42  275.6542
  43  225.4742
  44  23.49043
  45  -76.65193
  46  36.78666
  47  104.1159
  48  151.2768
  49  207.9526
  50  151.639
  51  176.8485
  52  188.6054
  53  192.3929
  54  94.53676
  55  124.4799
  56  138.1141
  57  148.219
  58  68.53631
  59  84.75882
  60  57.87782
  61  48.42735
  62  -1.382628
  63  192.6957
  64  131.8625
  65  77.91898
  66  -19.90418
  67  228.8186
  68  221.0411
  69  66.27533
  70  105.2425
  71  78.35983
  72  214.3475
  73  126.2831
  74  172.2741
  75  185.8746
  76  134.545
  77  113.6914
  78  157.8115
  79  68.11539
  80  117.1571
  81  271.9459
  82  234.3287
  83  98.65785
  84  179.2584
  85  53.56623
  86  144.0548
  87  112.8426
  88  229.9643
  89  201.7611
  90  175.289
  91  -1.789916
  92  -61.70535
  93  55.92538
  94  75.66862
  95  -57.97474
  96  105.251
  97  75.64399
  98  189.6881
  99  134.1037
 100  225.0125
 101  208.9217
 102  96.83149
 103  133.1683
 104  13.30248
 105  144.4156
 106  126.8597
 107  128.7002
 108  -60.90161
 109  -82.85767
 110  12.2486
 111  79.92587
 112  37.47227
 113  98.68433
 114  168.5668
 115  105.588
 116  0.1497137
 117  78.33107
 118  -2.571948
 119  50.52118
 120  25.47255
 121  33.37015
 122  55.05483
 123  144.1488
 124  145.1648
 125  -18.12872
 126  16.17968
 127  138.9592
 128  121.1362
 129  108.2497
 130  61.66396
 131  93.31777
 132  92.20111
 133  -34.80256
 134  -91.24291
 135  34.25837
 136  172.1871
 137  180.2563
 138  0.09917192
 139  -37.86759
 140  29.92037
 141  121.2185
 142  157.5649
 143  185.3702
 144  264.5757
 145  188.2738
 146  296.8301
 147  297.3635
 148  180.1873
 149  51.34368
 150  24.11015
 151  294.845
 152  315.4228
 153  298.3923
 154  143.154
 155  109.3275
 156  65.37789
 157  26.35967
 158  40.70361
 159  184.213
 160  48.02641
 161  51.28028
 162  118.972
 163  188.1411
 164  178.0071
 165  103.9185
 166  75.71967
 167  42.44213
 168  88.81552
 169  165.4192
 170  203.1569
 171  36.82058
 172  34.98708
 173  104.0636
 174  47.76899
 175  121.9861
 176  211.3586
 177  247.0261
 178  108.1643
 179  164.7505
 180  252.0515
 181  194.6439
 182  85.81932
 183  47.97053
 184  40.52744
 185  70.78727
 186  -70.53709
 187  103.466
 188  56.63852
 189  85.74359
 190  133.0346
 191  166.915
 192  98.00895
 193  109.6008
 194  36.72847
 195  147.1033
 196  103.2264
 197  22.38121
 198  22.27651
 199  -34.4102
 200  18.23864
 201  31.12273
 202  5.621509
 203  -13.57924
 204  -7.798663
 205  130.1813
 206  -51.81256
 207  -3.592446
 208  -18.11173
 209  -132.3874
 210  80.92648
 211  141.6232
 212  -17.98908
 213  84.64376
 214  53.36981
 215  -5.951366
 216  128.2295
 217  48.11264
 218  32.98462
 219  65.22256
 220  70.23611
 221  36.73937
 222  74.63992
 223  158.1758
 224  101.8948
 225  -23.42154
 226  -0.1524327
 227  65.85004
 228  177.8231
 229  272.5629
 230  210.4331
 231  195.9879
 232  116.435
 233  -12.71597
 234  180.588
 235  276.9845
 236  193.4582
 237  145.8203
 238  175.2462
 239  177.5071
 240  232.8527
 241  266.3193
 242  197.5378
 243  220.5549
 244  125.0861
 245  82.16441
 246  94.90865
 247  130.0644
 248  207.0435
 249  125.4438
 250  130.8398
 251  233.574
 252  110.0216
 253  121.6067
 254  59.32596
 255  65.0344
 256  69.95574
 257  26.89821
 258  -171.7331
 259  -136.3899
 260  46.7729
 261  135.6204
 262  243.3671
 263  251.5414
 264  177.5547
 265  108.6497
 266  46.24863
 267  182.5196
 268  168.1393
 269  -51.14987
 270  10.34805
 271  80.67943
 272  80.03924
 273  17.70518
 274  48.60416
 275  8.250781
 276  154.2927
 277  177.5675
 278  129.6263
 279  105.9306
 280  190.8229
 281  192.1124
 282  191.2887
 283  212.1305
 284  210.4722
 285  212.6108
 286  145.9216
 287  104.0957
 288  74.02186
 289  126.2681
 290  114.053
 291  97.1627
 292  249.0041
 293  177.3383
 294  71.96899
 295  144.0261
 296  207.974
 297  208.4655
 298  23.44263
 299  20.92711
 300  105.4038
 301  138.8148
 302  193.3394
 303  171.8169
 304  122.1144
 305  79.42838
 306  65.06245
 307  22.03889
 308  68.59924
 309  189.627
 310  71.81859
 311  111.0195
 312  101.884
 313  90.95884
 314  -34.26748
 315  53.06986
 316  121.2577
 317  140.5247
 318  135.7314
 319  110.6802
 320  22.53998
 321  179.3012
 322  246.6725
 323  95.56725
 324  81.51878
 325  178.558
 326  56.85788
 327  -77.78385
 328  47.36388
 329  44.78994
 330  7.571415
 331  34.73431
 332  218.0318
 333  69.19926
 334  126.5916
 335  91.52012
 336  60.77519
 337  32.34219
 338  30.48539
 339  178.0216
 340  211.5305
 341  37.63979
 342  114.4131
 343  51.21164
 344  12.94579
 345  136.6454
 346  169.5233
 347  138.2358
 348  160.626
 349  133.1656
 350  92.91412
 351  14.46415
 352  186.3904
 353  53.94191
 354  50.07132
 355  226.8362
 356  309.0965
 357  213.3204
 358  280.2028
 359  177.4457
 360  152.965
 361  84.49566
 362  69.40417
 363  156.881
 364  134.4586
 365  166.1909
 366  112.4394
 367  143.1156
 368  73.41112
 369  238.7588
 370  269.248
 371  230.3365
 372  132.1958
 373  90.37462
 374  156.2968
 375  257.1027
 376  242.3899
 377  221.3236
 378  129.6011
 379  151.0493
 380  275.2095
 381  143.8312
 382  258.4124
 383  193.3909
 384  173.0957
 385  88.44247
 386  128.1651
 387  182.207
 388  188.597
 389  62.17501
 390  101.5912
 391  168.029
 392  -15.37161
 393  159.7771
 394  217.7888
 395  101.2891
 396  33.98397
 397  137.7927
 398  199.5751
 399  159.3553
 400  -12.03035
 401  -130.8639
 402  -24.28166
 403  124.2209
 404  84.53497
 405  195.1531
 406  140.6468
 407  -133.1471
 408  98.79283
 409  205.2248
 410  153.8273
 411  87.99712
 412  142.1303
 413  142.3148
 414  205.6825
 415  140.3878
 416  163.103
 417  47.95724
 418  124.0064
 419  152.3474
 420  74.84528
 421  29.39957
 422  139.9459
 423  60.22142
 424  166.6419
 425  221.5698
 426  179.4724
 427  116.2195
 428  70.37376
 429  110.9796
 430  130.0667
 431  116.583
 432  76.7189
 433  104.6825
 434  147.8856
 435  104.3981
 436  68.00735
 437  153.757
 438  163.6119
 439  107.7912
 440  209.0264
 441  291.3642
 442  233.0842
 443  211.263
 444  67.319
 445  -38.57282
 446  116.2583
 447  116.9819
 448  149.7225
 449  253.2173
 450  222.3338
 451  180.2613
 452  143.4253
 453  -38.89576
 454  44.02096
 455  82.03238
 456  96.81386
 457  124.146
 458  80.68833
 459  117.2651
 460  107.8717
 461  112.7304
 462  25.58587
 463  21.14463
 464  49.75237
 465  131.2079
 466  134.9303
 467  10.82755
 468  153.258
 469  142.1169
 470  61.56705
 471  -20.3303
 472  43.18791
 473  30.1167
 474  70.03659
 475  159.3867
 476  188.9669
 477  74.33014
 478  31.22961
 479  43.65383
 480  -13.22295
 481  -88.03162
 482  -134.0275
 483  -107.0093
 484  4.651463
 485  54.14115
 486  85.07056
 487  51.20729
 488  46.28047
 489  -36.85677
 490  87.99585
 491  212.6194
 492  168.4534
 493  244.8873
 494  202.4677
 495  11.30315
 496  -14.00503
 497  95.05485
 498  183.9762
 499  178.5557
 500  98.28004
 501  66.19455
 502  122.4888
 503  260.9396
 504  282.9513
 505  325.6107
 506  245.8749
 507  462.63
 508  511.9644
 509  603.0917
 510  1039.101
 511  1327.448
