# Input file       =  1207752188.129288-PSRB0329-2ms-sampling-dd.dat
# Candidate        =  PSR_0332+5434
# Telescope        =  AR
# Epoch_topo       =  58222.613508440831
# Epoch_bary       =  N/A
# T_sample         =  0.002
# Data Folded      =  7340032
# Data Avg         =  -2.54954916035235e-10
# Data StdDev      =  7.24674011201826 
# Profile Bins     =  512
# Profile Avg      =  0.0669747493789898
# Profile StdDev   =  867.674197445253 
# Reduced chi-sqr  =  0.416
# Prob(Noise)      <  1   (~0.0 sigma)
# P_topo (ms)      =  714.56080112821   +/- 0.00066
# P'_topo (s/s)    =  -0                +/- 3.48e-10
# P''_topo (s/s^2) =  0                 +/- 1.54e-13
# P_bary (ms)      =  N/A
# P'_bary (s/s)    =  N/A
# P''_bary (s/s^2) =  N/A
# P_orb (s)        =  N/A
# asin(i)/c (s)    =  N/A
# eccentricity     =  N/A
# w (rad)          =  N/A
# T_peri           =  N/A
######################################################
   0  -443.737
   1  -671.2904
   2  -318.8051
   3  -12.05713
   4  156.7413
   5  229.2038
   6  230.1743
   7  -275.841
   8  -777.8969
   9  -450.1849
  10  -215.8901
  11  -250.0022
  12  -325.8299
  13  -386.4005
  14  -494.0061
  15  -691.9907
  16  -608.9754
  17  -347.1416
  18  -272.0242
  19  -389.9396
  20  -329.5806
  21  44.42918
  22  18.19597
  23  -152.9018
  24  71.72513
  25  224.5959
  26  -91.27484
  27  90.13365
  28  -30.58483
  29  191.8676
  30  -147.6502
  31  -258.7005
  32  148.375
  33  -16.79824
  34  -270.3412
  35  -377.5611
  36  -235.8322
  37  -422.5531
  38  65.55468
  39  176.2159
  40  196.1612
  41  99.39827
  42  -531.7066
  43  -694.6713
  44  -797.0724
  45  -122.6669
  46  -108.8696
  47  -154.2244
  48  383.1081
  49  387.7464
  50  174.7065
  51  -5.8424
  52  -313.5609
  53  -420.2181
  54  -211.7745
  55  259.1643
  56  214.3493
  57  252.4624
  58  371.8873
  59  90.03822
  60  -291.4951
  61  -402.8958
  62  -306.1595
  63  -282.6212
  64  45.92816
  65  -14.35472
  66  85.65271
  67  92.17249
  68  272.5223
  69  67.03558
  70  417.4444
  71  402.2693
  72  79.48323
  73  -327.6043
  74  -617.2497
  75  -109.5129
  76  -107.416
  77  30.581
  78  145.8191
  79  -270.9242
  80  -510.7355
  81  -375.201
  82  -65.84695
  83  -340.0741
  84  -628.3146
  85  -666.5306
  86  -965.0302
  87  -328.8327
  88  -179.1024
  89  116.0605
  90  131.4059
  91  -322.9687
  92  -451.7987
  93  -548.0732
  94  -170.4098
  95  -374.1957
  96  -450.1406
  97  -762.0604
  98  -751.5469
  99  -625.2802
 100  -682.8181
 101  -1045.357
 102  -827.7545
 103  -701.713
 104  -417.0268
 105  -237.1191
 106  -160.4227
 107  134.0154
 108  -16.1421
 109  25.53104
 110  142.081
 111  -239.0015
 112  -251.8833
 113  -436.2106
 114  -186.6043
 115  -302.5884
 116  -241.5703
 117  -265.3835
 118  -719.2804
 119  -598.3547
 120  -115.3174
 121  328.1976
 122  197.3841
 123  112.7245
 124  -164.8145
 125  -409.6901
 126  -326.642
 127  -535.026
 128  -525.5474
 129  -540.9268
 130  -623.7416
 131  -475.3359
 132  -194.2994
 133  72.51139
 134  -201.0662
 135  -130.4724
 136  -254.1913
 137  32.82872
 138  -240.0971
 139  -400.5869
 140  -236.8818
 141  46.39113
 142  162.1591
 143  351.7727
 144  216.5466
 145  -93.78011
 146  -124.8758
 147  -28.23341
 148  209.1713
 149  689.3471
 150  399.3551
 151  640.6795
 152  456.4264
 153  537.7244
 154  383.026
 155  593.5858
 156  676.2627
 157  324.0292
 158  109.8993
 159  -154.2695
 160  -215.0971
 161  -227.3912
 162  -347.1915
 163  -183.1984
 164  -449.3364
 165  -602.3058
 166  -404.7656
 167  -442.7863
 168  -249.5033
 169  -359.9178
 170  -311.2601
 171  -165.6457
 172  -113.309
 173  -286.7189
 174  -89.15086
 175  -102.267
 176  -52.85695
 177  45.9024
 178  197.0716
 179  132.0046
 180  0.2570764
 181  226.1011
 182  204.343
 183  67.03327
 184  -0.2937436
 185  -124.9288
 186  284.0536
 187  54.4809
 188  87.73975
 189  224.164
 190  370.3587
 191  430.3787
 192  16.67072
 193  -113.2886
 194  -87.25847
 195  -59.08648
 196  304.2809
 197  60.41586
 198  99.93848
 199  213.6467
 200  -23.41167
 201  162.7021
 202  262.6292
 203  514.3354
 204  124.8612
 205  -66.50807
 206  -159.6987
 207  337.9144
 208  274.2436
 209  -213.4153
 210  -237.8911
 211  -171.2861
 212  477.3829
 213  383.3623
 214  505.1747
 215  868.1468
 216  576.5332
 217  487.8847
 218  575.3529
 219  613.2632
 220  720.9805
 221  768.698
 222  413.3732
 223  181.5094
 224  416.3286
 225  201.3997
 226  7.030512
 227  -11.05264
 228  231.0245
 229  720.3715
 230  560.65
 231  354.8674
 232  225.2046
 233  39.68115
 234  138.958
 235  -38.85555
 236  502.9938
 237  296.9297
 238  -167.5717
 239  -218.9701
 240  115.5392
 241  126.9877
 242  -168.2151
 243  -553.4789
 244  -91.10511
 245  364.6339
 246  102.879
 247  242.4011
 248  96.65416
 249  287.2842
 250  194.1428
 251  350.837
 252  297.918
 253  529.5864
 254  576.4935
 255  84.59206
 256  -51.82452
 257  -30.76816
 258  407.1979
 259  596.6141
 260  357.8306
 261  434.7879
 262  -253.6883
 263  -487.1299
 264  -301.2785
 265  -482.1806
 266  -215.6907
 267  -21.13481
 268  -96.04951
 269  36.4906
 270  16.23181
 271  -340.9319
 272  -394.0232
 273  -1.106118
 274  -253.2064
 275  -302.8135
 276  13.65683
 277  668.0047
 278  182.314
 279  216.2208
 280  -64.58109
 281  461.0574
 282  180.2223
 283  154.7894
 284  367.9986
 285  720.4293
 286  1089.761
 287  304.7049
 288  -264.7806
 289  -745.7388
 290  -469.4778
 291  -319.4092
 292  -244.3566
 293  311.3492
 294  355.5538
 295  -271.8564
 296  236.233
 297  1057.792
 298  1639.334
 299  2363.676
 300  2556.636
 301  2412.924
 302  1670.999
 303  929.1945
 304  293.796
 305  10.11024
 306  34.39394
 307  184.2125
 308  -332.4603
 309  -793.1949
 310  -262.7997
 311  -96.41117
 312  -278.0491
 313  38.11677
 314  -47.53114
 315  -228.9558
 316  -714.992
 317  -643.3052
 318  -105.7709
 319  255.3685
 320  -160.8516
 321  105.5527
 322  -15.82829
 323  -94.33833
 324  -244.1596
 325  -365.4488
 326  -9.421269
 327  371.0251
 328  324.0428
 329  61.50634
 330  -308.2719
 331  -280.576
 332  -191.9677
 333  -74.043
 334  280.5148
 335  153.4782
 336  271.335
 337  161.2692
 338  -45.10458
 339  -337.5597
 340  33.59412
 341  164.1889
 342  36.24378
 343  0.5128754
 344  -280.0782
 345  -547.757
 346  -302.4171
 347  -437.6994
 348  -169.7793
 349  -185.5868
 350  -141.075
 351  -187.876
 352  53.95905
 353  51.72098
 354  -390.0978
 355  64.55659
 356  -30.49201
 357  -398.1841
 358  -104.2036
 359  -198.8139
 360  88.87137
 361  242.0614
 362  -58.46595
 363  -300.4878
 364  -495.2821
 365  -399.3802
 366  84.11835
 367  150.522
 368  205.2447
 369  40.83954
 370  -370.4175
 371  -443.3333
 372  -299.373
 373  7.648284
 374  -18.86533
 375  -153.7719
 376  -165.2437
 377  -208.4857
 378  -116.1997
 379  -29.91403
 380  -418.4452
 381  -271.4037
 382  -71.96843
 383  -264.2248
 384  -280.9682
 385  -145.2931
 386  -9.770187
 387  -165.105
 388  -457.6036
 389  -789.7956
 390  -465.8004
 391  -558.0047
 392  -282.0284
 393  -75.83519
 394  136.6696
 395  529.2296
 396  249.2822
 397  296.8675
 398  465.2609
 399  584.445
 400  512.2953
 401  503.0682
 402  745.949
 403  942.1057
 404  107.9285
 405  58.81405
 406  -157.8043
 407  -162.5767
 408  103.4402
 409  -113.0442
 410  184.4891
 411  -88.13113
 412  -263.4015
 413  -222.1702
 414  71.12294
 415  271.0583
 416  203.6829
 417  681.6116
 418  619.2346
 419  199.4244
 420  -449.399
 421  -575.278
 422  -265.6838
 423  -130.408
 424  186.6171
 425  -16.05532
 426  143.7179
 427  409.1193
 428  464.6203
 429  -31.44585
 430  -136.5372
 431  569.9681
 432  596.6434
 433  376.6806
 434  723.0152
 435  306.8426
 436  374.7709
 437  179.7471
 438  19.14082
 439  -142.0546
 440  114.1173
 441  170.973
 442  -471.2386
 443  -27.72203
 444  66.42399
 445  283.4785
 446  226.1459
 447  342.7214
 448  170.4617
 449  22.56288
 450  263.9777
 451  494.1005
 452  671.1622
 453  206.2346
 454  308.8608
 455  10.47223
 456  162.2336
 457  -467.9758
 458  42.97914
 459  128.4717
 460  -232.7596
 461  -363.5332
 462  -683.5665
 463  -761.3986
 464  -503.3746
 465  -155.9367
 466  -119.9971
 467  -26.59842
 468  14.04976
 469  -361.8182
 470  -199.8684
 471  -273.8761
 472  -143.2539
 473  51.10647
 474  159.5512
 475  62.76733
 476  -193.9277
 477  428.9137
 478  242.0891
 479  178.1381
 480  119.1319
 481  -257.2888
 482  -86.34922
 483  -12.84687
 484  -124.9323
 485  -143.2313
 486  -444.2826
 487  -606.8707
 488  -338.6136
 489  36.09623
 490  282.6078
 491  115.8034
 492  187.9092
 493  219.317
 494  227.9441
 495  274.1052
 496  267.9707
 497  396.3834
 498  281.0027
 499  67.82294
 500  194.7002
 501  331.3138
 502  231.6839
 503  264.7142
 504  85.97461
 505  -26.81815
 506  75.42487
 507  39.07277
 508  68.15672
 509  390.9005
 510  338.9456
 511  52.28959
