# Input file       =  1207673922.110527_cleaned.dat
# Candidate        =  PSR_0332+5434
# Telescope        =  AR
# Epoch_topo       =  58221.707651742210
# Epoch_bary       =  N/A
# T_sample         =  0.002
# Data Folded      =  7340032
# Data Avg         =  0.0200718597739719
# Data StdDev      =  2.37224875250234 
# Profile Bins     =  512
# Profile Avg      =  287.692250417685 
# Profile StdDev   =  284.0365461781   
# Reduced chi-sqr  =  2.401
# Prob(Noise)      <  9.42e-61   (~16.4 sigma)
# P_topo (ms)      =  714.561675667993  +/- 0.000232
# P'_topo (s/s)    =  -0                +/- 1.22e-10
# P''_topo (s/s^2) =  0                 +/- 5.4e-14
# P_bary (ms)      =  N/A
# P'_bary (s/s)    =  N/A
# P''_bary (s/s^2) =  N/A
# P_orb (s)        =  N/A
# asin(i)/c (s)    =  N/A
# eccentricity     =  N/A
# w (rad)          =  N/A
# T_peri           =  N/A
######################################################
   0  140.1597
   1  465.0739
   2  81.74368
   3  93.08537
   4  151.4057
   5  -17.19533
   6  282.8491
   7  144.2191
   8  26.83648
   9  192.4776
  10  174.1202
  11  156.965
  12  168.8519
  13  386.6085
  14  250.4809
  15  28.39369
  16  -20.67385
  17  131.5695
  18  356.5327
  19  651.2939
  20  542.7505
  21  449.03
  22  376.8582
  23  -63.59475
  24  335.5508
  25  668.3513
  26  464.1081
  27  351.1923
  28  411.8151
  29  391.0118
  30  487.9741
  31  551.0787
  32  452.7969
  33  520.5207
  34  371.2392
  35  215.3827
  36  180.7408
  37  279.0414
  38  488.3523
  39  272.2046
  40  220.5073
  41  484.4814
  42  277.909
  43  235.7582
  44  192.5261
  45  119.2838
  46  135.1475
  47  73.18039
  48  -399.2938
  49  -394.5786
  50  10.7805
  51  234.385
  52  495.5915
  53  599.4081
  54  418.7443
  55  271.6677
  56  77.91185
  57  416.2864
  58  377.706
  59  -45.61188
  60  -127.9964
  61  219.6926
  62  140.4261
  63  83.16837
  64  116.6078
  65  43.55698
  66  291.0965
  67  433.026
  68  300.1576
  69  208.7229
  70  321.4003
  71  419.7942
  72  380.5302
  73  474.0804
  74  442.8303
  75  518.0458
  76  391.9128
  77  278.8279
  78  234.5597
  79  313.4352
  80  280.7386
  81  175.81
  82  554.2064
  83  504.0221
  84  149.8342
  85  257.5883
  86  406.494
  87  491.111
  88  97.97508
  89  25.20241
  90  186.9566
  91  322.0821
  92  488.182
  93  451.92
  94  309.7106
  95  182.4258
  96  240.7591
  97  62.98973
  98  85.42457
  99  407.3915
 100  200.4641
 101  232.4292
 102  278.4368
 103  207.3199
 104  -65.48849
 105  65.27044
 106  249.9123
 107  301.7888
 108  306.4471
 109  271.6402
 110  139.0318
 111  333.9657
 112  631.0579
 113  218.4191
 114  124.794
 115  387.9119
 116  246.4459
 117  -216.1262
 118  52.57133
 119  135.0116
 120  -19.8624
 121  -32.3596
 122  405.9369
 123  166.537
 124  213.9629
 125  223.0472
 126  84.46535
 127  2.102689
 128  -18.09231
 129  283.6632
 130  522.9398
 131  53.32237
 132  176.4154
 133  180.5403
 134  -9.755571
 135  233.8216
 136  347.5935
 137  285.4449
 138  333.2887
 139  304.9593
 140  283.8943
 141  15.07637
 142  419.3008
 143  287.0866
 144  56.94997
 145  419.3347
 146  700.2391
 147  493.7583
 148  697.0986
 149  421.5908
 150  406.9337
 151  216.218
 152  134.5313
 153  245.5376
 154  273.5752
 155  301.1969
 156  251.5146
 157  304.6493
 158  132.4842
 159  392.6106
 160  567.8849
 161  447.7826
 162  284.5272
 163  145.314
 164  264.8442
 165  584.6133
 166  523.9471
 167  504.0662
 168  329.133
 169  290.9441
 170  667.6151
 171  313.3361
 172  549.6168
 173  411.4595
 174  408.3712
 175  184.6059
 176  246.9258
 177  371.2406
 178  449.1857
 179  162.1572
 180  182.7883
 181  455.7909
 182  53.74261
 183  257.7936
 184  566.5668
 185  205.1581
 186  73.61849
 187  255.3532
 188  370.8096
 189  339.4601
 190  31.16263
 191  -271.3734
 192  -182.2778
 193  209.6465
 194  174.5605
 195  377.683
 196  404.2566
 197  -276.4723
 198  95.68912
 199  497.9477
 200  379.8556
 201  166.929
 202  272.08
 203  220.9611
 204  431.1634
 205  233.0008
 206  292.4105
 207  94.24195
 208  195.6702
 209  349.8476
 210  170.1619
 211  72.57033
 212  277.6042
 213  154.1739
 214  242.2806
 215  437.6631
 216  419.2327
 217  272.9319
 218  135.3793
 219  235.5635
 220  245.5803
 221  269.7321
 222  127.3453
 223  166.842
 224  274.1641
 225  304.6644
 226  121.2738
 227  241.5262
 228  311.0551
 229  214.8415
 230  396.3753
 231  712.0148
 232  491.0735
 233  400.5143
 234  216.6171
 235  -145.8856
 236  122.7161
 237  252.2516
 238  298.4901
 239  529.1537
 240  469.5651
 241  381.7532
 242  302.7442
 243  -57.08211
 244  13.2315
 245  197.8095
 246  212.4376
 247  296.2077
 248  166.5316
 249  224.3101
 250  245.1155
 251  275.0512
 252  141.4664
 253  28.04883
 254  84.08157
 255  333.0562
 256  377.2639
 257  24.46853
 258  338.6974
 259  343.056
 260  184.9754
 261  -21.63119
 262  80.82185
 263  156.8629
 264  129.1493
 265  376.9498
 266  421.6207
 267  211.6479
 268  13.20307
 269  94.70569
 270  6.661273
 271  -287.7186
 272  -387.401
 273  -370.992
 274  -109.9058
 275  74.2554
 276  137.0739
 277  79.60451
 278  94.39305
 279  -34.55157
 280  104.7734
 281  483.8732
 282  415.4062
 283  508.6247
 284  515.0176
 285  116.4776
 286  -41.32801
 287  134.7884
 288  295.1863
 289  390.4836
 290  216
 291  170.0094
 292  171.2444
 293  603.9857
 294  572.711
 295  770.2025
 296  537.4802
 297  974.7227
 298  1174.784
 299  1262.494
 300  2185.449
 301  2946.208
 302  3094.674
 303  2665.687
 304  2191.214
 305  1514.447
 306  781.9439
 307  366.1818
 308  188.3164
 309  245.4769
 310  -4.095194
 311  361.6254
 312  259.4713
 313  263.8958
 314  592.4222
 315  531.1741
 316  152.9343
 317  262.3221
 318  406.4718
 319  437.12
 320  423.908
 321  381.2746
 322  250.8144
 323  358.8822
 324  383.8562
 325  452.1891
 326  513.6207
 327  626.275
 328  312.5347
 329  520.722
 330  486.8625
 331  543.2407
 332  308.6932
 333  668.5839
 334  466.2885
 335  278.8251
 336  608.5092
 337  418.6318
 338  448.3641
 339  543.0689
 340  229.3548
 341  345.3526
 342  451.1161
 343  587.9048
 344  577.0012
 345  523.2451
 346  96.05296
 347  -241.5691
 348  31.6755
 349  212.5943
 350  276.9614
 351  447.8074
 352  393.652
 353  394.243
 354  389.0028
 355  413.9134
 356  158.7938
 357  282.8715
 358  289.9451
 359  319.5558
 360  157.0378
 361  180.6693
 362  103.982
 363  98.02422
 364  -109.3574
 365  324.4163
 366  408.1326
 367  216.9955
 368  -50.17786
 369  444.1146
 370  559.606
 371  148.0592
 372  243.6226
 373  168.8397
 374  482.218
 375  386.9178
 376  314.1421
 377  479.6041
 378  375.5647
 379  250.6736
 380  400.9698
 381  245.4027
 382  235.3107
 383  586.7887
 384  593.1791
 385  227.5703
 386  352.802
 387  150.4115
 388  332.6958
 389  248.9956
 390  541.6853
 391  476.8724
 392  527.5043
 393  79.3086
 394  -153.7486
 395  37.8979
 396  196.1942
 397  -129.0831
 398  214.7565
 399  156.8853
 400  404.107
 401  318.6752
 402  434.6943
 403  548.6136
 404  189.0621
 405  277.2747
 406  5.89678
 407  247.8609
 408  303.575
 409  275.4937
 410  -125.338
 411  -208.2215
 412  -60.58459
 413  123.5844
 414  104.4077
 415  181.5242
 416  360.6425
 417  223.0308
 418  -38.66843
 419  148.3493
 420  -3.994917
 421  38.53155
 422  80.51789
 423  33.73434
 424  110.9652
 425  291.638
 426  402.9979
 427  81.53051
 428  -70.96278
 429  277.4819
 430  243.9856
 431  230.3167
 432  140.7163
 433  206.9119
 434  298.6454
 435  55.8077
 436  -226.9078
 437  -145.1054
 438  326.5103
 439  436.7849
 440  112.3248
 441  -176.0404
 442  82.65076
 443  333.1517
 444  357.1774
 445  367.3677
 446  583.8185
 447  404.9801
 448  580.4565
 449  709.72
 450  486.7703
 451  165.7485
 452  32.81835
 453  570.2386
 454  673.2479
 455  637.9924
 456  380.4518
 457  270.7052
 458  189.7707
 459  91.44057
 460  118.2852
 461  375.8668
 462  146.4953
 463  49.12673
 464  295.0148
 465  392.4609
 466  490.7751
 467  228.0379
 468  190.226
 469  98.41632
 470  232.7109
 471  359.2481
 472  513.8823
 473  108.6623
 474  78.93983
 475  269.512
 476  134.8495
 477  253.6981
 478  484.4498
 479  696.1179
 480  321.3582
 481  363.6119
 482  550.6014
 483  617.2634
 484  288.9017
 485  229.7784
 486  66.88663
 487  220.94
 488  -157.6567
 489  230.2518
 490  207.8584
 491  221.0288
 492  334.9321
 493  403.7935
 494  278.5303
 495  273.6428
 496  97.04085
 497  317.1301
 498  357.5302
 499  114.2172
 500  180.0243
 501  -1.690132
 502  32.03167
 503  37.66776
 504  44.46506
 505  43.16924
 506  -22.27349
 507  292.6938
 508  -51.6202
 509  -44.19139
 510  69.08569
 511  -245.8308
