# Input file       =  1207995806.105682-PSRB0329-2ms-sampling-dd.dat
# Candidate        =  PSR_0332+5434
# Telescope        =  AR
# Epoch_topo       =  58225.433160945395
# Epoch_bary       =  N/A
# T_sample         =  0.002
# Data Folded      =  7340032
# Data Avg         =  -1.79675346355832e-09
# Data StdDev      =  8.69434963944326 
# Profile Bins     =  512
# Profile Avg      =  1.37809331203101 
# Profile StdDev   =  1041.00088165178 
# Reduced chi-sqr  =  0.625
# Prob(Noise)      <  1   (~0.0 sigma)
# P_topo (ms)      =  714.558272122949  +/- 0.000783
# P'_topo (s/s)    =  -0                +/- 4.13e-10
# P''_topo (s/s^2) =  0                 +/- 1.82e-13
# P_bary (ms)      =  N/A
# P'_bary (s/s)    =  N/A
# P''_bary (s/s^2) =  N/A
# P_orb (s)        =  N/A
# asin(i)/c (s)    =  N/A
# eccentricity     =  N/A
# w (rad)          =  N/A
# T_peri           =  N/A
######################################################
   0  354.5825
   1  167.3784
   2  45.06247
   3  720.6206
   4  1050.61
   5  733.1465
   6  -323.8741
   7  -573.5526
   8  -108.4735
   9  662.5553
  10  952.3898
  11  1171.824
  12  525.5755
  13  -4.422093
  14  -255.4899
  15  292.4094
  16  379.9934
  17  421.3208
  18  456.68
  19  548.3606
  20  653.7521
  21  350.7259
  22  553.0857
  23  1063.525
  24  1379.168
  25  902.4005
  26  720.1656
  27  861.1137
  28  873.0983
  29  1168.082
  30  1512.597
  31  1917.519
  32  1774.286
  33  1149.464
  34  767.918
  35  819.1785
  36  842.3289
  37  687.7017
  38  1101.585
  39  1025.24
  40  606.722
  41  62.28815
  42  93.0918
  43  768.3448
  44  1334.381
  45  977.2068
  46  1026.443
  47  773.837
  48  712.9449
  49  387.4552
  50  415.7441
  51  228.0835
  52  310.2743
  53  489.1655
  54  -191.9894
  55  -83.90934
  56  176.7917
  57  -80.4605
  58  -171.3101
  59  -312.6944
  60  -193.0955
  61  -378.6902
  62  -91.33759
  63  189.5742
  64  284.2862
  65  554.9372
  66  589.6064
  67  598.1974
  68  622.0635
  69  725.8974
  70  574.4578
  71  491.776
  72  488.09
  73  411.998
  74  287.5074
  75  361.2155
  76  166.5198
  77  356.2692
  78  714.1013
  79  175.8663
  80  -56.5905
  81  -519.4495
  82  -43.78619
  83  276.1821
  84  339.863
  85  -0.4880113
  86  -40.29866
  87  85.71936
  88  277.4362
  89  163.2302
  90  -81.39767
  91  239.3965
  92  739.3533
  93  1104.879
  94  1881.913
  95  2178.358
  96  2066.853
  97  1976.28
  98  1351.483
  99  1012.119
 100  493.2175
 101  513.6246
 102  662.2955
 103  645.6159
 104  444.3026
 105  476.9714
 106  106.021
 107  -197.3138
 108  21.39977
 109  218.153
 110  79.79477
 111  37.25162
 112  183.5391
 113  92.15009
 114  96.99525
 115  -7.8875
 116  -399.6258
 117  -230.6096
 118  -85.5493
 119  69.36638
 120  -136.8891
 121  -156.8222
 122  -269.8399
 123  -316.3157
 124  -445.1697
 125  -550.1505
 126  17.54106
 127  319.2325
 128  426.6844
 129  115.2547
 130  98.64382
 131  298.5415
 132  32.64459
 133  579.3129
 134  1112.874
 135  1396.614
 136  1358.388
 137  1163.745
 138  1231.772
 139  1366.349
 140  1503.343
 141  1378.238
 142  1969.74
 143  1042.099
 144  821.0191
 145  836.5101
 146  896.1227
 147  910.8843
 148  849.741
 149  671.9683
 150  38.28889
 151  -136.9619
 152  -249.9173
 153  -226.3999
 154  -27.80012
 155  186.594
 156  37.02488
 157  -174.2385
 158  19.6964
 159  296.9016
 160  -95.18579
 161  350.2125
 162  226.1465
 163  185.8167
 164  263.5302
 165  161.0772
 166  497.4113
 167  355.794
 168  221.5859
 169  6.520974
 170  127.1202
 171  265.8445
 172  -20.44283
 173  158.9015
 174  132.4242
 175  243.1743
 176  -10.74036
 177  200.4631
 178  130.3222
 179  130.2037
 180  48.96793
 181  -203.8624
 182  -614.9675
 183  -154.4994
 184  -26.74684
 185  -164.0281
 186  -356.3629
 187  -433.7769
 188  -755.7256
 189  -774.1108
 190  -524.2786
 191  -518.0762
 192  -510.1779
 193  -688.241
 194  -457.2628
 195  -108.7259
 196  -102.8616
 197  -160.2262
 198  -377.5237
 199  -544.5486
 200  -546.7652
 201  -475.5112
 202  -395.2852
 203  -144.1007
 204  -10.26986
 205  -97.3085
 206  -423.1488
 207  -336.7621
 208  -245.7374
 209  34.9247
 210  -291.5297
 211  -645.9728
 212  -380.7012
 213  -504.9385
 214  -458.7185
 215  -226.7762
 216  -473.8596
 217  -398.2333
 218  -749.238
 219  -684.7247
 220  -829.8499
 221  -854.5825
 222  -760.1445
 223  -824.3362
 224  -486.6297
 225  -581.1479
 226  -484.4863
 227  -159.2813
 228  92.60884
 229  103.4927
 230  -210.3659
 231  -134.6455
 232  -631.5952
 233  -702.0358
 234  -222.5596
 235  140.2773
 236  -268.006
 237  -122.1592
 238  -164.8814
 239  -266.8163
 240  -486.8313
 241  -548.0051
 242  -240.1334
 243  -151.7698
 244  129.1507
 245  159.4964
 246  80.51254
 247  0.02402616
 248  77.68987
 249  121.9967
 250  13.95783
 251  109.7573
 252  -123.6838
 253  446.3716
 254  718.8517
 255  760.5309
 256  680.4977
 257  743.6166
 258  404.3185
 259  429.2026
 260  95.84917
 261  55.54683
 262  -4.96155
 263  131.4597
 264  214.6742
 265  122.7423
 266  -47.56318
 267  -32.98058
 268  29.1741
 269  130.0083
 270  343.822
 271  163.2949
 272  -118.6962
 273  -229.164
 274  -25.99777
 275  -151.236
 276  -202.2899
 277  -79.77528
 278  307.8297
 279  547.3657
 280  290.1724
 281  -30.76702
 282  -385.3018
 283  -122.4374
 284  -30.28299
 285  345.7219
 286  64.7717
 287  -195.2149
 288  71.27142
 289  323.0171
 290  441.6757
 291  320.9069
 292  70.76451
 293  16.42934
 294  67.25795
 295  115.7075
 296  344.7816
 297  634.2034
 298  782.7935
 299  153.3833
 300  194.9758
 301  198.0508
 302  -360.3317
 303  -425.3693
 304  -306.6418
 305  -36.61728
 306  -67.48699
 307  -204.2432
 308  -107.4519
 309  -130.5224
 310  -445.6365
 311  -0.9405617
 312  -352.1175
 313  -444.6138
 314  -503.7437
 315  -371.4476
 316  -401.5851
 317  -481.1813
 318  -24.80382
 319  96.48663
 320  -309.3183
 321  -71.26887
 322  -228.5018
 323  -6.941084
 324  -242.45
 325  -434.3089
 326  -349.8509
 327  -207.2169
 328  -535.4879
 329  -48.33873
 330  -18.93842
 331  -243.205
 332  -131.8637
 333  -296.3302
 334  -418.8294
 335  -124.9393
 336  -106.3506
 337  -465.2775
 338  -302.7635
 339  -379.4266
 340  -493.4243
 341  -414.4736
 342  -552.2819
 343  -363.3668
 344  -402.985
 345  -32.89875
 346  -128.9647
 347  -325.2055
 348  103.6654
 349  -181.7048
 350  -150.9785
 351  37.84391
 352  176.4897
 353  443.2306
 354  570.9628
 355  120.2734
 356  93.25017
 357  -74.89851
 358  1.424643
 359  293.2735
 360  292.6002
 361  -133.9165
 362  -481.9141
 363  -304.6691
 364  7.17429
 365  -134.7786
 366  -113.0712
 367  -219.4991
 368  -125.8672
 369  -579.0475
 370  -662.2089
 371  -525.288
 372  -413.0324
 373  -295.4919
 374  -614.4725
 375  -525.4395
 376  -684.7338
 377  -545.1829
 378  -380.471
 379  -448.8017
 380  -675.5509
 381  -865.6464
 382  -1069.655
 383  -895.4645
 384  -635.6653
 385  -771.2978
 386  -851.9105
 387  -812.0818
 388  -976.7756
 389  -1160.253
 390  -885.5435
 391  -950.0258
 392  -928.8479
 393  -823.7012
 394  -1158.357
 395  -1108.946
 396  -881.6437
 397  -819.6922
 398  -828.0287
 399  -1036.582
 400  -567.6371
 401  -1218.159
 402  -1435.929
 403  -1008.373
 404  -902.6767
 405  -765.3071
 406  -243.8074
 407  -150.0762
 408  -408.1773
 409  -502.495
 410  -115.2774
 411  -266.6602
 412  -407.7172
 413  -625.3837
 414  -767.7404
 415  -693.4301
 416  -628.6234
 417  -228.4633
 418  -113.7788
 419  12.44743
 420  -57.41832
 421  -96.51154
 422  595.978
 423  85.19339
 424  -441.3209
 425  249.7609
 426  121.1935
 427  202.1493
 428  282.6208
 429  74.41264
 430  -175.4693
 431  -354.7566
 432  -271.8766
 433  -388.3268
 434  -623.321
 435  -575.9214
 436  -304.8195
 437  -448.0463
 438  -750.9995
 439  -353.5822
 440  216.3049
 441  397.149
 442  538.0366
 443  28.35479
 444  16.43107
 445  357.5808
 446  348.5385
 447  436.8049
 448  249.0059
 449  -370.7657
 450  -503.8447
 451  -529.239
 452  -72.81588
 453  113.8488
 454  -188.6838
 455  -422.9557
 456  -410.4885
 457  -851.7642
 458  -828.9502
 459  -231.37
 460  -260.6242
 461  89.75305
 462  -22.48553
 463  -298.4585
 464  -108.0409
 465  -68.42963
 466  -53.45023
 467  -502.0927
 468  -33.00154
 469  586.5063
 470  308.6431
 471  403.37
 472  307.358
 473  -422.9133
 474  -704.4559
 475  -951.9808
 476  -948.2611
 477  -1257.85
 478  -1260.896
 479  -1112.627
 480  -1247.244
 481  -1170.753
 482  -1288.756
 483  -1375.597
 484  -1375.566
 485  -1630.398
 486  -1471.995
 487  -1362.431
 488  -1080.716
 489  -744.2549
 490  -658.556
 491  -316.3014
 492  -701.12
 493  -695.1756
 494  -402.1893
 495  288.0923
 496  261.0509
 497  207.168
 498  345.9313
 499  322.0876
 500  279.4329
 501  56.38759
 502  374.403
 503  310.9614
 504  440.198
 505  769.1456
 506  531.8504
 507  19.35107
 508  476.8304
 509  1348.491
 510  1347.672
 511  1153.881
