# Input file       =  1207894977.102396_cleaned.dat
# Candidate        =  PSR_0332+5434
# Telescope        =  AR
# Epoch_topo       =  58224.266158592545
# Epoch_bary       =  N/A
# T_sample         =  0.002
# Data Folded      =  7208960
# Data Avg         =  0.237816566296598
# Data StdDev      =  5.67575929581912 
# Profile Bins     =  512
# Profile Avg      =  3348.72362732586 
# Profile StdDev   =  673.480920044366 
# Reduced chi-sqr  =  1.945
# Prob(Noise)      <  2.5e-33   (~12.0 sigma)
# P_topo (ms)      =  714.5591720324    +/- 2.02e-05
# P'_topo (s/s)    =  -0                +/- 1.08e-11
# P''_topo (s/s^2) =  0                 +/- 4.87e-15
# P_bary (ms)      =  N/A
# P'_bary (s/s)    =  N/A
# P''_bary (s/s^2) =  N/A
# P_orb (s)        =  N/A
# asin(i)/c (s)    =  N/A
# eccentricity     =  N/A
# w (rad)          =  N/A
# T_peri           =  N/A
######################################################
   0  3271.346
   1  3785.971
   2  3369.355
   3  3943.551
   4  3598.306
   5  3072.719
   6  2629.348
   7  2639.125
   8  3239.017
   9  3551.373
  10  3321.992
  11  3419.003
  12  3225.427
  13  2520.893
  14  2214.304
  15  1883.054
  16  2577.417
  17  3024.498
  18  3444.207
  19  3901.296
  20  3845.444
  21  3641.239
  22  2918.904
  23  2092.995
  24  2845.387
  25  3262.769
  26  3497.521
  27  3472.331
  28  3256.594
  29  3036.141
  30  2657.5
  31  1833.839
  32  2410.14
  33  3486.414
  34  3633.362
  35  3499.709
  36  3683.357
  37  3861.893
  38  3613.212
  39  2672.329
  40  3375.282
  41  3552.752
  42  3543.66
  43  3420.672
  44  3430.355
  45  3230.905
  46  2804.652
  47  2478.298
  48  2710.63
  49  3528.257
  50  4197.25
  51  4294.002
  52  3599.042
  53  3915.451
  54  3128.271
  55  2539.381
  56  2963.494
  57  3546.258
  58  3900.834
  59  4031.791
  60  3876.341
  61  3343.23
  62  2849.015
  63  1956.923
  64  1829.328
  65  2280.96
  66  3597.929
  67  4073.381
  68  3731.368
  69  3763.001
  70  3791.627
  71  3329.784
  72  2656.927
  73  2287.269
  74  3145.256
  75  3760.629
  76  3558.541
  77  3706.495
  78  3627.562
  79  3312.834
  80  2010.862
  81  1476.489
  82  2411.187
  83  3241.532
  84  4031.774
  85  4275.485
  86  4592.137
  87  3503.045
  88  2969.048
  89  2562.58
  90  2845.377
  91  3304.862
  92  3405.665
  93  3510.31
  94  3331.088
  95  3320.975
  96  2342.551
  97  2240.44
  98  1976.094
  99  2800.692
 100  3095.048
 101  3143.737
 102  3749.998
 103  3862.282
 104  3664.658
 105  2986.976
 106  2784.17
 107  3378.39
 108  3903.588
 109  3683.483
 110  3368.306
 111  3052.998
 112  2993.772
 113  2441.675
 114  2294.963
 115  3266.911
 116  3926.699
 117  3849.697
 118  3673.599
 119  3935.769
 120  3585.104
 121  2698.349
 122  2584.972
 123  3417.514
 124  3924.247
 125  3835.8
 126  2948.017
 127  2905.999
 128  2922.041
 129  2499.989
 130  2450.646
 131  2503.333
 132  3619.775
 133  4026.134
 134  3660.063
 135  3563.07
 136  3913.281
 137  3567.655
 138  2832.468
 139  3112.224
 140  3954.315
 141  4662.656
 142  3633.094
 143  3240.548
 144  2980.515
 145  2882.535
 146  2177.555
 147  1989.292
 148  3205.945
 149  3750.802
 150  4059.643
 151  3990.922
 152  4066.332
 153  3961.396
 154  3133.936
 155  2816.158
 156  3060.893
 157  3714.826
 158  3852.374
 159  3670.167
 160  4130.295
 161  3426.472
 162  2574.633
 163  1811.47
 164  2336.748
 165  3109.905
 166  3563.873
 167  4122.647
 168  4468.173
 169  4413.843
 170  3824.781
 171  2937.208
 172  2651.618
 173  3072.365
 174  4242.628
 175  4100.968
 176  3878.178
 177  3742.219
 178  3383.171
 179  2083.253
 180  2267.431
 181  2928.121
 182  3675.167
 183  4216.892
 184  4234.939
 185  4673.887
 186  4163.892
 187  3536.947
 188  3037.836
 189  3511.607
 190  3746.718
 191  3973.827
 192  3783.896
 193  3195.776
 194  3661.777
 195  2772.658
 196  2194.161
 197  2180.326
 198  2829.825
 199  3440.318
 200  3416.404
 201  4023.386
 202  3971.66
 203  3138.756
 204  2705.593
 205  2823.943
 206  3224.956
 207  3907.421
 208  3651.661
 209  3456.589
 210  2991.111
 211  2626.857
 212  2247.834
 213  2357.476
 214  2690.997
 215  3722.348
 216  3861.159
 217  3825.022
 218  3629.86
 219  3870.781
 220  3238.139
 221  2420.975
 222  3212.333
 223  3744.176
 224  4031.446
 225  3457.693
 226  3631.417
 227  3669.942
 228  2985.005
 229  2556.418
 230  2464.222
 231  3271.518
 232  3877.735
 233  3933.912
 234  4049.096
 235  4083.917
 236  3138.249
 237  2459.695
 238  2629.325
 239  3443.09
 240  4006.336
 241  4110.03
 242  3744.424
 243  3749.029
 244  2712.843
 245  1976.786
 246  1450.475
 247  2396.601
 248  3717.414
 249  3630.429
 250  4108.131
 251  4252.651
 252  4453.9
 253  3457.4
 254  2657.818
 255  2679.642
 256  3634.817
 257  4023.775
 258  3838.509
 259  3749.089
 260  3740.277
 261  3541.491
 262  2316.867
 263  2325.403
 264  3215.519
 265  3811.43
 266  4095.01
 267  4234.511
 268  4527.964
 269  3746.528
 270  3501.802
 271  2720.083
 272  2868.406
 273  3556.381
 274  3632.783
 275  3741.765
 276  3676.728
 277  3721.641
 278  2667.807
 279  2076.275
 280  2644.214
 281  3506.96
 282  3799.322
 283  3725.015
 284  4111.874
 285  3851.764
 286  3420.407
 287  2762.225
 288  3281.906
 289  4105.34
 290  4120.66
 291  3776.635
 292  3355.599
 293  3380.599
 294  2867.022
 295  2057.507
 296  2530.35
 297  3138.216
 298  3881.092
 299  3879.111
 300  4050.389
 301  3809.994
 302  3881.271
 303  3273.791
 304  3251.378
 305  4234.65
 306  4335.305
 307  4045.689
 308  3749.613
 309  3104.642
 310  3084.989
 311  2789.199
 312  2584.814
 313  2671.179
 314  3596.278
 315  3945.327
 316  4504.292
 317  4331.491
 318  4329.42
 319  3117.409
 320  2406.787
 321  2953.358
 322  3638.902
 323  4367.501
 324  4411.519
 325  3984.683
 326  3482.426
 327  2709.404
 328  2073.269
 329  2298.931
 330  3372.373
 331  3807.445
 332  3823.376
 333  4211.759
 334  4346.86
 335  3728.055
 336  2473.03
 337  2540.918
 338  2765.602
 339  3323.728
 340  3846.047
 341  3474.319
 342  3486.339
 343  2824.694
 344  2244.925
 345  1825.277
 346  2237.905
 347  3309.173
 348  3857.703
 349  4005.666
 350  3703.938
 351  4052.595
 352  3247.634
 353  3129.717
 354  3064.362
 355  3694.498
 356  4049.936
 357  3667.545
 358  3677.544
 359  3223.917
 360  2687.362
 361  2091.885
 362  2159.005
 363  3028.941
 364  3832.672
 365  3566.605
 366  3454.288
 367  3507.989
 368  3434.637
 369  3254.911
 370  3348.886
 371  3500.973
 372  3609.401
 373  3565.359
 374  3465.123
 375  3629.092
 376  3369.057
 377  2992.934
 378  2221.118
 379  2624.957
 380  3255.396
 381  3854.18
 382  3635.35
 383  3895.508
 384  3675.897
 385  3270.704
 386  2989.208
 387  3028.477
 388  3775.923
 389  3981.069
 390  3981.885
 391  3939.276
 392  3466.602
 393  2823.044
 394  2259.015
 395  2471.452
 396  3131.715
 397  4137.427
 398  4302.992
 399  4342.109
 400  3958.875
 401  3606.467
 402  2818.924
 403  2610.33
 404  3432.034
 405  4274.806
 406  4130.354
 407  4198.208
 408  4026.15
 409  3800.469
 410  2714.965
 411  2468.331
 412  4343.628
 413  6095.515
 414  6213.533
 415  5729.498
 416  5527.244
 417  4482.636
 418  3670.795
 419  2409.26
 420  2483.042
 421  3614.198
 422  3995.245
 423  4137.418
 424  3534.306
 425  3565.197
 426  2695.524
 427  2259.175
 428  2251.103
 429  2766.088
 430  3450.048
 431  3693.359
 432  4213.606
 433  4159.026
 434  3724.813
 435  3094.516
 436  2612.66
 437  3115.69
 438  4012.502
 439  3968.437
 440  3641.007
 441  3458.832
 442  3129.336
 443  2993.563
 444  2193.931
 445  2418.905
 446  3393.71
 447  4261.092
 448  4055.496
 449  3864.974
 450  3823.932
 451  3327.414
 452  2614.024
 453  2840.009
 454  3775.132
 455  3653.616
 456  3564.092
 457  3283.31
 458  3147.606
 459  3076.739
 460  2334.657
 461  2236.91
 462  3250.484
 463  3320.472
 464  3498.593
 465  3725.979
 466  4001.62
 467  3574.914
 468  3213.913
 469  3005.24
 470  3032.084
 471  3804.142
 472  4066.285
 473  3960.31
 474  3797.86
 475  3002.9
 476  2541.28
 477  2381.366
 478  3318.002
 479  3634.85
 480  4148.678
 481  4057.655
 482  3698.246
 483  3623.69
 484  3026.153
 485  2847.101
 486  2925.428
 487  3785.708
 488  4113.234
 489  3828.294
 490  3423.192
 491  2705.277
 492  2729.962
 493  1976.792
 494  1659.806
 495  3080.846
 496  3670.337
 497  3645.08
 498  4053.633
 499  4003.229
 500  3355.697
 501  2830.16
 502  2632.631
 503  2976.933
 504  4097.249
 505  4108.265
 506  4001.862
 507  3650.695
 508  3083.103
 509  2129.848
 510  1449.616
 511  1840.766
