# Input file       =  1207722527.104559-PSRB0329-2ms-sampling-dd.dat
# Candidate        =  PSR_0332+5434
# Telescope        =  AR
# Epoch_topo       =  58222.270209543509
# Epoch_bary       =  N/A
# T_sample         =  0.002
# Data Folded      =  7274496
# Data Avg         =  -8.61970506944641e-10
# Data StdDev      =  6.54027142777168 
# Profile Bins     =  512
# Profile Avg      =  0.1658458561992  
# Profile StdDev   =  779.582796217021 
# Reduced chi-sqr  =  0.709
# Prob(Noise)      <  1   (~0.0 sigma)
# P_topo (ms)      =  714.560708560175  +/- 5.37e-05
# P'_topo (s/s)    =  -0                +/- 2.86e-11
# P''_topo (s/s^2) =  0                 +/- 1.27e-14
# P_bary (ms)      =  N/A
# P'_bary (s/s)    =  N/A
# P''_bary (s/s^2) =  N/A
# P_orb (s)        =  N/A
# asin(i)/c (s)    =  N/A
# eccentricity     =  N/A
# w (rad)          =  N/A
# T_peri           =  N/A
######################################################
   0  578.2502
   1  392.5201
   2  397.948
   3  212.9565
   4  205.904
   5  -82.64176
   6  -1036.597
   7  -704.899
   8  -297.4655
   9  -160.6826
  10  -174.123
  11  178.4978
  12  460.1513
  13  -355.634
  14  -432.6159
  15  -147.1387
  16  233.7167
  17  280.7798
  18  876.808
  19  1200.472
  20  1184.256
  21  1514.793
  22  1748.31
  23  1517.766
  24  1356.993
  25  1177.934
  26  490.3652
  27  292.1501
  28  382.7613
  29  26.72047
  30  -308.4958
  31  -216.0025
  32  507.0313
  33  448.0843
  34  545.7906
  35  467.0628
  36  557.6436
  37  601.3192
  38  -429.8194
  39  -532.8146
  40  31.53284
  41  541.4249
  42  168.8136
  43  30.80008
  44  442.327
  45  241.0389
  46  -251.379
  47  -98.59275
  48  260.1957
  49  596.0605
  50  1057.09
  51  750.3599
  52  288.7989
  53  283.4363
  54  -72.10623
  55  -6.850264
  56  286.235
  57  341.0617
  58  -116.6933
  59  -300.9809
  60  -229.1125
  61  10.44385
  62  151.8394
  63  -48.07072
  64  387.8705
  65  602.1388
  66  1011.716
  67  757.0013
  68  305.0104
  69  441.4864
  70  157.9654
  71  -154.845
  72  16.23495
  73  178.2996
  74  384.8422
  75  23.3776
  76  -355.5679
  77  -341.7347
  78  -782.14
  79  -453.3916
  80  -223.4571
  81  525.4213
  82  1059.585
  83  817.9627
  84  245.2739
  85  12.04249
  86  276.5804
  87  136.3227
  88  -725.0392
  89  -815.2127
  90  -264.1035
  91  -345.476
  92  -205.0631
  93  -17.13059
  94  338.1251
  95  -69.48842
  96  -433.4815
  97  -73.31567
  98  171.3681
  99  631.0954
 100  892.0548
 101  566.9474
 102  358.6092
 103  -15.60594
 104  -532.9441
 105  -796.8462
 106  -464.9136
 107  84.08772
 108  83.58495
 109  230.1898
 110  12.30361
 111  51.47761
 112  -306.8579
 113  -584.7608
 114  -467.5032
 115  56.86252
 116  427.0437
 117  281.5675
 118  -69.64973
 119  224.9646
 120  88.75011
 121  -312.33
 122  -513.185
 123  -64.43412
 124  259.312
 125  -0.5
 126  -451.8653
 127  387.9458
 128  39.41438
 129  -259.0312
 130  -78.7135
 131  861.9221
 132  871.7098
 133  479.7717
 134  50.24232
 135  -192.4003
 136  -17.06548
 137  -446.6243
 138  -380.187
 139  16.91159
 140  106.6784
 141  -44.70523
 142  -234.5588
 143  -598.5408
 144  -324.2839
 145  -308.4308
 146  -163.7505
 147  96.98998
 148  482.7356
 149  573.6936
 150  178.8719
 151  34.42594
 152  230.7944
 153  -148.584
 154  -458.1537
 155  -431.4054
 156  432.7562
 157  14.87223
 158  -469.0176
 159  -251.637
 160  -558.4398
 161  -338.4462
 162  -349.0732
 163  58.41212
 164  624.777
 165  1002.093
 166  766.8799
 167  325.8693
 168  673.635
 169  689.0178
 170  41.43
 171  -395.7455
 172  49.29964
 173  325.0047
 174  266.3947
 175  165.3566
 176  385.6173
 177  94.81186
 178  -346.2378
 179  -210.5096
 180  337.8617
 181  1159.954
 182  896.044
 183  900.7853
 184  801.14
 185  238.449
 186  272.0154
 187  -443.643
 188  -529.6359
 189  -18.21939
 190  321.4822
 191  562.1878
 192  131.8379
 193  438.9634
 194  287.2986
 195  -126.9193
 196  -147.4959
 197  -51.55856
 198  510.2525
 199  656.6794
 200  395.617
 201  421.8954
 202  399.98
 203  -179.9774
 204  -498.2589
 205  -458.6254
 206  168.2624
 207  237.719
 208  116.694
 209  -354.3461
 210  -150.6079
 211  -90.60732
 212  -155.5683
 213  136.3928
 214  641.6685
 215  645.2602
 216  284.6088
 217  484.4061
 218  598.9092
 219  85.6434
 220  -417.4424
 221  -271.2643
 222  41.8726
 223  -331.2209
 224  -293.525
 225  -346.2951
 226  -6.0308
 227  -29.96416
 228  -218.2687
 229  -280.8718
 230  100.1947
 231  551.433
 232  441.174
 233  170.7263
 234  136.4775
 235  480.6536
 236  65.57572
 237  21.13126
 238  -7.174587
 239  443.1053
 240  86.27998
 241  -687.5974
 242  -869.0526
 243  -337.9117
 244  163.7968
 245  98.56535
 246  393.373
 247  785.0647
 248  627.3932
 249  588.3163
 250  237.8817
 251  82.35458
 252  150.5214
 253  -539.5001
 254  -987.0801
 255  -324.066
 256  696.8511
 257  425.1923
 258  -73.99184
 259  -85.99669
 260  -390.7726
 261  -668.847
 262  -549.8857
 263  126.606
 264  653.7792
 265  661.1693
 266  150.7105
 267  -79.98291
 268  -87.13683
 269  -425.4568
 270  -660.1799
 271  -739.5486
 272  -528.1964
 273  -217.6201
 274  -72.3491
 275  158.4426
 276  391.5326
 277  328.2856
 278  -335.7234
 279  349.1722
 280  1013.91
 281  916.528
 282  762.374
 283  272.1379
 284  122.0623
 285  -379.1779
 286  -714.3934
 287  -370.7899
 288  11.71947
 289  204.8209
 290  -363.1107
 291  -296.3945
 292  -483.6106
 293  -532.6915
 294  -238.2952
 295  -257.2156
 296  321.566
 297  116.546
 298  404.4842
 299  -46.65547
 300  231.2995
 301  398.0052
 302  -487.5769
 303  -933.2187
 304  -361.0016
 305  -21.31481
 306  -347.5784
 307  74.85722
 308  -142.9452
 309  273.857
 310  -114.4875
 311  -432.7971
 312  -361.7146
 313  168.3162
 314  98.87572
 315  8.846321
 316  207.0124
 317  180.228
 318  279.0753
 319  -131.8475
 320  -327.7332
 321  319.8832
 322  -254.7255
 323  -498.2588
 324  -250.1986
 325  -220.9474
 326  -614.6198
 327  -521.9395
 328  -290.6857
 329  -202.6674
 330  228.9417
 331  -35.49292
 332  -127.7894
 333  -106.2639
 334  -321.5335
 335  -874.1945
 336  -1271.907
 337  -734.0389
 338  -312.9416
 339  315.1024
 340  190.7863
 341  -457.6466
 342  -335.803
 343  -805.7446
 344  -862.7748
 345  -395.7489
 346  240.3342
 347  582.6573
 348  77.88647
 349  783.9277
 350  742.3169
 351  -389.642
 352  -1007.93
 353  -958.9141
 354  -575.5704
 355  -538.0515
 356  -558.6229
 357  -281.399
 358  -60.9992
 359  -108.6738
 360  -499.2872
 361  -839.6956
 362  -90.05159
 363  347.5836
 364  212.1335
 365  -43.40292
 366  -69.51661
 367  72.5135
 368  -610.3812
 369  -756.8337
 370  -558.1144
 371  -476.0326
 372  8.384963
 373  -317.5728
 374  -209.2185
 375  -273.4157
 376  -280.8442
 377  -632.0269
 378  -90.65651
 379  721.6089
 380  552.4341
 381  477.0887
 382  243.9209
 383  247.2763
 384  212.7241
 385  -215.7295
 386  -772.2765
 387  -342.1507
 388  -604.557
 389  -757.5287
 390  -306.9756
 391  -57.22498
 392  214.8611
 393  -240.0945
 394  69.11111
 395  328.2414
 396  470.9531
 397  508.5642
 398  152.6352
 399  207.7808
 400  -281.8037
 401  -374.1005
 402  -665.1575
 403  -439.7274
 404  316.8485
 405  27.57169
 406  -34.84194
 407  -279.1365
 408  -462.1332
 409  -545.8561
 410  -696.6397
 411  -452.4754
 412  228.9394
 413  497.0981
 414  600.4211
 415  418.5442
 416  211.8277
 417  -446.2247
 418  -1057.747
 419  -989.6343
 420  -165.3663
 421  -42.3516
 422  8.383894
 423  -102.7802
 424  -47.51671
 425  -55.04225
 426  -830.2495
 427  -986.9794
 428  -65.76347
 429  353.5052
 430  447.6788
 431  435.6201
 432  207.218
 433  -44.17518
 434  -791.5242
 435  -1373.844
 436  -775.7288
 437  -203.2735
 438  -176.4785
 439  -316.0923
 440  -415.0448
 441  -390.5584
 442  -459.8636
 443  -673.4053
 444  -774.7734
 445  142.2479
 446  293.1158
 447  207.209
 448  576.5594
 449  611.3914
 450  442.7238
 451  -399.7478
 452  -756.4578
 453  -527.7614
 454  -83.43754
 455  -95.34578
 456  -449.0851
 457  -34.68538
 458  92.24055
 459  -630.7984
 460  -424.8961
 461  314.8091
 462  364.0481
 463  434.4954
 464  508.2913
 465  482.0701
 466  366.4398
 467  -196.9545
 468  -508.3319
 469  -577.968
 470  1.94843
 471  -127.9655
 472  -394.2215
 473  -318.4182
 474  -344.7736
 475  -99.37405
 476  -311.0324
 477  140.9779
 478  864.3564
 479  1009.34
 480  620.8499
 481  69.68439
 482  747.9414
 483  353.9453
 484  15.45062
 485  -302.1012
 486  -74.61222
 487  399.8895
 488  20.79668
 489  -377.4993
 490  -481.2807
 491  -565.9359
 492  -954.5553
 493  -710.1603
 494  210.0244
 495  955.2112
 496  388.7791
 497  -152.67
 498  -103.8647
 499  -78.40849
 500  -454.5212
 501  -833.7635
 502  -514.4277
 503  26.1334
 504  507.9499
 505  -20.03746
 506  -708.0081
 507  -881.5018
 508  -604.0706
 509  -596.9648
 510  -237.9375
 511  713.5138
