# Input file       =  1207673922.110527_cleaned.dat
# Candidate        =  PSR_0332+5434
# Telescope        =  AR
# Epoch_topo       =  58221.707651742210
# Epoch_bary       =  N/A
# T_sample         =  0.002
# Data Folded      =  7340032
# Data Avg         =  0.0200718597739719
# Data StdDev      =  2.37224875250234 
# Profile Bins     =  256
# Profile Avg      =  575.38450083537  
# Profile StdDev   =  401.688335814681 
# Reduced chi-sqr  =  2.992
# Prob(Noise)      <  4.3e-52   (~15.1 sigma)
# P_topo (ms)      =  714.561675667993  +/- 0.000243
# P'_topo (s/s)    =  -0                +/- 1.28e-10
# P''_topo (s/s^2) =  0                 +/- 5.67e-14
# P_bary (ms)      =  N/A
# P'_bary (s/s)    =  N/A
# P''_bary (s/s^2) =  N/A
# P_orb (s)        =  N/A
# asin(i)/c (s)    =  N/A
# eccentricity     =  N/A
# w (rad)          =  N/A
# T_peri           =  N/A
######################################################
   0  605.2336
   1  174.829
   2  134.2103
   3  427.0682
   4  219.3141
   5  331.0851
   6  555.4604
   7  278.8746
   8  110.8956
   9  1007.827
  10  991.7805
  11  313.2634
  12  1003.902
  13  815.3004
  14  802.8268
  15  1039.053
  16  973.3176
  17  586.6219
  18  459.7822
  19  760.5568
  20  704.9887
  21  513.6672
  22  311.8098
  23  208.3279
  24  -793.8724
  25  245.1655
  26  1095
  27  690.412
  28  494.1982
  29  332.0941
  30  91.69618
  31  223.5944
  32  160.1648
  33  724.1226
  34  508.8805
  35  741.1945
  36  854.6107
  37  960.8761
  38  670.7407
  39  547.9949
  40  456.5486
  41  1058.228
  42  407.4225
  43  897.605
  44  123.1775
  45  509.0387
  46  940.102
  47  492.1364
  48  303.7488
  49  492.8161
  50  432.8933
  51  485.7567
  52  -0.2180489
  53  551.7011
  54  578.0873
  55  472.9975
  56  849.4769
  57  512.7059
  58  30.31969
  59  187.5829
  60  -52.22199
  61  572.4739
  62  437.0101
  63  86.56804
  64  265.5709
  65  576.2622
  66  356.9557
  67  224.0661
  68  633.0384
  69  638.248
  70  298.9706
  71  706.3875
  72  476.2846
  73  1193.997
  74  1118.689
  75  623.1517
  76  380.0689
  77  574.7721
  78  556.1639
  79  525.0948
  80  1015.668
  81  429.8412
  82  849.4575
  83  1028.013
  84  620.0771
  85  980.9512
  86  961.0763
  87  592.977
  88  618.1664
  89  611.3428
  90  638.5792
  91  311.5363
  92  771.7249
  93  328.9717
  94  710.2697
  95  -240.2107
  96  27.36864
  97  552.2435
  98  127.7842
  99  593.6368
 100  546.7846
 101  493.0411
 102  664.1642
 103  386.6524
 104  545.5179
 105  242.7322
 106  431.7781
 107  679.9437
 108  692.1647
 109  370.9428
 110  515.3124
 111  294.1873
 112  578.8286
 113  362.8001
 114  525.8966
 115  1108.39
 116  891.5878
 117  70.73151
 118  374.9676
 119  827.6439
 120  851.3182
 121  245.6621
 122  211.041
 123  508.6453
 124  390.8417
 125  520.1667
 126  169.5152
 127  417.1377
 128  401.7325
 129  681.7535
 130  163.3443
 131  237.6847
 132  506.0991
 133  633.2686
 134  107.9088
 135  -281.0573
 136  -758.393
 137  -35.65038
 138  216.6784
 139  59.84148
 140  588.6466
 141  924.0308
 142  631.4952
 143  93.46043
 144  685.6699
 145  386.0094
 146  775.23
 147  1342.913
 148  1512.203
 149  2437.279
 150  5131.656
 151  5760.361
 152  3705.661
 153  1148.126
 154  433.7932
 155  357.5302
 156  523.3671
 157  1123.596
 158  415.2564
 159  843.5917
 160  805.1826
 161  609.6966
 162  836.0453
 163  1139.896
 164  833.2567
 165  1030.103
 166  977.2771
 167  745.1136
 168  1027.141
 169  991.433
 170  574.7075
 171  1039.021
 172  1100.246
 173  -145.5161
 174  244.2698
 175  724.7688
 176  787.895
 177  802.9163
 178  441.6653
 179  609.5009
 180  337.7071
 181  202.0063
 182  215.0589
 183  625.1281
 184  393.9367
 185  707.6652
 186  412.4623
 187  869.1357
 188  793.7462
 189  626.2383
 190  646.3724
 191  822.0994
 192  820.7493
 193  503.2135
 194  581.6913
 195  1018.558
 196  606.8129
 197  -115.8507
 198  67.11111
 199  371.6418
 200  722.7822
 201  983.308
 202  466.3368
 203  253.7577
 204  579.0688
 205  -333.5595
 206  62.99978
 207  285.9319
 208  583.6734
 209  109.6809
 210  34.53664
 211  114.2522
 212  402.6033
 213  484.5284
 214  206.5192
 215  474.3023
 216  347.6282
 217  354.453
 218  -372.0132
 219  763.2952
 220  -63.7156
 221  415.8024
 222  724.545
 223  988.7986
 224  1290.177
 225  652.5188
 226  603.057
 227  1311.24
 228  651.157
 229  281.2112
 230  494.1519
 231  195.6221
 232  687.4757
 233  718.813
 234  288.6423
 235  591.959
 236  622.5446
 237  348.4518
 238  388.5476
 239  1180.568
 240  684.97
 241  1167.865
 242  518.6802
 243  287.8267
 244  72.59512
 245  428.8873
 246  738.7256
 247  552.1731
 248  414.1709
 249  471.7473
 250  178.3342
 251  69.69943
 252  87.63431
 253  270.4203
 254  -95.81159
 255  -176.7451
