# Input file       =  1207808803.09915_cleaned.dat
# Candidate        =  PSR_0332+5434
# Telescope        =  AR
# Epoch_topo       =  58223.268774295721
# Epoch_bary       =  N/A
# T_sample         =  0.002
# Data Folded      =  7208960
# Data Avg         =  0.406160758719356
# Data StdDev      =  6.00017741301592 
# Profile Bins     =  256
# Profile Avg      =  11437.3982558134 
# Profile StdDev   =  1006.88626581789 
# Reduced chi-sqr  =  2.541
# Prob(Noise)      <  4.7e-36   (~12.5 sigma)
# P_topo (ms)      =  714.559944981075  +/- 4.58e-05
# P'_topo (s/s)    =  -0                +/- 2.46e-11
# P''_topo (s/s^2) =  0                 +/- 1.11e-14
# P_bary (ms)      =  N/A
# P'_bary (s/s)    =  N/A
# P''_bary (s/s^2) =  N/A
# P_orb (s)        =  N/A
# asin(i)/c (s)    =  N/A
# eccentricity     =  N/A
# w (rad)          =  N/A
# T_peri           =  N/A
######################################################
   0  11259.34
   1  11796.73
   2  11370.47
   3  10838.82
   4  10739.35
   5  13670.65
   6  14521.29
   7  13283.93
   8  12520.92
   9  11954.58
  10  11967.08
  11  11970.07
  12  11644.88
  13  13083.54
  14  14903
  15  14669.12
  16  12733.77
  17  11917.18
  18  11672.13
  19  12061.61
  20  11744.23
  21  11889.63
  22  13862.53
  23  14371.19
  24  12678.32
  25  11635.29
  26  11484.9
  27  11346.9
  28  12114
  29  12390.36
  30  12708.81
  31  13993.38
  32  12721.64
  33  10939.5
  34  10740.85
  35  10834.97
  36  10548.06
  37  11102.54
  38  12361.91
  39  12686.16
  40  11993.99
  41  11209.18
  42  10741.75
  43  11117.64
  44  10717.82
  45  11461
  46  12148.48
  47  12623.93
  48  12802.95
  49  11037.02
  50  10595.43
  51  11898.61
  52  11394.78
  53  10992.85
  54  11214.27
  55  13221.03
  56  14036.68
  57  12215.88
  58  11698.38
  59  11236.74
  60  11630.01
  61  10834.17
  62  11042.26
  63  12939.8
  64  12881.72
  65  12397.04
  66  10281.63
  67  10238.26
  68  10207.39
  69  10379.86
  70  10260.51
  71  12184.1
  72  12860.73
  73  12529.97
  74  11082.84
  75  10654.23
  76  10472.47
  77  9420.354
  78  10707.73
  79  11713.67
  80  12507.01
  81  12598.08
  82  11604.37
  83  10017.77
  84  10588.63
  85  9590.382
  86  9926.966
  87  12414.55
  88  12738.96
  89  12769.86
  90  11659.27
  91  10688.75
  92  10931.91
  93  10190.63
  94  10325.93
  95  11576.34
  96  13663.12
  97  14073.88
  98  12833.41
  99  11567.83
 100  11537.33
 101  11455.81
 102  11343.54
 103  11003.56
 104  12738.57
 105  14411.04
 106  12752.23
 107  11620.21
 108  10231.73
 109  10619.38
 110  10425.15
 111  9855.056
 112  11096.01
 113  11747.01
 114  12513.28
 115  11522.81
 116  9947.768
 117  9848.274
 118  9606.094
 119  9908.187
 120  10426.66
 121  11436.63
 122  11847.3
 123  10094.63
 124  8533.952
 125  8899.746
 126  8792.229
 127  9001.053
 128  9097.282
 129  11715.52
 130  11445.87
 131  10341.55
 132  9698.919
 133  8909.485
 134  8880.786
 135  8949.06
 136  8996.385
 137  10716.63
 138  12086.26
 139  10834.34
 140  9665.166
 141  9297.376
 142  9985.471
 143  9297.202
 144  9389.063
 145  10553.14
 146  13312.56
 147  12973.07
 148  11352.05
 149  11820.11
 150  15739.91
 151  16435.3
 152  13094.63
 153  11386.95
 154  13451.79
 155  14411.01
 156  12543.32
 157  11098.67
 158  10968.29
 159  11362.12
 160  11269.45
 161  11400.38
 162  12668.87
 163  13349.32
 164  12674.22
 165  10238.92
 166  10274.4
 167  9938.524
 168  9731.211
 169  10456.91
 170  12154.13
 171  13088.8
 172  12257.06
 173  10649.43
 174  10007.24
 175  9716.216
 176  10308.08
 177  9747.017
 178  10923.19
 179  12716.25
 180  12570.93
 181  9969.884
 182  8801.933
 183  9789.719
 184  10107.45
 185  9291.64
 186  9123.58
 187  12005.66
 188  12315.64
 189  11189.28
 190  10044.67
 191  9779.553
 192  10946.39
 193  10137.2
 194  10498.97
 195  12499.37
 196  14246.8
 197  13182.03
 198  11401.11
 199  10118.62
 200  10895.71
 201  11195.42
 202  11007.5
 203  11381.84
 204  13438.98
 205  13308.42
 206  11836.58
 207  10671.66
 208  10861.95
 209  10073.05
 210  10553.84
 211  12383.62
 212  12847.93
 213  12880.22
 214  12281.9
 215  10856.06
 216  11527.94
 217  10845.07
 218  10052.26
 219  11025.27
 220  12158.31
 221  13240.45
 222  11408.79
 223  9509.506
 224  10308.65
 225  10349.08
 226  10267.01
 227  10388.95
 228  11968.14
 229  13300.35
 230  12199.69
 231  10628.33
 232  9882.307
 233  10367.91
 234  10005.38
 235  10586.79
 236  10786.54
 237  13207.19
 238  13414.82
 239  10707.14
 240  10096.17
 241  10194.16
 242  11085.93
 243  10727.49
 244  10958.55
 245  12339.82
 246  12914.47
 247  12402.08
 248  10146.44
 249  10798.09
 250  10991.45
 251  10998.52
 252  11641.87
 253  13943.3
 254  14417.71
 255  13014.4
