# Input file       =  1207894977.102396_cleaned.dat
# Candidate        =  PSR_0332+5434
# Telescope        =  AR
# Epoch_topo       =  58224.266158592545
# Epoch_bary       =  N/A
# T_sample         =  0.002
# Data Folded      =  7208960
# Data Avg         =  0.0288946552675283
# Data StdDev      =  1.00007094335855 
# Profile Bins     =  512
# Profile Avg      =  406.925198163016 
# Profile StdDev   =  118.667593873984 
# Reduced chi-sqr  =  1.749
# Prob(Noise)      <  2.83e-23   (~9.9 sigma)
# P_topo (ms)      =  714.5591720324    +/- 8.94e-05
# P'_topo (s/s)    =  -0                +/- 4.8e-11
# P''_topo (s/s^2) =  0                 +/- 2.16e-14
# P_bary (ms)      =  N/A
# P'_bary (s/s)    =  N/A
# P''_bary (s/s^2) =  N/A
# P_orb (s)        =  N/A
# asin(i)/c (s)    =  N/A
# eccentricity     =  N/A
# w (rad)          =  N/A
# T_peri           =  N/A
######################################################
   0  488.3995
   1  433.9912
   2  371.9946
   3  413.571
   4  351.5426
   5  323.3219
   6  354.111
   7  327.9305
   8  416.763
   9  390.2185
  10  280.0081
  11  437.9785
  12  351.9269
  13  247.5408
  14  253.2566
  15  266.5505
  16  327.2346
  17  290.6356
  18  380.3804
  19  452.6116
  20  459.1663
  21  472.6134
  22  391.6722
  23  183.1021
  24  335.1307
  25  311.6757
  26  329.4054
  27  378.4663
  28  415.7067
  29  384.0675
  30  366.9846
  31  234.5803
  32  327.4969
  33  442.9229
  34  391.5237
  35  412.0267
  36  408.1565
  37  461.0489
  38  472.2427
  39  341.7793
  40  533.2015
  41  443.7911
  42  347.389
  43  378.9298
  44  386.7769
  45  415.4671
  46  388.1421
  47  412.7838
  48  477.1505
  49  499.1008
  50  540.6262
  51  524.0308
  52  394.4745
  53  460.3741
  54  363.1959
  55  327.6067
  56  414.6145
  57  387.1859
  58  288.2691
  59  417.4157
  60  453.8227
  61  476.8607
  62  450.3704
  63  351.4442
  64  332.2832
  65  284.6548
  66  435.7495
  67  464.2932
  68  398.6818
  69  406.8045
  70  384.0651
  71  318.8677
  72  328.9867
  73  282.7471
  74  354.4317
  75  450.3326
  76  368.8853
  77  366.8098
  78  456.9702
  79  448.6342
  80  275.6819
  81  166.5788
  82  308.071
  83  413.1383
  84  550.7386
  85  556.4327
  86  500.6959
  87  404.0797
  88  396.5932
  89  344.693
  90  381.7112
  91  421.704
  92  328.6362
  93  314.9788
  94  372.0612
  95  385.2152
  96  308.5195
  97  411.8267
  98  337.2163
  99  403.4669
 100  325.6916
 101  254.0197
 102  412.0883
 103  426.7953
 104  395.1975
 105  400.9072
 106  402.6566
 107  422.7728
 108  496.2063
 109  401.2222
 110  308.2949
 111  248.6302
 112  367.5191
 113  336.1317
 114  349.1411
 115  483.6628
 116  453.0645
 117  437.7682
 118  396.6918
 119  467.8613
 120  441.3542
 121  279.5016
 122  294.7695
 123  417.7719
 124  402.4636
 125  355.3827
 126  258.8027
 127  275.6884
 128  377.1892
 129  340.8341
 130  348.8888
 131  288.7354
 132  377.7241
 133  499.5369
 134  347.8429
 135  318.0974
 136  368.357
 137  467.055
 138  375.1299
 139  440.8549
 140  573.5693
 141  635.5546
 142  345.5948
 143  315.8471
 144  322.1467
 145  409.6195
 146  370.7184
 147  352.6636
 148  488.3379
 149  470.6364
 150  499.5455
 151  353.3446
 152  420.5263
 153  489.6953
 154  417.1505
 155  372.8983
 156  399.5176
 157  469.0424
 158  458.5417
 159  388.0051
 160  488.2843
 161  388.4741
 162  309.972
 163  294.3924
 164  414.1518
 165  374.7017
 166  409.1002
 167  479.6028
 168  554.4197
 169  475.9699
 170  462.6776
 171  397.9881
 172  412.5547
 173  449.3764
 174  553.7247
 175  490.8622
 176  482.9496
 177  436.8304
 178  393.998
 179  287.7089
 180  421.8211
 181  532.6623
 182  575.7789
 183  604.5562
 184  513.8268
 185  587.1399
 186  542.1149
 187  491.3395
 188  498.1139
 189  472.9089
 190  445.2651
 191  533.7762
 192  502.125
 193  339.7703
 194  461.0345
 195  296.9583
 196  288.9627
 197  269.6448
 198  250.0525
 199  358.7183
 200  337.8053
 201  456.5754
 202  505.4002
 203  281.1469
 204  331.8521
 205  374.3542
 206  291.624
 207  422.4184
 208  371.962
 209  414.7828
 210  288.4235
 211  266.3447
 212  298.6288
 213  302.2881
 214  244.4408
 215  395.4009
 216  427.5338
 217  354.9915
 218  345.259
 219  467.8744
 220  450.2952
 221  307.4107
 222  384.6732
 223  449.0906
 224  393.2562
 225  299.0512
 226  477.4555
 227  542.2182
 228  464.1134
 229  470.7442
 230  315.7091
 231  290.9547
 232  443.0942
 233  430.8041
 234  408.4492
 235  428.0509
 236  315.9786
 237  254.3452
 238  332.7478
 239  432.66
 240  485.8501
 241  472.287
 242  413.4594
 243  355.2882
 244  270.3461
 245  257.1078
 246  202.431
 247  301.4841
 248  496.3454
 249  333.4069
 250  357.6304
 251  519.238
 252  591.8261
 253  512.0328
 254  350.1131
 255  327.8042
 256  437.5632
 257  521.9249
 258  483.7044
 259  441.101
 260  513.2515
 261  562.4017
 262  429.3027
 263  324.4767
 264  404.9839
 265  573.5359
 266  553.3362
 267  532.6728
 268  524.0995
 269  495.58
 270  528.1003
 271  326.3814
 272  266.7832
 273  366.0347
 274  360.1507
 275  481.405
 276  451.5961
 277  516.2234
 278  332.5335
 279  245.5017
 280  307.2263
 281  408.6472
 282  360.8989
 283  388.8246
 284  464.9967
 285  445.4941
 286  435.5786
 287  294.0684
 288  394.2617
 289  527.4003
 290  535.1029
 291  466.203
 292  368.4617
 293  415.8683
 294  379.0015
 295  259.2856
 296  362.7771
 297  365.8402
 298  380.4782
 299  388.372
 300  359.9042
 301  429.1531
 302  513.9421
 303  431.6112
 304  474.2302
 305  605.554
 306  499.0112
 307  414.1548
 308  428.6199
 309  273.5848
 310  349.9878
 311  418.8619
 312  438.012
 313  385.8531
 314  342.088
 315  408.7955
 316  555.3489
 317  442.7092
 318  498.9371
 319  359.6031
 320  300.853
 321  388.687
 322  343.0763
 323  432.2682
 324  447.6071
 325  422.356
 326  380.6936
 327  403.4656
 328  362.896
 329  419.0493
 330  465.3149
 331  381.9699
 332  363.9652
 333  353.6701
 334  507.2108
 335  420.4422
 336  211.6527
 337  286.9858
 338  236.3815
 339  301.782
 340  358.9497
 341  383.9525
 342  284.4144
 343  260.041
 344  194.3304
 345  276.5242
 346  301.4954
 347  373.5008
 348  436.9815
 349  391.3938
 350  369.6663
 351  386.8141
 352  411.9847
 353  440.6943
 354  493.2211
 355  555.5028
 356  498.557
 357  428.5768
 358  465.2595
 359  354.0241
 360  332.1104
 361  326.3896
 362  298.8489
 363  338.2773
 364  444.7612
 365  344.4259
 366  293.3619
 367  297.6311
 368  364.8781
 369  480.063
 370  541.5008
 371  435.5706
 372  347.5075
 373  349.6092
 374  398.3278
 375  480.3493
 376  482.9162
 377  403.6357
 378  302.3152
 379  279.204
 380  362.0403
 381  471.4574
 382  378.293
 383  369.4555
 384  316.3076
 385  416.3583
 386  486.8145
 387  457.4533
 388  460.9176
 389  462.4543
 390  457.8111
 391  499.8269
 392  429.236
 393  423.1134
 394  431.2391
 395  386.9592
 396  449.7303
 397  592.5436
 398  540.6163
 399  479.8522
 400  422.6845
 401  432.2452
 402  379.5267
 403  402.002
 404  435.0901
 405  498.9879
 406  438.5274
 407  500.6125
 408  588.2679
 409  685.829
 410  581.8011
 411  531.0817
 412  1038.447
 413  1362.909
 414  1306.687
 415  1137.652
 416  947.5292
 417  714.6592
 418  581.6674
 419  305.2238
 420  214.005
 421  309.0112
 422  395.193
 423  436.2024
 424  439.299
 425  412.7136
 426  375.5567
 427  309.2654
 428  370.5186
 429  339.8897
 430  329.3093
 431  403.6166
 432  439.675
 433  455.5696
 434  425.7602
 435  335.1295
 436  230.9554
 437  317.2569
 438  432.1985
 439  457.4836
 440  414.4929
 441  363.2359
 442  335.996
 443  390.9547
 444  327.1803
 445  246.4505
 446  380.498
 447  600.0412
 448  523.3922
 449  408.4808
 450  391.2245
 451  353.9366
 452  237.4444
 453  260.7519
 454  384.6534
 455  329.0182
 456  412.1072
 457  362.5878
 458  323.5623
 459  372.4079
 460  302.8773
 461  321.3786
 462  389.1921
 463  268.3078
 464  329.5249
 465  386.0606
 466  423.8557
 467  414.8107
 468  408.4326
 469  328.9539
 470  410.3087
 471  439.1861
 472  494.7199
 473  554.5366
 474  571.329
 475  352.9369
 476  379.3343
 477  442.4648
 478  542.79
 479  391.5935
 480  405.3014
 481  430.1688
 482  317.9748
 483  396.7432
 484  350.6193
 485  409.3365
 486  353.3708
 487  278.0565
 488  351.4034
 489  403.4333
 490  419.4671
 491  346.2577
 492  426.1569
 493  308.235
 494  219.7039
 495  324.2284
 496  406.5402
 497  416.5124
 498  449.4781
 499  460.4813
 500  410.9036
 501  434.8543
 502  436.9265
 503  430.0165
 504  523.2445
 505  526.3935
 506  477.2305
 507  433.9465
 508  338.7698
 509  352.2693
 510  239.9068
 511  260.5255
