# Input file       =  1207737281.096036_cleaned.dat
# Candidate        =  PSR_0332+5434
# Telescope        =  AR
# Epoch_topo       =  58222.440973333752
# Epoch_bary       =  N/A
# T_sample         =  0.002
# Data Folded      =  7340032
# Data Avg         =  0.0226230501510091
# Data StdDev      =  1.00005874109861 
# Profile Bins     =  512
# Profile Avg      =  324.282196271801 
# Profile StdDev   =  119.740069626863 
# Reduced chi-sqr  =  4.095
# Prob(Noise)      <  8.55e-190   (~29.4 sigma)
# P_topo (ms)      =  714.560595006652  +/- 0.00043
# P'_topo (s/s)    =  -0                +/- 2.27e-10
# P''_topo (s/s^2) =  0                 +/- 1e-13
# P_bary (ms)      =  N/A
# P'_bary (s/s)    =  N/A
# P''_bary (s/s^2) =  N/A
# P_orb (s)        =  N/A
# asin(i)/c (s)    =  N/A
# eccentricity     =  N/A
# w (rad)          =  N/A
# T_peri           =  N/A
######################################################
   0  1427.234
   1  1349.317
   2  1112.785
   3  817.9199
   4  617.4213
   5  512.7658
   6  495.1005
   7  473.5831
   8  431.1367
   9  470.9538
  10  483.9873
  11  441.4736
  12  517.9412
  13  531.7289
  14  524.5174
  15  485.7654
  16  504.4329
  17  476.7693
  18  435.1843
  19  398.7617
  20  510.305
  21  495.7581
  22  530.4388
  23  554.6601
  24  561.9084
  25  538.288
  26  526.1816
  27  568.0939
  28  633.67
  29  619.984
  30  622.9227
  31  647.2352
  32  609.4149
  33  592.4032
  34  634.0863
  35  578.5805
  36  524.9122
  37  545.1413
  38  454.2211
  39  434.265
  40  492.3874
  41  444.0973
  42  431.8566
  43  470.2417
  44  460.231
  45  427.3741
  46  408.0522
  47  423.8907
  48  433.8102
  49  393.9709
  50  399.4927
  51  380.5978
  52  330.9814
  53  373.6787
  54  369.9104
  55  345.1383
  56  357.2994
  57  413.0698
  58  361.0091
  59  374.8382
  60  345.5328
  61  360.6293
  62  391.6435
  63  312.6583
  64  265.3149
  65  285.1549
  66  404.2202
  67  391.9151
  68  308.4017
  69  209.3599
  70  175.9514
  71  252.5712
  72  311.6988
  73  293.5762
  74  304.6676
  75  292.8333
  76  349.2245
  77  385.0897
  78  359.1775
  79  311.4155
  80  246.0635
  81  226.3162
  82  364.044
  83  340.4446
  84  331.8014
  85  248.9241
  86  317.5371
  87  391.4361
  88  371.2248
  89  293.7065
  90  339.1013
  91  445.5117
  92  440.0081
  93  433.631
  94  402.5067
  95  391.9848
  96  404.1819
  97  501.1975
  98  564.1028
  99  568.7385
 100  575.0635
 101  589.2435
 102  597.0165
 103  492.7617
 104  485.2675
 105  518.1199
 106  559.6433
 107  526.4532
 108  513.9793
 109  482.9956
 110  390.359
 111  484.3341
 112  409.2477
 113  408.3869
 114  480.0669
 115  473.8547
 116  477.7641
 117  474.2635
 118  432.2952
 119  485.222
 120  495.6637
 121  468.7826
 122  461.5666
 123  485.4318
 124  391.6406
 125  352.4039
 126  374.8339
 127  418.6908
 128  382.7446
 129  339.0929
 130  389.3512
 131  395.4433
 132  367.6625
 133  281.9065
 134  276.7773
 135  293.6748
 136  290.0018
 137  299.9416
 138  236.2786
 139  288.0876
 140  236.353
 141  152.9016
 142  214.722
 143  148.4754
 144  185.4154
 145  197.1311
 146  162.3355
 147  115.1396
 148  172.4325
 149  183.741
 150  189.4731
 151  328.9118
 152  280.8658
 153  154.0207
 154  141.4747
 155  191.3341
 156  181.585
 157  190.4398
 158  215.7776
 159  203.5635
 160  245.8366
 161  239.3506
 162  192.794
 163  248.6965
 164  274.9646
 165  224.5043
 166  221.7099
 167  200.6768
 168  235.4778
 169  236.8763
 170  163.8374
 171  149.4062
 172  222.4234
 173  202.5373
 174  170.6469
 175  185.1113
 176  222.4748
 177  196.0692
 178  143.877
 179  87.96786
 180  133.4766
 181  128.9926
 182  85.83725
 183  141.9247
 184  183.8221
 185  166.3254
 186  132.4403
 187  144.4121
 188  145.6798
 189  124.5268
 190  117.9718
 191  62.24092
 192  140.5742
 193  80.87824
 194  35.73222
 195  41.42892
 196  64.50265
 197  79.59487
 198  85.08007
 199  183.9143
 200  116.7081
 201  57.73706
 202  85.85717
 203  150.0413
 204  102.769
 205  35.56198
 206  43.6638
 207  72.95799
 208  -2.540605
 209  29.351
 210  82.37167
 211  119.3777
 212  54.30761
 213  -9.071339
 214  58.84596
 215  73.44468
 216  46.58037
 217  63.9984
 218  55.74988
 219  70.61487
 220  61.68908
 221  82.1625
 222  54.3761
 223  24.53727
 224  119.8428
 225  179.9232
 226  187.5003
 227  207.1379
 228  133.7695
 229  163.7433
 230  207.9433
 231  275.4232
 232  161.5958
 233  191.1705
 234  391.7042
 235  349.0439
 236  304.8994
 237  212.4395
 238  234.7081
 239  214.9502
 240  293.3948
 241  348.9539
 242  346.6294
 243  345.2624
 244  365.895
 245  408.1894
 246  406.2976
 247  398.4727
 248  381.3156
 249  433.3635
 250  403.0681
 251  431.7515
 252  374.2698
 253  339.7533
 254  367.116
 255  374.0904
 256  312.422
 257  327.8389
 258  227.0261
 259  269.0956
 260  334.3688
 261  281.2025
 262  229.7605
 263  186.7135
 264  173.9897
 265  183.948
 266  201.7657
 267  257.7288
 268  174.2377
 269  161.4055
 270  182.1539
 271  186.9653
 272  127.0079
 273  110.2285
 274  78.29575
 275  106.8601
 276  159.479
 277  160.5775
 278  226.6984
 279  126.9686
 280  47.22582
 281  101.377
 282  123.7914
 283  151.218
 284  120.4543
 285  115.4091
 286  85.06733
 287  21.78583
 288  54.59211
 289  51.97158
 290  13.0776
 291  -10.07922
 292  51.23494
 293  42.93365
 294  34.67345
 295  74.02847
 296  100.1588
 297  74.34429
 298  36.65829
 299  124.7285
 300  70.13626
 301  27.79566
 302  103.116
 303  173.1328
 304  176.9787
 305  188.5876
 306  161.0826
 307  171.0004
 308  144.7831
 309  165.3842
 310  276.9896
 311  295.5667
 312  267.1746
 313  310.0717
 314  376.4821
 315  381.3944
 316  380.4229
 317  364.1812
 318  294.6874
 319  354.5388
 320  430.7936
 321  375.2756
 322  409.7348
 323  389.8325
 324  313.3843
 325  298.0164
 326  261.5172
 327  286.4084
 328  335.4788
 329  367.2229
 330  376.9195
 331  378.6584
 332  278.5181
 333  270.3154
 334  304.6572
 335  387.4472
 336  474.5108
 337  414.8131
 338  329.4744
 339  311.9502
 340  264.8352
 341  328.1108
 342  296.8036
 343  321.8838
 344  305.1667
 345  267.9851
 346  236.1114
 347  246.3201
 348  347.795
 349  306.8084
 350  342.1938
 351  296.2265
 352  287.3439
 353  367.489
 354  324.2163
 355  293.7271
 356  270.4713
 357  292.9097
 358  284.4193
 359  279.0243
 360  283.0348
 361  280.132
 362  252.7837
 363  150.0457
 364  193.0368
 365  253.2187
 366  182.6943
 367  187.3718
 368  196.0347
 369  185.8695
 370  159.5302
 371  178.9146
 372  234.6265
 373  181.6731
 374  205.0077
 375  270.7819
 376  263.3113
 377  261.7776
 378  355.9778
 379  340.6847
 380  271.0931
 381  346.3055
 382  387.6825
 383  382.5576
 384  399.8528
 385  384.2075
 386  346.8436
 387  329.1171
 388  408.4774
 389  401.1251
 390  429.9857
 391  448.4919
 392  451.2145
 393  443.3701
 394  506.6956
 395  454.4781
 396  425.0923
 397  494.9508
 398  464.4432
 399  429.9639
 400  378.6645
 401  404.2432
 402  301.2164
 403  325.9261
 404  420.2005
 405  339.5897
 406  372.8139
 407  386.0327
 408  322.1322
 409  292.4399
 410  345.9903
 411  373.1029
 412  382.9073
 413  387.0337
 414  364.5926
 415  281.8887
 416  270.0896
 417  234.429
 418  288.5462
 419  352.5548
 420  314.6881
 421  274.1379
 422  272.6579
 423  264.5186
 424  187.021
 425  169.7913
 426  170.9221
 427  251.1158
 428  215.4326
 429  208.6199
 430  204.2552
 431  120.4237
 432  265.2111
 433  286.9038
 434  257.099
 435  268.4852
 436  246.502
 437  296.176
 438  219.396
 439  256.6575
 440  289.7265
 441  312.1362
 442  273.8982
 443  352.6635
 444  333.0876
 445  335.4615
 446  371.1576
 447  294.1952
 448  278.908
 449  371.9859
 450  363.9507
 451  385.0762
 452  337.2737
 453  337.9715
 454  377.5917
 455  390.3428
 456  426.4193
 457  524.1576
 458  503.4853
 459  429.1853
 460  416.7419
 461  362.011
 462  463.3563
 463  516.0717
 464  491.3893
 465  501.4404
 466  493.2333
 467  408.9796
 468  508.8722
 469  515.6436
 470  560.9607
 471  479.1134
 472  434.7681
 473  414.7167
 474  444.118
 475  418.4994
 476  391.0916
 477  473.8995
 478  406.1359
 479  474.7964
 480  497.266
 481  425.3456
 482  448.1549
 483  441.227
 484  435.8192
 485  431.8669
 486  391.7308
 487  342.6713
 488  292.5945
 489  415.4499
 490  528.7521
 491  540.2386
 492  499.7587
 493  557.3181
 494  536.3013
 495  519.4348
 496  521.5996
 497  443.0774
 498  392.6907
 499  458.6971
 500  445.3183
 501  414.3701
 502  413.5803
 503  508.882
 504  598.9167
 505  624.3108
 506  600.7918
 507  580.9455
 508  659.8385
 509  816.6374
 510  1090.669
 511  1318.796
