# Input file       =  1207737281.096036-PSRB0329-2ms-sampling-dd.dat
# Candidate        =  PSR_0332+5434
# Telescope        =  AR
# Epoch_topo       =  58222.440973333752
# Epoch_bary       =  N/A
# T_sample         =  0.002
# Data Folded      =  7340032
# Data Avg         =  -7.04739626242559e-10
# Data StdDev      =  6.96900740040068 
# Profile Bins     =  512
# Profile Avg      =  -0.250677076334369
# Profile StdDev   =  834.420416582126 
# Reduced chi-sqr  =  1.677
# Prob(Noise)      <  6.5e-20   (~9.1 sigma)
# P_topo (ms)      =  714.560595724714  +/- 0.000809
# P'_topo (s/s)    =  -0                +/- 4.27e-10
# P''_topo (s/s^2) =  0                 +/- 1.89e-13
# P_bary (ms)      =  N/A
# P'_bary (s/s)    =  N/A
# P''_bary (s/s^2) =  N/A
# P_orb (s)        =  N/A
# asin(i)/c (s)    =  N/A
# eccentricity     =  N/A
# w (rad)          =  N/A
# T_peri           =  N/A
######################################################
   0  -755.1808
   1  -740.3838
   2  -944.554
   3  -954.6171
   4  -445.6188
   5  -432.7897
   6  -691.1649
   7  -557.3087
   8  -360.6648
   9  -211.6249
  10  -237.4713
  11  -182.3993
  12  -551.304
  13  -581.545
  14  -295.8924
  15  -510.2453
  16  -330.4933
  17  -514.6988
  18  -557.1362
  19  -582.428
  20  -898.1439
  21  -714.1101
  22  -393.6622
  23  -278.7912
  24  -151.4468
  25  -253.2134
  26  -546.8922
  27  -362.2881
  28  -150.2849
  29  236.5682
  30  709.2379
  31  446.9593
  32  -31.29005
  33  -1.867923
  34  5.421621
  35  169.3873
  36  4.305231
  37  410.9066
  38  598.7327
  39  291.1226
  40  38.61594
  41  149.5703
  42  550.716
  43  727.3451
  44  1028.313
  45  702.543
  46  612.433
  47  876.2236
  48  847.8477
  49  733.1581
  50  535.4421
  51  681.537
  52  675.5941
  53  613.709
  54  756.8485
  55  661.8796
  56  481.3876
  57  -108.2668
  58  -25.45272
  59  58.23221
  60  -218.1821
  61  29.38052
  62  6.848175
  63  -55.76004
  64  -221.5316
  65  -159.4636
  66  91.77632
  67  -140.7725
  68  -26.75875
  69  111.8049
  70  269.3762
  71  118.9014
  72  212.0862
  73  254.2428
  74  -119.9155
  75  132.7419
  76  470.6528
  77  369.0631
  78  371.4403
  79  384.057
  80  136.6252
  81  166.4128
  82  338.4449
  83  406.8647
  84  486.0459
  85  472.3737
  86  247.4461
  87  217.3929
  88  386.1821
  89  255.3557
  90  306.4007
  91  598.7887
  92  406.7175
  93  276.8264
  94  197.2556
  95  358.4455
  96  46.97835
  97  75.93225
  98  419.1537
  99  119.6492
 100  264.7854
 101  694.559
 102  403.7977
 103  208.6548
 104  422.649
 105  280.6069
 106  381.1225
 107  491.1496
 108  389.6528
 109  -33.40418
 110  65.30125
 111  -156.7672
 112  -39.36524
 113  211.0372
 114  211.6209
 115  -49.27535
 116  -39.41884
 117  -37.07493
 118  -370.1328
 119  -567.6786
 120  -392.5829
 121  -164.8877
 122  -107.8448
 123  33.72326
 124  -146.0063
 125  -559.2
 126  10.45648
 127  237.8783
 128  162.7094
 129  215.7049
 130  102.4354
 131  54.83851
 132  -157.4962
 133  1.918133
 134  353.8262
 135  476.6535
 136  424.8267
 137  860.3488
 138  645.3618
 139  549.0781
 140  668.7456
 141  376.3941
 142  614.3631
 143  757.6188
 144  778.7712
 145  815.9412
 146  466.6546
 147  440.0383
 148  437.9596
 149  180.492
 150  302.1742
 151  488.6604
 152  439.5237
 153  276.6471
 154  137.1787
 155  1.639264
 156  317.1525
 157  476.1522
 158  345.9271
 159  411.7019
 160  314.7705
 161  60.16288
 162  490.0899
 163  576.7787
 164  694.8721
 165  487.1778
 166  262.017
 167  237.3715
 168  219.6844
 169  67.43911
 170  -102.6989
 171  214.3367
 172  166.4506
 173  544.9366
 174  541.3505
 175  235.042
 176  339.4616
 177  363.3187
 178  440.7015
 179  576.3856
 180  523.1197
 181  263.4854
 182  145.2957
 183  570.5472
 184  1109.736
 185  1411.39
 186  1273.473
 187  1423.787
 188  1344.703
 189  1077.204
 190  960.0885
 191  861.325
 192  643.0827
 193  835.7126
 194  1043.066
 195  875.1846
 196  865.376
 197  1171.881
 198  1637.719
 199  1714.962
 200  1589.907
 201  1483.729
 202  1921.964
 203  2494.108
 204  3445.623
 205  4384.215
 206  4725.503
 207  4613.395
 208  3428.289
 209  2141.169
 210  1416.275
 211  1116.25
 212  928.0798
 213  955.813
 214  795.6078
 215  542.6978
 216  542.3817
 217  197.9397
 218  574.0216
 219  510.766
 220  497.1389
 221  453.6374
 222  286.1105
 223  227.6696
 224  92.4326
 225  -70.97472
 226  275.2979
 227  132.5342
 228  295.7227
 229  188.7583
 230  433.1688
 231  419.9372
 232  382.334
 233  372.7467
 234  499.5398
 235  519.2968
 236  708.6885
 237  830.7764
 238  788.9052
 239  859.4467
 240  1053.693
 241  797.8558
 242  528.8466
 243  741.3543
 244  743.015
 245  826.8441
 246  1174.022
 247  948.076
 248  813.2634
 249  962.265
 250  631.212
 251  545.2374
 252  519.0201
 253  672.1326
 254  655.3186
 255  544.7175
 256  658.4081
 257  610.1901
 258  165.0306
 259  221.0773
 260  371.4431
 261  545.2141
 262  537.759
 263  781.291
 264  625.9387
 265  339.889
 266  181.6573
 267  198.8587
 268  506.4977
 269  350.1
 270  -104.0077
 271  176.4519
 272  521.3549
 273  336.0952
 274  97.61748
 275  -341.7478
 276  -297.6353
 277  -140.8729
 278  89.02853
 279  -56.90125
 280  -11.56228
 281  -45.78803
 282  337.6446
 283  664.8306
 284  435.3738
 285  235.0067
 286  7.076115
 287  -64.63289
 288  295.9702
 289  71.00845
 290  49.1562
 291  -94.74554
 292  -9.05444
 293  104.0183
 294  1.125
 295  -250.9537
 296  -207.9011
 297  46.24938
 298  -38.05119
 299  -70.36761
 300  -236.1834
 301  -389.7865
 302  -377.033
 303  92.3355
 304  392.8382
 305  399.8517
 306  461.1952
 307  565.7588
 308  457
 309  -123.1868
 310  8.859404
 311  153.2811
 312  503.5206
 313  433.6264
 314  519.9002
 315  318.7382
 316  -26.37399
 317  292.6039
 318  -133.738
 319  -94.60597
 320  385.5931
 321  660.2756
 322  624.0082
 323  611.5759
 324  474.3786
 325  560.4146
 326  762.5386
 327  809.0179
 328  608.7944
 329  848.6708
 330  620.7203
 331  501.6397
 332  409.2988
 333  341.9576
 334  286.1522
 335  3.947778
 336  159.5374
 337  112.8393
 338  252.8764
 339  135.5655
 340  -59.92937
 341  -146.3808
 342  -222.4405
 343  -98.12148
 344  -244.3758
 345  116.651
 346  92.78017
 347  -272.3666
 348  35.75741
 349  -484.5397
 350  -328.1464
 351  -225.3789
 352  -359.5841
 353  -702.6081
 354  -568.2291
 355  -501.2478
 356  -374.8221
 357  160.9942
 358  -35.94788
 359  -347.9566
 360  -351.3563
 361  -380.9896
 362  -307.62
 363  -269.703
 364  -83.13369
 365  -387.0773
 366  -395.3466
 367  -541.4986
 368  -745.1409
 369  -642.8943
 370  -636.7996
 371  -881.6849
 372  -897.3271
 373  -892.8094
 374  -961.6458
 375  -942.0695
 376  -1141.972
 377  -1545.538
 378  -1294.786
 379  -1329.393
 380  -1301.642
 381  -1293.307
 382  -1289.466
 383  -1477.27
 384  -1381.375
 385  -1690.354
 386  -1681.234
 387  -1547.979
 388  -1651.172
 389  -1268.814
 390  -1233.059
 391  -1188.756
 392  -1174.844
 393  -1242.438
 394  -1054.009
 395  -1224.892
 396  -1356.987
 397  -1429.403
 398  -1240.837
 399  -1383.432
 400  -1525.446
 401  -1525.232
 402  -1175.16
 403  -1282.7
 404  -1263.905
 405  -650.5665
 406  -870.8466
 407  -1292.632
 408  -1274.181
 409  -936.8705
 410  -1302.668
 411  -1577.462
 412  -1026.728
 413  -790.6522
 414  -1077.459
 415  -816.9949
 416  -714.4269
 417  -697.6863
 418  -904.4165
 419  -1173.43
 420  -1006.058
 421  -627.1548
 422  -419.6637
 423  -264.6399
 424  -387.0485
 425  -482.4939
 426  -647.6797
 427  -716.6948
 428  -762.5811
 429  -1013.069
 430  -890.0939
 431  -550.6498
 432  -566.5215
 433  -608.6671
 434  -862.6523
 435  -743.9677
 436  -694.6204
 437  -607.9915
 438  -913.5139
 439  -654.8566
 440  -246.5988
 441  -351.3316
 442  -400.9284
 443  -820.8419
 444  -784.1158
 445  -856.2326
 446  -761.065
 447  -652.2628
 448  -673.9553
 449  -673.9726
 450  -627.8316
 451  -405.6214
 452  -384.2174
 453  -416.0449
 454  -364.2582
 455  -212.9774
 456  -470.7945
 457  -312.8632
 458  -421.9876
 459  -702.5331
 460  -550.7462
 461  -423.8958
 462  -597.0097
 463  -479.8122
 464  -740.4428
 465  -680.8353
 466  -455.0894
 467  -547.3969
 468  -725.7965
 469  -854.7198
 470  -602.2161
 471  -277.1281
 472  -191.0762
 473  -44.00147
 474  -329.7022
 475  -307.7433
 476  -432.7953
 477  -380.7651
 478  -602.5092
 479  -652.4461
 480  -639.7237
 481  -757.2961
 482  -294.0082
 483  -137.1214
 484  -60.88433
 485  -529.168
 486  -903.0399
 487  -599.7387
 488  -596.335
 489  -660.7004
 490  -651.277
 491  -699.1218
 492  -717.7346
 493  -958.6985
 494  -872.3795
 495  -949.3192
 496  -1089.602
 497  -1110.341
 498  -819.002
 499  -792.7375
 500  -805.3293
 501  -771.4664
 502  -868.212
 503  -1113.084
 504  -1241.965
 505  -805.4787
 506  -952.4633
 507  -1180.449
 508  -924.0439
 509  -482.0681
 510  -643.1026
 511  -451.3574
