# Input file       =  1207823475.107672-PSRB0329-2ms-sampling-dd.dat
# Candidate        =  PSR_0332+5434
# Telescope        =  AR
# Epoch_topo       =  58223.438589209167
# Epoch_bary       =  N/A
# T_sample         =  0.002
# Data Folded      =  7340032
# Data Avg         =  -3.41523379991713e-10
# Data StdDev      =  6.69794024071228 
# Profile Bins     =  512
# Profile Avg      =  0.204674779934413
# Profile StdDev   =  801.964722490609 
# Reduced chi-sqr  =  0.805
# Prob(Noise)      <  1   (~0.0 sigma)
# P_topo (ms)      =  714.559832864403  +/- 0.000819
# P'_topo (s/s)    =  -0                +/- 4.32e-10
# P''_topo (s/s^2) =  0                 +/- 1.91e-13
# P_bary (ms)      =  N/A
# P'_bary (s/s)    =  N/A
# P''_bary (s/s^2) =  N/A
# P_orb (s)        =  N/A
# asin(i)/c (s)    =  N/A
# eccentricity     =  N/A
# w (rad)          =  N/A
# T_peri           =  N/A
######################################################
   0  -276.0797
   1  -511.4155
   2  -126.5994
   3  -327.1786
   4  -79.68046
   5  -99.56604
   6  -350.115
   7  -631.0112
   8  -392.3358
   9  -213.4313
  10  -404.6578
  11  -754.1723
  12  -324.4501
  13  -146.1687
  14  122.2775
  15  -112.205
  16  43.54287
  17  82.33263
  18  165.1054
  19  167.2047
  20  -100.6643
  21  58.10903
  22  283.2101
  23  445.7075
  24  147.3777
  25  197.3069
  26  411.0978
  27  191.1647
  28  227.6655
  29  185.827
  30  11.06398
  31  -205.4998
  32  -208.8512
  33  -155.6951
  34  -346.6959
  35  -233.1921
  36  -610.3056
  37  -798.5131
  38  -555.4406
  39  -221.6565
  40  -281.5531
  41  -396.7122
  42  -341.7613
  43  -186.5685
  44  -292.1156
  45  -488.8089
  46  -297.4576
  47  -116.5015
  48  -103.3612
  49  -126.6219
  50  66.89052
  51  26.5445
  52  109.8538
  53  -138.6985
  54  -251.7759
  55  -157.7788
  56  370.5515
  57  529.6757
  58  106.2441
  59  272.5101
  60  305.7802
  61  165.6986
  62  210.4755
  63  250.8909
  64  107.6559
  65  42.17114
  66  8.291982
  67  34.72946
  68  -75.59229
  69  119.1343
  70  -28.76137
  71  -181.4887
  72  -130.8531
  73  27.93204
  74  104.4097
  75  -131.3598
  76  -206.6678
  77  -140.1511
  78  -74.70123
  79  328.7082
  80  90.3381
  81  209.8056
  82  186.6614
  83  -129.9328
  84  94.70135
  85  113.8543
  86  390.3978
  87  384.3655
  88  528.7731
  89  430.916
  90  505.585
  91  787.5386
  92  752.303
  93  492.3748
  94  994.7346
  95  1337.039
  96  2190.567
  97  2877.872
  98  3030.651
  99  3043.19
 100  2732.162
 101  1511.445
 102  734.9823
 103  221.4413
 104  316.8564
 105  483.582
 106  215.1325
 107  19.58028
 108  284.5665
 109  -79.35232
 110  -21.5625
 111  274.7826
 112  642.3494
 113  534.0609
 114  506.0703
 115  449.9742
 116  -85.09187
 117  -223.7812
 118  -372.8002
 119  -403.9651
 120  -428.4744
 121  -237.0468
 122  -529.4494
 123  -330.5999
 124  -511.8783
 125  -595.3702
 126  -549.2275
 127  -292.559
 128  -458.9025
 129  -417.0656
 130  -476.6573
 131  -518.3229
 132  -725.9926
 133  -796.6932
 134  -805.9688
 135  -492.4594
 136  -325.2059
 137  -529.348
 138  -500.4068
 139  -830.4503
 140  -983.701
 141  -1007.334
 142  -838.8171
 143  -734.0574
 144  -385.0029
 145  -177.6257
 146  -299.2854
 147  -674.7391
 148  -760.5688
 149  -761.4375
 150  -571.428
 151  -475.5065
 152  -303.7661
 153  -147.1733
 154  -584.1192
 155  -729.1296
 156  -805.2505
 157  -1055.88
 158  -1002.608
 159  -725.431
 160  -425.0561
 161  -744.4374
 162  -1038.215
 163  -1168.116
 164  -1004.725
 165  -813.7448
 166  -1011.705
 167  -595.7122
 168  -592.0008
 169  -691.9518
 170  -431.7054
 171  -326.9862
 172  -767.7283
 173  -1186.101
 174  -706.6299
 175  -258.5195
 176  -483.1204
 177  -599.6223
 178  -445.405
 179  -670.9528
 180  -961.4677
 181  -1235.933
 182  -1190.016
 183  -958.8417
 184  -833.8301
 185  -631.0986
 186  -529.2999
 187  -627.1949
 188  -470.6566
 189  -161.157
 190  -193.6123
 191  29.3883
 192  109.1686
 193  -107.9878
 194  -47.82784
 195  14.25261
 196  -77.04517
 197  348.7034
 198  193.2692
 199  -67.22965
 200  2.870066
 201  196.5477
 202  541.4943
 203  -32.19257
 204  -81.67481
 205  -379.905
 206  -817.2197
 207  -634.11
 208  -50.18087
 209  -78.17604
 210  -295.0959
 211  -431.3799
 212  -355.2355
 213  -186.0875
 214  66.27731
 215  -97.3902
 216  126.4354
 217  49.31159
 218  -35.35262
 219  -222.7084
 220  -352.193
 221  -277.3914
 222  -422.1841
 223  -683.8277
 224  -824.8428
 225  -535.5455
 226  -398.1207
 227  -565.15
 228  -739.5502
 229  -738.3652
 230  -824.035
 231  -867.1912
 232  -660.7653
 233  -346.4591
 234  -468.8937
 235  -853.8533
 236  -330.1519
 237  -565.2299
 238  -879.0656
 239  -804.5485
 240  -938.0793
 241  -592.8652
 242  -331.5657
 243  -245.6284
 244  -394.0728
 245  -327.1206
 246  -377.0273
 247  -777.9897
 248  -432.1478
 249  -121.6603
 250  -91.67031
 251  230.296
 252  -29.89987
 253  -488.9983
 254  -316.2585
 255  -112.2981
 256  101.1619
 257  214.3617
 258  128.6231
 259  45.78892
 260  -113.5119
 261  115.2827
 262  474.7539
 263  634.9457
 264  803.7
 265  598.6047
 266  622.5911
 267  768.4411
 268  829.1495
 269  783.0574
 270  865.7791
 271  563.4156
 272  248.0757
 273  553.7154
 274  417.5283
 275  202.3008
 276  548.3791
 277  399.0786
 278  554.9677
 279  380.789
 280  516.4672
 281  470.8107
 282  318.0653
 283  245.4757
 284  -315.2754
 285  -209.3382
 286  -362.7283
 287  -264.7852
 288  -174.2745
 289  -112.3131
 290  -50.39805
 291  -154.5876
 292  -499.7792
 293  -474.3354
 294  -278.5939
 295  -301.7646
 296  -232.0116
 297  161.1293
 298  331.3896
 299  115.912
 300  267.0151
 301  9.689586
 302  -53.92316
 303  89.19713
 304  290.865
 305  244.9193
 306  200.1707
 307  354.2961
 308  252.7587
 309  205.6819
 310  396.8575
 311  105.2581
 312  114.2708
 313  20.53082
 314  -218.9264
 315  114.8135
 316  -48.88226
 317  46.10558
 318  179.4077
 319  92.79564
 320  575.575
 321  122.8723
 322  1.947758
 323  -7.704173
 324  -104.9389
 325  -103.543
 326  -238.6152
 327  -446.5001
 328  -42.55413
 329  -272.8503
 330  -447.2872
 331  -205.0636
 332  -131.0783
 333  -393.4158
 334  -588.399
 335  -252.585
 336  -177.7302
 337  -305.4615
 338  -406.0166
 339  -293.0342
 340  -605.7458
 341  -618.7979
 342  -259.8478
 343  -37.71467
 344  -166.8333
 345  -71.5177
 346  -225.1956
 347  -220.6348
 348  -372.7707
 349  -179.2753
 350  57.90266
 351  -122.927
 352  -196.7615
 353  -41.52029
 354  -266.4872
 355  148.8002
 356  182.0943
 357  157.2468
 358  126.1432
 359  130.7557
 360  -106.8088
 361  -181.61
 362  -30.3709
 363  -72.42289
 364  -16.74542
 365  -9.181129
 366  442.5439
 367  421.1506
 368  285.4821
 369  470.6302
 370  638.0547
 371  458.8395
 372  361.6083
 373  238.059
 374  62.10695
 375  143.4799
 376  -0.4730044
 377  71.3936
 378  434.3586
 379  334.7767
 380  95.87907
 381  27.55688
 382  32.54028
 383  279.6913
 384  512.2031
 385  767.6069
 386  750.2751
 387  636.7927
 388  500.6546
 389  361.0012
 390  473.1557
 391  232.3605
 392  321.1993
 393  331.7088
 394  134.4668
 395  117.3656
 396  -65.28976
 397  273.3277
 398  399.4319
 399  158.8932
 400  112.9686
 401  79.55867
 402  167.4072
 403  330.1382
 404  274.7906
 405  427.7353
 406  172.516
 407  -45.85847
 408  -42.85455
 409  -426.2579
 410  -379.6897
 411  115.1305
 412  158.8383
 413  -148.835
 414  -135.9115
 415  -19.36149
 416  186.3348
 417  478.3504
 418  782.746
 419  848.3671
 420  780.3111
 421  382.4705
 422  -36.64059
 423  -289.0766
 424  375.9999
 425  787.9044
 426  721.4167
 427  466.8707
 428  566.6999
 429  311.1317
 430  371.5598
 431  167.9701
 432  246.5236
 433  143.8984
 434  185.3131
 435  325.5399
 436  530.0736
 437  347.3617
 438  119.3366
 439  171.1787
 440  261.3449
 441  305.4324
 442  204.6324
 443  447.3409
 444  608.2043
 445  318.8145
 446  290.8949
 447  281.0714
 448  530.955
 449  377.8555
 450  416.1282
 451  755.8196
 452  858.5977
 453  713.6558
 454  880.2261
 455  524.559
 456  210.9052
 457  277.1136
 458  386.0996
 459  472.0837
 460  493.9491
 461  386.8879
 462  400.8683
 463  397.3543
 464  233.9231
 465  399.7861
 466  728.1715
 467  702.7241
 468  1155.482
 469  793.9572
 470  567.6266
 471  445.919
 472  364.082
 473  564.8663
 474  645.2982
 475  376.6516
 476  667.4998
 477  554.3661
 478  315.0869
 479  456.757
 480  399.6655
 481  479.8953
 482  327.5993
 483  175.6013
 484  373.282
 485  152.622
 486  124.7027
 487  197.9446
 488  335.5349
 489  149.4331
 490  239.6862
 491  17.87082
 492  158.769
 493  -186.769
 494  -49.26111
 495  247.7697
 496  211.9563
 497  -1.843062
 498  -160.2609
 499  -60.95586
 500  -105.0779
 501  114.8873
 502  -64.20055
 503  -424.5721
 504  -502.0811
 505  -471.1103
 506  -300.3639
 507  -371.1942
 508  -212.3653
 509  -179.0598
 510  -335.7122
 511  -392.2394
