# Input file       =  1207894977.102396_cleaned.dat
# Candidate        =  PSR_0332+5434
# Telescope        =  AR
# Epoch_topo       =  58224.266158592545
# Epoch_bary       =  N/A
# T_sample         =  0.002
# Data Folded      =  7208960
# Data Avg         =  0.237816566296598
# Data StdDev      =  5.67575929581912 
# Profile Bins     =  256
# Profile Avg      =  6697.44725454121 
# Profile StdDev   =  952.445851126253 
# Reduced chi-sqr  =  2.338
# Prob(Noise)      <  2.31e-29   (~11.2 sigma)
# P_topo (ms)      =  714.559172025403  +/- 2.18e-05
# P'_topo (s/s)    =  -0                +/- 1.17e-11
# P''_topo (s/s^2) =  0                 +/- 5.26e-15
# P_bary (ms)      =  N/A
# P'_bary (s/s)    =  N/A
# P''_bary (s/s^2) =  N/A
# P_orb (s)        =  N/A
# asin(i)/c (s)    =  N/A
# eccentricity     =  N/A
# w (rad)          =  N/A
# T_peri           =  N/A
######################################################
   0  5330.747
   1  5800.75
   2  7735.292
   3  7647.149
   4  6067.622
   5  6184.863
   6  7697.487
   7  5830.14
   8  5347.174
   9  5013.046
  10  7770.699
  11  7226.809
  12  7341.172
  13  6046.562
  14  8710.793
  15  6714.275
  16  5792.788
  17  4172.95
  18  7122.548
  19  8023.757
  20  8004.234
  21  5833.696
  22  6956.132
  23  7561.945
  24  7389.272
  25  4267.694
  26  5615.461
  27  7792.512
  28  8861.006
  29  6537.938
  30  5911.432
  31  8310.199
  32  7645.559
  33  5189.451
  34  5411.928
  35  8031.483
  36  8935.631
  37  7549.024
  38  6603.668
  39  7775.938
  40  6902.573
  41  6218.44
  42  4426.611
  43  6407.399
  44  7560.429
  45  6912.656
  46  5536.444
  47  7271.156
  48  7024.157
  49  5490.59
  50  4608.198
  51  6594.88
  52  7692.199
  53  7469.491
  54  5556.496
  55  7151.64
  56  7376.326
  57  7248.609
  58  5429.739
  59  5976.966
  60  7859.612
  61  8068.687
  62  5450.938
  63  6214.329
  64  8103.924
  65  7399.744
  66  4430.673
  67  4137.724
  68  7439.875
  69  8459.082
  70  7667.163
  71  5398.824
  72  7765.533
  73  7531.19
  74  7135.862
  75  4620.13
  76  7214.792
  77  8447.181
  78  8146.283
  79  6070.004
  80  6568.657
  81  7384.834
  82  7362.82
  83  4591.964
  84  6355.411
  85  7563.609
  86  7889.125
  87  6071.382
  88  7552.597
  89  7799.489
  90  6720.332
  91  4806.86
  92  5885.854
  93  7787.427
  94  7830.86
  95  7023.577
  96  7689.39
  97  8344.926
  98  6731.417
  99  5800.7
 100  5301.521
 101  7699.322
 102  8852.398
 103  7167.097
 104  5508.601
 105  8177.945
 106  8298.351
 107  5988.101
 108  4438.448
 109  7320.908
 110  8059.729
 111  7876.071
 112  5004.296
 113  6227.092
 114  7308.467
 115  6196.774
 116  4004.425
 117  5787.075
 118  7841.056
 119  7737.708
 120  6280.615
 121  6914.497
 122  7678.379
 123  6775.509
 124  4649.541
 125  5445.708
 126  7359.373
 127  6977.267
 128  6659.815
 129  6893.084
 130  7158.905
 131  7049.489
 132  6239.613
 133  4922.669
 134  7232.177
 135  7534.988
 136  6845.513
 137  6063.403
 138  7823.834
 139  7892.672
 140  6108.991
 141  4785.729
 142  7496.2
 143  8586.671
 144  7420.103
 145  5419.72
 146  7892.029
 147  8306.507
 148  7700.827
 149  5168.041
 150  10880.22
 151  11895.56
 152  9787.614
 153  5821.548
 154  6301.739
 155  8079.859
 156  7016.938
 157  4820.142
 158  5171.026
 159  7297.129
 160  8351.688
 161  6629.881
 162  5891.52
 163  7998.663
 164  7017.313
 165  6018.68
 166  4640.489
 167  7837.562
 168  7845.476
 169  7032.453
 170  5568.247
 171  7425.913
 172  6787.127
 173  6167.907
 174  4606.193
 175  6633.528
 176  7292.054
 177  7487.52
 178  6164.473
 179  7012.63
 180  7978.867
 181  6630.52
 182  4964.789
 183  7100.721
 184  8194.663
 185  7241.287
 186  5803.429
 187  6908.595
 188  7884.507
 189  5997.086
 190  4486.543
 191  5055.333
 192  7326.685
 193  8029.568
 194  6063.908
 195  5780.414
 196  8240.314
 197  7593.038
 198  4934.867
 199  3454.671
 200  7132.655
 201  7400.595
 202  6517.571
 203  5286.361
 204  6852.265
 205  6749.62
 206  5607.964
 207  4096.767
 208  5737.195
 209  7422.112
 210  7397.006
 211  4880.811
 212  6246.795
 213  6954.541
 214  6238.583
 215  4327.602
 216  6172.781
 217  7104.153
 218  7583.972
 219  6179.52
 220  6999.565
 221  6985.718
 222  6580.371
 223  5182.606
 224  6458.145
 225  8466.358
 226  7500.74
 227  5524.651
 228  6652.292
 229  7948.14
 230  7070.156
 231  4647.854
 232  4330.794
 233  7782.966
 234  7518.475
 235  6986.043
 236  4876.361
 237  7035.29
 238  7251.79
 239  6787.448
 240  3389.828
 241  5938.712
 242  8440.255
 243  7861.137
 244  5492.683
 245  6244.479
 246  6915.908
 247  6542.339
 248  4455.81
 249  4985.016
 250  6284.333
 251  7663.825
 252  6469.886
 253  6310.06
 254  7563.099
 255  6347.738
