# Input file       =  1207981188.104769_cleaned.dat
# Candidate        =  PSR_0332+5434
# Telescope        =  AR
# Epoch_topo       =  58225.263971120010
# Epoch_bary       =  N/A
# T_sample         =  0.002
# Data Folded      =  7143424
# Data Avg         =  0.0174777072576896
# Data StdDev      =  1.00002876262777 
# Profile Bins     =  512
# Profile Avg      =  243.871656932115 
# Profile StdDev   =  118.121981882745 
# Reduced chi-sqr  =  2.142
# Prob(Noise)      <  1.39e-44   (~14.0 sigma)
# P_topo (ms)      =  714.558387044901  +/- 0.000193
# P'_topo (s/s)    =  -0                +/- 1.05e-10
# P''_topo (s/s^2) =  0                 +/- 4.74e-14
# P_bary (ms)      =  N/A
# P'_bary (s/s)    =  N/A
# P''_bary (s/s^2) =  N/A
# P_orb (s)        =  N/A
# asin(i)/c (s)    =  N/A
# eccentricity     =  N/A
# w (rad)          =  N/A
# T_peri           =  N/A
######################################################
   0  15.87722
   1  182.1826
   2  343.3391
   3  278.5284
   4  142.474
   5  139.3211
   6  292.8577
   7  371.9559
   8  272.949
   9  265.6947
  10  239.5734
  11  301.4653
  12  278.5495
  13  358.6842
  14  344.7628
  15  275.642
  16  218.069
  17  293.5373
  18  284.9108
  19  330.5949
  20  247.5336
  21  248.3503
  22  234.7999
  23  299.9118
  24  294.4671
  25  195.8306
  26  339.6306
  27  424.8177
  28  299.12
  29  222.7415
  30  184.2989
  31  243.0381
  32  280.6039
  33  392.5329
  34  347.4681
  35  221.4572
  36  228.6364
  37  266.9512
  38  233.7887
  39  291.8859
  40  382.4363
  41  399.6469
  42  424.7155
  43  258.6458
  44  168.3587
  45  398.0746
  46  222.7693
  47  233.181
  48  190.5558
  49  266.3625
  50  185.6574
  51  128.418
  52  196.8951
  53  134.388
  54  157.3754
  55  230.434
  56  357.1835
  57  386.2803
  58  409.0395
  59  299.5607
  60  314.0025
  61  267.2586
  62  208.8082
  63  197.5472
  64  182.3931
  65  221.7424
  66  103.097
  67  25.59598
  68  203.6768
  69  160.662
  70  8.128718
  71  149.2899
  72  229.7958
  73  266.789
  74  139.0505
  75  186.7477
  76  256.0176
  77  184.2156
  78  80.06136
  79  63.3511
  80  86.24752
  81  197.0439
  82  269.9457
  83  190.5565
  84  122.4946
  85  146.7559
  86  118.3848
  87  250.727
  88  274.0931
  89  228.6063
  90  190.7611
  91  166.8847
  92  223.7504
  93  173.4407
  94  224.8829
  95  271.5351
  96  244.9348
  97  124.6539
  98  175.3566
  99  208.4693
 100  240.8437
 101  254.9286
 102  151.878
 103  275.1485
 104  160.0314
 105  105.1873
 106  189.3964
 107  324.2915
 108  287.2666
 109  278.0369
 110  195.9718
 111  162.1662
 112  181.5422
 113  211.2032
 114  248.0824
 115  193.0541
 116  50.12593
 117  29.45213
 118  211.2496
 119  308.6996
 120  269.6404
 121  396.2076
 122  447.1977
 123  329.8813
 124  211.1673
 125  181.3097
 126  279.666
 127  253.7466
 128  242.2017
 129  192.0996
 130  262.4707
 131  311.095
 132  261.3918
 133  126.0852
 134  104.5664
 135  205.6787
 136  154.1051
 137  146.5976
 138  237.0155
 139  144.6086
 140  218.9137
 141  352.0845
 142  232.3474
 143  10.5414
 144  -14.9892
 145  128.7594
 146  261.7238
 147  230.5126
 148  86.34222
 149  147.9928
 150  123.2581
 151  169.0336
 152  112.9171
 153  186.6902
 154  296.9947
 155  153.2897
 156  310.0739
 157  301.7942
 158  223.476
 159  176.7493
 160  177.3878
 161  262.5336
 162  342.023
 163  231.5123
 164  170.5848
 165  130.985
 166  190.7285
 167  153.7905
 168  96.86763
 169  79.15445
 170  149.5336
 171  292.2022
 172  412.2869
 173  471.5088
 174  332.6845
 175  269.6215
 176  298.525
 177  255.0369
 178  139.9469
 179  57.24437
 180  75.31297
 181  175.5591
 182  321.3206
 183  92.60436
 184  133.6025
 185  284.3478
 186  252.2398
 187  152.996
 188  266.667
 189  273.7965
 190  269.3863
 191  278.3151
 192  297.3487
 193  219.683
 194  142.1779
 195  222.925
 196  82.11223
 197  202.8166
 198  164.3315
 199  219.0065
 200  97.95331
 201  62.92458
 202  139.9521
 203  187.0292
 204  201.3654
 205  180.1521
 206  257.7684
 207  272.4083
 208  166.2596
 209  312.4678
 210  310.1089
 211  124.7787
 212  204.7389
 213  196.565
 214  165.5745
 215  209.2865
 216  183.6218
 217  301.4205
 218  172.081
 219  130.0846
 220  -3.11307
 221  14.60714
 222  188.8458
 223  142.6096
 224  194.2571
 225  225.4248
 226  146.2705
 227  84.82628
 228  142.8962
 229  205.9466
 230  138.8931
 231  142.1178
 232  65.7471
 233  147.8089
 234  219.562
 235  250.8542
 236  221.9
 237  357.6492
 238  227.9899
 239  254.4314
 240  279.8123
 241  333.9282
 242  238.4762
 243  131.1981
 244  94.41032
 245  175.1016
 246  71.79751
 247  136.1179
 248  128.407
 249  110.393
 250  268.6166
 251  252.1465
 252  177.847
 253  139.3705
 254  186.2558
 255  354.0667
 256  335.6812
 257  370.1618
 258  302.3391
 259  332.5781
 260  401.5262
 261  314.5826
 262  317.5692
 263  279.5303
 264  166.531
 265  118.2329
 266  114.2002
 267  285.7206
 268  222.6479
 269  323.9779
 270  483.7555
 271  405.7053
 272  377.5675
 273  243.0508
 274  282.4181
 275  288.8535
 276  249.548
 277  336.0613
 278  345.1907
 279  375.5615
 280  357.1491
 281  341.3893
 282  264.7965
 283  263.8996
 284  258.0952
 285  145.7421
 286  126.4749
 287  178.6481
 288  298.9997
 289  321.8741
 290  502.8676
 291  458.3718
 292  445.8287
 293  456.3269
 294  566.5581
 295  708.1417
 296  989.4642
 297  1241.44
 298  1216.397
 299  1064.657
 300  712.99
 301  483.846
 302  344.565
 303  352.3387
 304  311.8746
 305  268.6486
 306  211.1434
 307  174.3667
 308  252.0014
 309  288.126
 310  219.1866
 311  225.8764
 312  349.7179
 313  305.789
 314  263.7937
 315  328.6886
 316  272.0316
 317  371.9752
 318  240.3043
 319  254.2121
 320  328.2242
 321  233.7761
 322  238.4417
 323  321.5734
 324  321.5882
 325  260.8257
 326  411.8644
 327  335.5324
 328  248.8894
 329  262.74
 330  284.8894
 331  241.6174
 332  244.0561
 333  325.3169
 334  191.3153
 335  212.0299
 336  276.9518
 337  343.9911
 338  274.1756
 339  287.5013
 340  277.9151
 341  331.4262
 342  331.7358
 343  337.7282
 344  342.8785
 345  349.665
 346  227.7808
 347  234.6184
 348  355.3263
 349  322.2652
 350  254.4568
 351  227.3262
 352  248.7146
 353  300.096
 354  330.7698
 355  340.1722
 356  294.4489
 357  163.3309
 358  223.5601
 359  56.86505
 360  145.1702
 361  231.4401
 362  140.9783
 363  67.93964
 364  164.6604
 365  257.492
 366  185.4653
 367  146.3992
 368  178.4228
 369  161.1671
 370  172.8341
 371  218.4295
 372  265.454
 373  102.6689
 374  176.5824
 375  184.2155
 376  237.5133
 377  308.1809
 378  262.437
 379  225.8044
 380  122.4484
 381  54.1983
 382  79.58485
 383  135.7466
 384  174.6213
 385  150.3866
 386  165.7199
 387  146.4904
 388  293.708
 389  394.0439
 390  244.9933
 391  122.0968
 392  78.49754
 393  78.83994
 394  109.8922
 395  213.3232
 396  258.7757
 397  153.2854
 398  192.7836
 399  193.1964
 400  213.463
 401  255.5106
 402  315.9499
 403  393.4341
 404  107.5003
 405  305.7181
 406  253.34
 407  309.6661
 408  354.4743
 409  181.1885
 410  195.4898
 411  304.1033
 412  266.9294
 413  136.786
 414  271.097
 415  291.0898
 416  286.7756
 417  290.7122
 418  220.1767
 419  256.862
 420  294.7899
 421  241.6272
 422  270.3606
 423  139.4486
 424  249.8434
 425  292.6315
 426  219.4432
 427  283.4528
 428  399.3938
 429  355.6115
 430  254.4936
 431  193.5113
 432  123.1466
 433  141.0833
 434  55.53489
 435  229.2779
 436  304.1219
 437  228.683
 438  111.913
 439  291.5937
 440  203.8904
 441  294.7556
 442  219.0103
 443  332.747
 444  459.9324
 445  321.1414
 446  244.3292
 447  205.2876
 448  168.8526
 449  351.8752
 450  230.9484
 451  128.9221
 452  243.3639
 453  257.3736
 454  320.4392
 455  424.1298
 456  385.1091
 457  296.141
 458  218.3125
 459  185.1005
 460  205.7621
 461  120.3637
 462  223.1634
 463  122.7207
 464  41.90155
 465  181.9957
 466  316.0783
 467  261.9616
 468  239.6262
 469  283.2915
 470  312.5407
 471  325.0322
 472  366.0093
 473  284.5403
 474  149.1864
 475  191.3294
 476  254.3494
 477  97.17756
 478  -2.239221
 479  61.35892
 480  286.0302
 481  271.0188
 482  201.628
 483  284.7859
 484  309.2397
 485  392.0605
 486  326.6133
 487  517.5666
 488  408.8177
 489  256.0916
 490  174.5595
 491  172.6969
 492  211.6786
 493  323.2468
 494  395.8775
 495  346.6108
 496  258.4823
 497  215.8517
 498  244.6611
 499  289.0739
 500  176.4735
 501  319.0971
 502  225.6767
 503  187.0776
 504  137.1643
 505  156.9229
 506  225.7489
 507  272.5623
 508  298.2427
 509  157.8633
 510  132.7276
 511  179.1626
