# Input file       =  1207737281.096036_cleaned.dat
# Candidate        =  PSR_0332+5434
# Telescope        =  AR
# Epoch_topo       =  58222.440973333752
# Epoch_bary       =  N/A
# T_sample         =  0.002
# Data Folded      =  7340032
# Data Avg         =  0.0226230501510091
# Data StdDev      =  1.00005874109861 
# Profile Bins     =  512
# Profile Avg      =  324.282201638744 
# Profile StdDev   =  119.740069626863 
# Reduced chi-sqr  =  4.095
# Prob(Noise)      <  7.73e-190   (~29.4 sigma)
# P_topo (ms)      =  714.560595724714  +/- 0.00043
# P'_topo (s/s)    =  -0                +/- 2.27e-10
# P''_topo (s/s^2) =  0                 +/- 1e-13
# P_bary (ms)      =  N/A
# P'_bary (s/s)    =  N/A
# P''_bary (s/s^2) =  N/A
# P_orb (s)        =  N/A
# asin(i)/c (s)    =  N/A
# eccentricity     =  N/A
# w (rad)          =  N/A
# T_peri           =  N/A
######################################################
   0  160.1282
   1  169.0671
   2  147.9238
   3  160.4297
   4  270.3316
   5  298.505
   6  265.1656
   7  309.4637
   8  371.5988
   9  382.4206
  10  378.7425
  11  368.9987
  12  295.0054
  13  348.054
  14  429.3643
  15  377.6091
  16  407.5627
  17  394.5951
  18  316.714
  19  298.54
  20  264.3277
  21  281.8222
  22  334.5117
  23  364.7751
  24  376.1777
  25  384.5693
  26  282.1773
  27  268.3633
  28  299.1367
  29  384.4672
  30  469.5835
  31  424.7609
  32  329.1246
  33  314.6483
  34  265.4307
  35  321.7757
  36  303.8477
  37  315.9612
  38  309.9514
  39  270.2451
  40  238.8279
  41  240.7863
  42  344.6277
  43  309.7964
  44  340.0192
  45  301.6411
  46  281.8727
  47  366.5901
  48  326.6546
  49  294.9757
  50  271.1089
  51  290.694
  52  286.4825
  53  276.8908
  54  286.7474
  55  279.0006
  56  257.7605
  57  154.3068
  58  183.9875
  59  255.6197
  60  185.0479
  61  187.9596
  62  194.8921
  63  186.8751
  64  161.7335
  65  174.3409
  66  234.5631
  67  183.6988
  68  201.159
  69  268.5497
  70  266.4406
  71  259.6378
  72  348.5978
  73  347.87
  74  268.4249
  75  342.6548
  76  386.1422
  77  383.9839
  78  397.3192
  79  387.016
  80  351.1586
  81  326.0727
  82  404.6251
  83  402.4011
  84  427.5103
  85  449.0081
  86  452.7857
  87  438.1894
  88  505.9734
  89  457.7691
  90  423.8052
  91  493.0745
  92  465.7062
  93  433.8341
  94  379.971
  95  405.0349
  96  308.3399
  97  315.6418
  98  422.2511
  99  344.2638
 100  366.1738
 101  391.1638
 102  326.9431
 103  289.3806
 104  344.9561
 105  370.3714
 106  382.6801
 107  386.8331
 108  367.5085
 109  286.8358
 110  267.6068
 111  241.2024
 112  277.3759
 113  354.8944
 114  316.0649
 115  276.041
 116  270.5137
 117  270.8551
 118  190.7614
 119  167.6375
 120  172.518
 121  245.2
 122  220.5283
 123  203.9306
 124  208.9897
 125  119.9276
 126  254.0686
 127  292.6511
 128  256.8539
 129  269.1577
 130  248.3584
 131  294.4944
 132  223.5149
 133  251.0003
 134  287.4898
 135  315.7704
 136  269.7522
 137  349.5827
 138  336.4853
 139  333.4449
 140  370.5494
 141  303.5364
 142  272.2162
 143  369.0318
 144  362.1163
 145  386.4243
 146  342.7042
 147  334.6683
 148  377.037
 149  387.8846
 150  421.6577
 151  519.5198
 152  509.1882
 153  433.5209
 154  417.8006
 155  362.427
 156  455.8259
 157  516.869
 158  490.175
 159  500.4941
 160  496.3606
 161  409.328
 162  504.4351
 163  516.8423
 164  557.1813
 165  486.2611
 166  434.9395
 167  418.767
 168  439.6101
 169  423.0215
 170  386.2614
 171  472.3306
 172  410.3795
 173  467.6754
 174  503.0228
 175  424.6432
 176  446.8161
 177  442.5809
 178  435.8698
 179  434.3022
 180  393.9146
 181  345.8196
 182  289.1552
 183  406.7693
 184  525.5678
 185  543.118
 186  499.0434
 187  554.7882
 188  537.0182
 189  522.4091
 190  522.0853
 191  450.8337
 192  392.1791
 193  454.26
 194  447.4987
 195  414.1896
 196  413.8855
 197  501.2417
 198  594.8152
 199  624.4965
 200  604.3157
 201  576.8358
 202  654.451
 203  800.3253
 204  1076.184
 205  1305.704
 206  1423.997
 207  1363.46
 208  1128.428
 209  835.8085
 210  625.6959
 211  516.7111
 212  496.0168
 213  476.2125
 214  432.5535
 215  463.6118
 216  488.4498
 217  440.6666
 218  513.04
 219  533.0079
 220  524.256
 221  489.0085
 222  503.8583
 223  480.6417
 224  438.347
 225  394.2032
 226  506.8982
 227  496.479
 228  528.3334
 229  551.0259
 230  566.0668
 231  537.0803
 232  527.0059
 233  562.8098
 234  633.957
 235  619.9306
 236  622.3113
 237  645.092
 238  616.3275
 239  587.2462
 240  634.1418
 241  584.2179
 242  524.7819
 243  546.1425
 244  462.5581
 245  428.2167
 246  493.4688
 247  448.1497
 248  429.022
 249  469.2444
 250  459.9453
 251  430.687
 252  406.5529
 253  424.6851
 254  434.1989
 255  393.4267
 256  401.6885
 257  382.9305
 258  331.0199
 259  371.1082
 260  370.0697
 261  347.8194
 262  355.254
 263  409.906
 264  367.9819
 265  371.3659
 266  349.9348
 267  353.1862
 268  394.316
 269  320.1419
 270  264.4024
 271  281.448
 272  398.6465
 273  396.8297
 274  316.1928
 275  213.4552
 276  172.4494
 277  248.3575
 278  310.2917
 279  296.6294
 280  301.7349
 281  293.3355
 282  344.6532
 283  385.844
 284  359.9442
 285  314.1933
 286  253.18
 287  217.9022
 288  360.932
 289  343.0916
 290  336.6556
 291  248.8031
 292  311.292
 293  387.8249
 294  377.3841
 295  294.6714
 296  333.008
 297  440.9441
 298  441.9667
 299  435.5973
 300  402.9855
 301  394.2769
 302  399.3134
 303  496.8395
 304  561.4716
 305  568.4048
 306  573.831
 307  589.6492
 308  595.7396
 309  501.9995
 310  483.0372
 311  513.2938
 312  560.002
 313  526.5878
 314  515.5502
 315  489.7769
 316  388.983
 317  481.0554
 318  416.309
 319  402.6963
 320  478.9964
 321  474.6079
 322  476.9166
 323  476.2672
 324  432.6594
 325  481.7501
 326  496.9079
 327  472.6131
 328  457.4146
 329  487.8967
 330  397.8619
 331  352.2321
 332  370.9327
 333  416.3183
 334  389.1666
 335  335.5593
 336  389.3703
 337  395.6998
 338  375.1647
 339  283.5097
 340  276.9513
 341  292.8014
 342  287.9018
 343  302.1158
 344  238.57
 345  283.9651
 346  244.3187
 347  150.8372
 348  216.6397
 349  149.2484
 350  183.0121
 351  198.5856
 352  166.2608
 353  112.0067
 354  170.8382
 355  184.8526
 356  184.224
 357  323.2319
 358  289.2862
 359  160.327
 360  138.7823
 361  188.3531
 362  183.5207
 363  188.4453
 364  214.7181
 365  204.1033
 366  240.3206
 367  247.3139
 368  190.5407
 369  244.5812
 370  276.1499
 371  227.0794
 372  222.7061
 373  201.3551
 374  233.2698
 375  237.9299
 376  171.0127
 377  143.1611
 378  219.9009
 379  203.8774
 380  174.2805
 381  181.7291
 382  222.773
 383  196.1168
 384  152.9328
 385  85.73623
 386  131.9482
 387  130.8881
 388  85.11929
 389  136.018
 390  185.6621
 391  166.303
 392  136.5722
 393  138.5233
 394  150.6941
 395  125.011
 396  119.5091
 397  61.41207
 398  137.1362
 399  89.84035
 400  32.25111
 401  42.73269
 402  59.20581
 403  84.43966
 404  77.77117
 405  185.2039
 406  120.3421
 407  60.08675
 408  82.01758
 409  146.9717
 410  107.1767
 411  41.02833
 412  36.89482
 413  77.00371
 414  -1.197209
 415  25.89544
 416  79.58266
 417  117.8652
 418  61.76429
 419  -8.073887
 420  51.45635
 421  76.30735
 422  46.39172
 423  66.80028
 424  54.39561
 425  73.61622
 426  55.34679
 427  85.28739
 428  56.13292
 429  23.25517
 430  111.1213
 431  181.8915
 432  182.1292
 433  211.5346
 434  136.8558
 435  158.6595
 436  208.1741
 437  270.6735
 438  172.064
 439  180.8957
 440  384.4613
 441  352.527
 442  309.9093
 443  215.7354
 444  232.5903
 445  217.7111
 446  284.4038
 447  348.6334
 448  344.2028
 449  347.3625
 450  362.6693
 451  408.847
 452  406.12
 453  401.021
 454  377.7289
 455  430.3307
 456  406.8118
 457  429.5339
 458  379.6801
 459  341.0571
 460  361.5883
 461  380.1088
 462  313.3248
 463  329.4898
 464  232.5668
 465  260.2282
 466  335.7527
 467  283.0068
 468  233.5269
 469  189.0392
 470  173.4545
 471  185.3889
 472  197.1366
 473  258.7427
 474  180.5146
 475  160.5356
 476  179.6141
 477  188.0298
 478  129.3261
 479  113.7802
 480  77.53114
 481  101.4185
 482  159.4379
 483  157.7348
 484  225.7151
 485  136.8673
 486  46.88644
 487  101.4829
 488  119.6624
 489  151.0504
 490  122.1732
 491  114.2954
 492  93.48714
 493  18.50413
 494  58.1032
 495  48.59782
 496  17.83211
 497  -12.21194
 498  46.97227
 499  46.11348
 500  32.98681
 501  75.19378
 502  95.54612
 503  81.33877
 504  29.86717
 505  124.3482
 506  74.04785
 507  26.34402
 508  96.75819
 509  172.6013
 510  177.8505
 511  190.9081
