# Input file       =  1207838381.10396_cleaned.dat
# Candidate        =  PSR_0332+5434
# Telescope        =  AR
# Epoch_topo       =  58223.611112314349
# Epoch_bary       =  N/A
# T_sample         =  0.002
# Data Folded      =  7340032
# Data Avg         =  0.203670491369848
# Data StdDev      =  5.19029551763367 
# Profile Bins     =  512
# Profile Avg      =  2919.83521809093 
# Profile StdDev   =  621.449842018999 
# Reduced chi-sqr  =  1.675
# Prob(Noise)      <  8.04e-20   (~9.0 sigma)
# P_topo (ms)      =  714.560036471698  +/- 0.000205
# P'_topo (s/s)    =  -0                +/- 1.08e-10
# P''_topo (s/s^2) =  0                 +/- 4.79e-14
# P_bary (ms)      =  N/A
# P'_bary (s/s)    =  N/A
# P''_bary (s/s^2) =  N/A
# P_orb (s)        =  N/A
# asin(i)/c (s)    =  N/A
# eccentricity     =  N/A
# w (rad)          =  N/A
# T_peri           =  N/A
######################################################
   0  2841.109
   1  2865.853
   2  3006.459
   3  2631.238
   4  2427.773
   5  2709.267
   6  3223.304
   7  3143.716
   8  3022.614
   9  2993.256
  10  3257.76
  11  3553.134
  12  3241.812
  13  3390.34
  14  3588.962
  15  3613.694
  16  4040.983
  17  4073.552
  18  3750.096
  19  3982.822
  20  4044.513
  21  3626.086
  22  3970.596
  23  3735.289
  24  4050.2
  25  3916.329
  26  3497.628
  27  3549.242
  28  3617.999
  29  3711.5
  30  3563.682
  31  3371.745
  32  3452.059
  33  3599.998
  34  3192.408
  35  2971.768
  36  2972.826
  37  2844.487
  38  2974.933
  39  3091.592
  40  3042.414
  41  3161.224
  42  3218.163
  43  3350.246
  44  3103.004
  45  2809.2
  46  2661.887
  47  3022.274
  48  2979.874
  49  2912.585
  50  2932.289
  51  2993.819
  52  2859.805
  53  2936.719
  54  2778.476
  55  3269.969
  56  2869.214
  57  2721.758
  58  2740.006
  59  3133.761
  60  2819.826
  61  2588.207
  62  2607.405
  63  3002.551
  64  2674.538
  65  2650.836
  66  2963.067
  67  2788.872
  68  2847.023
  69  2669.377
  70  2658.895
  71  2857.434
  72  2921.094
  73  3387.6
  74  3398.465
  75  3243.535
  76  2932.416
  77  2881.804
  78  3021.891
  79  3428.877
  80  3825.433
  81  3669.228
  82  3334.763
  83  3390.435
  84  3526.247
  85  3687.872
  86  3867.984
  87  3607.317
  88  3376.587
  89  3385.174
  90  3695.407
  91  3982.303
  92  3794.376
  93  3882.517
  94  3965.091
  95  3984.468
  96  3414.058
  97  3414.06
  98  3548.201
  99  3580.349
 100  3557.727
 101  3379.031
 102  3055.72
 103  2846.011
 104  2904.338
 105  2714.181
 106  2919.1
 107  3093.552
 108  2678.505
 109  2664.147
 110  2641.169
 111  2394.458
 112  2091.27
 113  2020.639
 114  2187.468
 115  2749.633
 116  2763.828
 117  2406.941
 118  2543.176
 119  2591.047
 120  2722.195
 121  2640.575
 122  2395.538
 123  2491.475
 124  2658.54
 125  2853.537
 126  2473.741
 127  2558.84
 128  2173.828
 129  2426.541
 130  2343.452
 131  2733.873
 132  3042.042
 133  2575.924
 134  2405.128
 135  2283.941
 136  2318.93
 137  2146.275
 138  2180.682
 139  2493.625
 140  2591.267
 141  2269.602
 142  2143.991
 143  2092.689
 144  2267.94
 145  2128.131
 146  2477.663
 147  2286.678
 148  1929.544
 149  2100.639
 150  2299.226
 151  2333.848
 152  2355.291
 153  2527.895
 154  2883.015
 155  2870.498
 156  2643.256
 157  2713.836
 158  2737.445
 159  3051.425
 160  3333.238
 161  3306.137
 162  3450.946
 163  3525.209
 164  3286.278
 165  3495.712
 166  3584.997
 167  3588.892
 168  3363.768
 169  3425.577
 170  3472.404
 171  3198.83
 172  2986.142
 173  3042.874
 174  2851.904
 175  2657.804
 176  2560.452
 177  2589.792
 178  2305.673
 179  2241.723
 180  2686.196
 181  2876.489
 182  2917.163
 183  2847.321
 184  2784.415
 185  2684.419
 186  2464.49
 187  2546.19
 188  2771.184
 189  3034.46
 190  2758.583
 191  2156.557
 192  2406.018
 193  2218.562
 194  1803.489
 195  1815.494
 196  2067.132
 197  2379.41
 198  2221.696
 199  2123.802
 200  1778.414
 201  1973.921
 202  2224.14
 203  2017.052
 204  2183.182
 205  2533.908
 206  2323.157
 207  2685.917
 208  2499.927
 209  2552.968
 210  2594.156
 211  2676.803
 212  2691.392
 213  2882.269
 214  2556.435
 215  2235.804
 216  2383.424
 217  2935.324
 218  2859.94
 219  2766.863
 220  3012.671
 221  2922.556
 222  2991.226
 223  2980.706
 224  2969.446
 225  2838.701
 226  2902.691
 227  2950.406
 228  3329.246
 229  3360.334
 230  3262.919
 231  3528.048
 232  3548.451
 233  3215.541
 234  3462.776
 235  3591.382
 236  3538.734
 237  3552.155
 238  3379.219
 239  3508.767
 240  3572.182
 241  3316.775
 242  3171.753
 243  3174.254
 244  2924.279
 245  3256.727
 246  3301.146
 247  3143.271
 248  2934.819
 249  2781.213
 250  2708.192
 251  2689.944
 252  2919.69
 253  2954.731
 254  2605.613
 255  2696.979
 256  2917.703
 257  2912.053
 258  2851.693
 259  2578.369
 260  2574.293
 261  2499.117
 262  2280.485
 263  2329.793
 264  2407.466
 265  2456.083
 266  2184.327
 267  2141.539
 268  2417.909
 269  2139.568
 270  2225.702
 271  2475.329
 272  2029.331
 273  1864.891
 274  1941.573
 275  2221.448
 276  2558.468
 277  2463.673
 278  2058.775
 279  2292.432
 280  2306.818
 281  2725.434
 282  2863.567
 283  2931.719
 284  2948.023
 285  3053.738
 286  3065.995
 287  2872.461
 288  2798.913
 289  2593.614
 290  2820.785
 291  2740.03
 292  2839.031
 293  3262.848
 294  3131.498
 295  2667.512
 296  3125.175
 297  3744.669
 298  4173.796
 299  4769.896
 300  5266.449
 301  6079.296
 302  6228.746
 303  5635.97
 304  5069.69
 305  4732.515
 306  4325.458
 307  3823.445
 308  3462.187
 309  3608.435
 310  3516.494
 311  3879.37
 312  4163.854
 313  3804.926
 314  3603.523
 315  3693.098
 316  3698.744
 317  3456.609
 318  3376.14
 319  3485.432
 320  3318.962
 321  3087.845
 322  3062.057
 323  2922.314
 324  2715.212
 325  2545.01
 326  2753.068
 327  3369.052
 328  3292.478
 329  2872.63
 330  2934.298
 331  3181.833
 332  3064.607
 333  2890.832
 334  3302.59
 335  3595.39
 336  3321.981
 337  3274.013
 338  3324.648
 339  2943.349
 340  2918.516
 341  2892.949
 342  2724.377
 343  2592.328
 344  2523.453
 345  2593.919
 346  2515.82
 347  2658.908
 348  2130.685
 349  2534.655
 350  2674.805
 351  2626.142
 352  2374.151
 353  2236.863
 354  2322.982
 355  2778.942
 356  2723.975
 357  2755.787
 358  2586.459
 359  2653.337
 360  2662.122
 361  2720.276
 362  3153.077
 363  3117.102
 364  3186.779
 365  3153.794
 366  3021.853
 367  2943.281
 368  3081.156
 369  3289.049
 370  3389.615
 371  3500.824
 372  3567.938
 373  3654.824
 374  4104.008
 375  3751.271
 376  3921.681
 377  3819.9
 378  3842.253
 379  3787.829
 380  3542.275
 381  3554.414
 382  3942.04
 383  3793.416
 384  3510.741
 385  3605.786
 386  3565.633
 387  3495.092
 388  3595.614
 389  3420.025
 390  3278.126
 391  3377.282
 392  3380.479
 393  3183.563
 394  3364.973
 395  3098.101
 396  3214.375
 397  3066.862
 398  3039.174
 399  3215.085
 400  3441.3
 401  2948.17
 402  2933.915
 403  2848.238
 404  2622.251
 405  2563.859
 406  2203.069
 407  2328.899
 408  2025.089
 409  2018.505
 410  2422.021
 411  2273.475
 412  2312.187
 413  2511.319
 414  2095.7
 415  1970.449
 416  2092.456
 417  2302.576
 418  2614.369
 419  2322.312
 420  2402.617
 421  2343.477
 422  2386.209
 423  2200.398
 424  2346.78
 425  2486.468
 426  2546.145
 427  2454.398
 428  2588.155
 429  2703.229
 430  2577.094
 431  2296.214
 432  2151.032
 433  2165.966
 434  2453.47
 435  2406.376
 436  2489.249
 437  2428.521
 438  2540.752
 439  2409.477
 440  2529.323
 441  2732.274
 442  2784.438
 443  2994.153
 444  2902.748
 445  2766.778
 446  2731.235
 447  2877.587
 448  2735.889
 449  2866.582
 450  3114.843
 451  3059.858
 452  3351.569
 453  3329.301
 454  3138.311
 455  2944.935
 456  3157.515
 457  3010.937
 458  2742.355
 459  2823.162
 460  3323.329
 461  3114.684
 462  3217.319
 463  2884.485
 464  2894.482
 465  2888.591
 466  2887.109
 467  2710.11
 468  2475.04
 469  2397.508
 470  2618.276
 471  2793.182
 472  2730.761
 473  2516.737
 474  2627.847
 475  2434.442
 476  2519.844
 477  2496.321
 478  2161.437
 479  2381.075
 480  2624.08
 481  2784.812
 482  2818.198
 483  2771.858
 484  2687.945
 485  2351.297
 486  2486.676
 487  2514.256
 488  2504.85
 489  2267.12
 490  2586.574
 491  2317.265
 492  2156.471
 493  2342.785
 494  2249.619
 495  2020.7
 496  1974.149
 497  2206.725
 498  2349.998
 499  2203.243
 500  2455.316
 501  2888.059
 502  2687.307
 503  2399.004
 504  2475.261
 505  2447.249
 506  2340.377
 507  2738.504
 508  2635.32
 509  2585.805
 510  2850.989
 511  2777.081
