# Input file       =  1207808803.099150-PSRB0329-2ms-sampling-dd.dat
# Candidate        =  PSR_0332+5434
# Telescope        =  AR
# Epoch_topo       =  58223.268774295721
# Epoch_bary       =  N/A
# T_sample         =  0.002
# Data Folded      =  7208960
# Data Avg         =  7.57883998555286e-10
# Data StdDev      =  7.40303262978146 
# Profile Bins     =  512
# Profile Avg      =  -0.0295418738352423
# Profile StdDev   =  878.437750222481 
# Reduced chi-sqr  =  1.434
# Prob(Noise)      <  4.01e-10   (~6.1 sigma)
# P_topo (ms)      =  714.559945020102  +/- 5.57e-05
# P'_topo (s/s)    =  -0                +/- 2.99e-11
# P''_topo (s/s^2) =  0                 +/- 1.34e-14
# P_bary (ms)      =  N/A
# P'_bary (s/s)    =  N/A
# P''_bary (s/s^2) =  N/A
# P_orb (s)        =  N/A
# asin(i)/c (s)    =  N/A
# eccentricity     =  N/A
# w (rad)          =  N/A
# T_peri           =  N/A
######################################################
   0  -820.7217
   1  -1616.728
   2  -988.2369
   3  -336.9379
   4  -50.4991
   5  257.1366
   6  325.7556
   7  61.04662
   8  -539.0041
   9  -1625.587
  10  -1688.568
  11  -1857.393
  12  -1306.336
  13  -1622.274
  14  -1460.704
  15  -1964.34
  16  -1434.8
  17  -1280.632
  18  -1544.182
  19  -449.008
  20  -45.85963
  21  -179.4171
  22  -388.4099
  23  -701.9435
  24  -872.3815
  25  -770.4855
  26  -787.7541
  27  -1180.225
  28  -1296.013
  29  -1377.015
  30  -1557.168
  31  -1538.634
  32  -1082.219
  33  -1071.134
  34  -1133.795
  35  -941.6253
  36  -766.4408
  37  365.1186
  38  391.0848
  39  -39.72311
  40  -73.88319
  41  -213.3991
  42  -597.183
  43  -1287.202
  44  -1050.235
  45  -803.8617
  46  -733.3491
  47  -1329.65
  48  -1148.001
  49  -966.3171
  50  -1384.165
  51  -986.4711
  52  -698.2101
  53  111.1723
  54  822.3301
  55  1326.743
  56  956.1155
  57  209.3208
  58  -317.6963
  59  -35.6384
  60  18.4718
  61  684.0527
  62  2272.048
  63  2567.995
  64  2688.359
  65  2327.03
  66  1146.702
  67  452.9223
  68  -105.9203
  69  107.6616
  70  1017.425
  71  1598.327
  72  1697.452
  73  1503.009
  74  848.0636
  75  414.393
  76  -181.2607
  77  -161.6001
  78  8.312472
  79  201.4973
  80  212.0851
  81  11.44401
  82  128.5828
  83  -389.3591
  84  -270.7311
  85  -147.5624
  86  615.983
  87  863.3298
  88  800.8248
  89  1081.136
  90  734.1219
  91  -87.11047
  92  -634.8116
  93  -800.0244
  94  -591.8118
  95  -712.5947
  96  -683.5422
  97  -986.9608
  98  -989.3444
  99  -214.0407
 100  -200.1435
 101  -183.2189
 102  141.8006
 103  1021.587
 104  732.1392
 105  395.2636
 106  648.5353
 107  238.0585
 108  -173.0108
 109  -519.1144
 110  -857.2883
 111  -891.7667
 112  -1351.047
 113  -857.0894
 114  -818.4332
 115  -941.7512
 116  -888.5706
 117  -1079.422
 118  -671.7955
 119  45.8072
 120  711.8461
 121  667.223
 122  701.3768
 123  238.3344
 124  -565.8563
 125  -1395.553
 126  -1363.235
 127  -1196.675
 128  -1088.446
 129  -752.1825
 130  -701.9565
 131  -939.625
 132  -874.2715
 133  -872.4995
 134  -1431.296
 135  -893.0767
 136  -41.71112
 137  394.8159
 138  377.7939
 139  623.7552
 140  372.5083
 141  -239.6173
 142  -577.239
 143  -920.9514
 144  -1296.72
 145  -713.6501
 146  -274.0312
 147  236.4335
 148  -226.1892
 149  -750.4594
 150  -653.3528
 151  -535.2675
 152  -74.26603
 153  737.9882
 154  1237.89
 155  1194.742
 156  847.1881
 157  207.8176
 158  -134.7349
 159  -493.7875
 160  -928.9029
 161  -735.5901
 162  -407.3841
 163  -245.1588
 164  -383.526
 165  -34.54898
 166  125.6177
 167  -444.0398
 168  -320.6945
 169  151.7184
 170  534.8284
 171  1028.67
 172  727.5307
 173  587.1166
 174  102.6814
 175  -324.112
 176  -827.5952
 177  -762.8522
 178  -781.7044
 179  -544.7178
 180  -694.3193
 181  -412.983
 182  -406.9105
 183  2.995996
 184  345.2766
 185  411.3505
 186  418.3005
 187  373.1012
 188  516.5806
 189  848.9463
 190  664.9742
 191  184.9357
 192  -515.6882
 193  -72.69157
 194  -267.1119
 195  -132.4283
 196  -317.5501
 197  -644.0718
 198  -692.5901
 199  -417.3138
 200  -120.9191
 201  -172.5827
 202  -118.3437
 203  392.1198
 204  613.6847
 205  104.1003
 206  247.4508
 207  -36.29972
 208  -673.8105
 209  -752.481
 210  -915.2562
 211  -1015.882
 212  -982.2817
 213  -572.2626
 214  -209.5315
 215  -614.833
 216  -385.2524
 217  -761.7165
 218  -244.8017
 219  316.9951
 220  849.2898
 221  1062.605
 222  725.2527
 223  190.8168
 224  52.36822
 225  -901.6722
 226  -1144.941
 227  -1065.018
 228  -552.7916
 229  -802.4695
 230  -530.3262
 231  -397.4869
 232  -273.6526
 233  -440.5203
 234  -720.7594
 235  -76.56374
 236  526.4823
 237  1105.229
 238  993.9965
 239  704.9396
 240  -71.17868
 241  -598.5768
 242  -837.7625
 243  -787.6274
 244  -908.9374
 245  -1072.872
 246  -187.3708
 247  41.99575
 248  -53.50231
 249  -354.419
 250  -161.3486
 251  -89.23055
 252  305.1319
 253  642.8994
 254  842.1482
 255  1183.719
 256  889.6039
 257  32.45079
 258  -679.418
 259  -1057.263
 260  -512.3818
 261  -603.174
 262  -258.1979
 263  -239.8289
 264  -218.0486
 265  48.09239
 266  -24.04839
 267  291.377
 268  655.083
 269  1582.656
 270  1341.634
 271  903.0336
 272  1153.781
 273  506.6582
 274  11.12409
 275  -184.8786
 276  102.2756
 277  -18.03792
 278  20.87158
 279  -455.4314
 280  -214.8641
 281  77.83727
 282  -633.2064
 283  62.79708
 284  703.35
 285  1447.839
 286  1315.1
 287  1873.297
 288  1090.77
 289  736.1145
 290  804.0099
 291  -12.6216
 292  -3.536897
 293  119.288
 294  170.4538
 295  121.4194
 296  586.7631
 297  698.3027
 298  225.7529
 299  -243.1208
 300  461.2294
 301  838.252
 302  1580.964
 303  1982.562
 304  1908.758
 305  1286.387
 306  852.8381
 307  272.0823
 308  164.0786
 309  298.1107
 310  69.46339
 311  -34.72958
 312  273.6767
 313  706.0485
 314  402.4292
 315  115.0739
 316  246.741
 317  744.6536
 318  1043.806
 319  1573.363
 320  1690.475
 321  1326.246
 322  1191.135
 323  452.7399
 324  407.3405
 325  -24.73462
 326  -305.081
 327  -52.76911
 328  -373.8509
 329  438.4568
 330  639.2542
 331  436.8958
 332  633.6868
 333  535.7676
 334  814.9922
 335  945.0272
 336  1707.538
 337  1658.392
 338  1189.287
 339  659.0415
 340  18.63605
 341  -384.7932
 342  -349.2478
 343  476.8624
 344  -31.41863
 345  -394.6491
 346  -560.1098
 347  -464.2308
 348  -246.1937
 349  106.426
 350  647.1144
 351  1071.315
 352  1188.764
 353  881.0265
 354  656.853
 355  355.0558
 356  308.6284
 357  -372.8812
 358  -444.9577
 359  668.1439
 360  112.1397
 361  -64.05843
 362  -71.05396
 363  315.1973
 364  304.2938
 365  240.0306
 366  378.578
 367  669.8353
 368  863.6001
 369  613.3089
 370  973.204
 371  591.9991
 372  128.3666
 373  -72.67233
 374  -288.2624
 375  24.39528
 376  497.6367
 377  513.274
 378  248.797
 379  276.3159
 380  149.2263
 381  -428.6342
 382  -68.38573
 383  515.3824
 384  713.5604
 385  1269.009
 386  1462.019
 387  831.6343
 388  98.19503
 389  731.0013
 390  452.0982
 391  -126.922
 392  -99.56262
 393  -181.2913
 394  106.0531
 395  -62.35699
 396  -274.0147
 397  -558.1115
 398  -428.3759
 399  79.24519
 400  679.8666
 401  1050.563
 402  649.3666
 403  1039.33
 404  571.1035
 405  231.0547
 406  -793.4136
 407  -943.6208
 408  -692.3964
 409  -748.2938
 410  -314.9935
 411  -550.8255
 412  -672.9758
 413  -334.8724
 414  -766.0156
 415  -565.1098
 416  288.0891
 417  589.0298
 418  639.6666
 419  986.4351
 420  948.7706
 421  184.7196
 422  -237.0138
 423  50.29059
 424  -284.5606
 425  -146.9211
 426  -6.618648
 427  -889.8472
 428  -1296.929
 429  -963.5911
 430  -691.3255
 431  -397.9695
 432  25.22937
 433  371.0687
 434  701.6497
 435  820.8154
 436  528.6229
 437  358.7115
 438  125.2001
 439  -617.7064
 440  -864.6769
 441  -443.9684
 442  -351.9352
 443  -237.6709
 444  -760.8749
 445  -724.7789
 446  -626.1287
 447  -744.3337
 448  255.4212
 449  628.0966
 450  582.619
 451  614.8057
 452  809.0032
 453  704.0616
 454  287.0102
 455  7.939291
 456  -93.94247
 457  -286.4992
 458  -103.0705
 459  -587.381
 460  -987.8124
 461  -140.0766
 462  -259.5953
 463  -271.2403
 464  140.9402
 465  655.0331
 466  1187.49
 467  1297.971
 468  1574.613
 469  937.6117
 470  714.1337
 471  494.4424
 472  210.3732
 473  -181.0178
 474  -127.3013
 475  393.5597
 476  35.43295
 477  42.5267
 478  -213.6725
 479  4.269489
 480  -361.9086
 481  -182.9025
 482  509.357
 483  1270.192
 484  1673.118
 485  1299.577
 486  1002.615
 487  387.6904
 488  205.3792
 489  46.19931
 490  -582.037
 491  -321.7237
 492  -221.3831
 493  -378.5318
 494  -418.7025
 495  -953.9408
 496  -1032.183
 497  -802.0922
 498  9.167367
 499  220.4617
 500  472.9533
 501  114.3072
 502  576.9589
 503  428.2509
 504  1.99837
 505  -357.9715
 506  -640.5853
 507  -375.4833
 508  -356.2931
 509  -626.7144
 510  -989.023
 511  -930.7858
