# Input file       =  1207924562.108558_cleaned.dat
# Candidate        =  PSR_0332+5434
# Telescope        =  AR
# Epoch_topo       =  58224.608577645347
# Epoch_bary       =  N/A
# T_sample         =  0.002
# Data Folded      =  7340032
# Data Avg         =  0.288038879061268
# Data StdDev      =  5.24764000549181 
# Profile Bins     =  512
# Profile Avg      =  4129.37896346925 
# Profile StdDev   =  628.315871669723 
# Reduced chi-sqr  =  0.732
# Prob(Noise)      <  1   (~0.0 sigma)
# P_topo (ms)      =  714.559259995078  +/- 0.000437
# P'_topo (s/s)    =  -0                +/- 2.31e-10
# P''_topo (s/s^2) =  0                 +/- 1.02e-13
# P_bary (ms)      =  N/A
# P'_bary (s/s)    =  N/A
# P''_bary (s/s^2) =  N/A
# P_orb (s)        =  N/A
# asin(i)/c (s)    =  N/A
# eccentricity     =  N/A
# w (rad)          =  N/A
# T_peri           =  N/A
######################################################
   0  4109.416
   1  4027.71
   2  4076.809
   3  3999.213
   4  3965.453
   5  3863.587
   6  3733.521
   7  4054.6
   8  3712.933
   9  3531.103
  10  3759.942
  11  3887.7
  12  3606.672
  13  3512.809
  14  3816.525
  15  3764.555
  16  3774.719
  17  3711.626
  18  3704.23
  19  3771.964
  20  3961.898
  21  4139.699
  22  4180.969
  23  4306.065
  24  4152.431
  25  3651.169
  26  3894.853
  27  3863.062
  28  4156.252
  29  3890.885
  30  3649.838
  31  3937.447
  32  3942.384
  33  4073.758
  34  4041.384
  35  3995.083
  36  4109.232
  37  3840.063
  38  4036.018
  39  4168.414
  40  4625.956
  41  4850.988
  42  4569.447
  43  4274.216
  44  4403.905
  45  4225.203
  46  4166.362
  47  4003.107
  48  4001.205
  49  3914.707
  50  3704.571
  51  4032.069
  52  4007.957
  53  4050.222
  54  4202.693
  55  4000.43
  56  4220.911
  57  4192.532
  58  4175.503
  59  4033.84
  60  4219.607
  61  4076.349
  62  3658.12
  63  3829.248
  64  3868.835
  65  3974.509
  66  3808.3
  67  3962.069
  68  4119.599
  69  4213.796
  70  4442.604
  71  4386.412
  72  4309.131
  73  4149.579
  74  4096.004
  75  4362.914
  76  4404.276
  77  4100.408
  78  4178.636
  79  4668.662
  80  4498.245
  81  4492.471
  82  4411.861
  83  4725.346
  84  4473.345
  85  4943.231
  86  4759.17
  87  4182.334
  88  4311.72
  89  4257.903
  90  4196.149
  91  4162.309
  92  4399.962
  93  4419.521
  94  4346.345
  95  4291.285
  96  3725.964
  97  3654.413
  98  3580.595
  99  3908.407
 100  4277.365
 101  4194.031
 102  4345.379
 103  4527.665
 104  4268.162
 105  4295.912
 106  4193.517
 107  4383.699
 108  4383.03
 109  4289.837
 110  4054.345
 111  3806.499
 112  3745.224
 113  4244.425
 114  4289.703
 115  3960.931
 116  3967.192
 117  4474.75
 118  4323.884
 119  4232.371
 120  4276.011
 121  3983.669
 122  3944.402
 123  3982.14
 124  4258.496
 125  3980.194
 126  3679.906
 127  3752.118
 128  3786.583
 129  4227
 130  3945.034
 131  4022.976
 132  4081.528
 133  4070.738
 134  4108.134
 135  4227.526
 136  4571.325
 137  4486.23
 138  4656.249
 139  4431.421
 140  4272.479
 141  4087.446
 142  4093.628
 143  4269.577
 144  4450.393
 145  4098.119
 146  4073.333
 147  4248.696
 148  3946.517
 149  3967.275
 150  4116.088
 151  4537.492
 152  4468.177
 153  4303.108
 154  3862.133
 155  3597.409
 156  3942.427
 157  3770.093
 158  3568.899
 159  4026.058
 160  4186.53
 161  4053.702
 162  4308.354
 163  4188.302
 164  3929.548
 165  4100.974
 166  4700.19
 167  4770.885
 168  4536.724
 169  4372.851
 170  4349.063
 171  4474.58
 172  4431.72
 173  4106.846
 174  4177.157
 175  4072.744
 176  3925.244
 177  3741.843
 178  3646.76
 179  3680.84
 180  3599.153
 181  3754.439
 182  3376.663
 183  3396.953
 184  3551.292
 185  3722.617
 186  3380.622
 187  3446.808
 188  3448.373
 189  3583.685
 190  3596.727
 191  3749.313
 192  3513.436
 193  3272.458
 194  3434.5
 195  3869.005
 196  4223.014
 197  3809.856
 198  3555.27
 199  3511.976
 200  3652.866
 201  3485.142
 202  3717.204
 203  3988.215
 204  3591.033
 205  3508.885
 206  3684.372
 207  3767.023
 208  3745.095
 209  3838.896
 210  3706.727
 211  3485.222
 212  3726.357
 213  3761.149
 214  4223.212
 215  3968.488
 216  4424.056
 217  4344.724
 218  3657.947
 219  3896.726
 220  4240.247
 221  4165.611
 222  4299.56
 223  4168.715
 224  4360.412
 225  3935.183
 226  3601.938
 227  3950.848
 228  4231.694
 229  4058.841
 230  3733.649
 231  3916.445
 232  4091.815
 233  3877.021
 234  3758.975
 235  4201.882
 236  4228.983
 237  3820.268
 238  3883.207
 239  3811.956
 240  3774.388
 241  3959.635
 242  4132.327
 243  4213.341
 244  4479.462
 245  4665.686
 246  4381.085
 247  4054.241
 248  4063.948
 249  3887.776
 250  3737.551
 251  3962.663
 252  4313.676
 253  4291.489
 254  4098.227
 255  4019.22
 256  4128.376
 257  3901.344
 258  3983.566
 259  3932.182
 260  4024.968
 261  4518.248
 262  4564.252
 263  4378.693
 264  4411.643
 265  4557.854
 266  4519.642
 267  4528.381
 268  4627.673
 269  4447.255
 270  4439.811
 271  4399.169
 272  4043.386
 273  3659.716
 274  3750.496
 275  3678.274
 276  3770.086
 277  3693.725
 278  3195.188
 279  3534.827
 280  3947.953
 281  3833.988
 282  3827.634
 283  3831.287
 284  3946.188
 285  4054.042
 286  4217.574
 287  4057.881
 288  3826.65
 289  3842.027
 290  4271.719
 291  4264.649
 292  3880.414
 293  3746.787
 294  3823.504
 295  4203.593
 296  4647.811
 297  4844.546
 298  5074.15
 299  5385.258
 300  5735.6
 301  6220.785
 302  6153.599
 303  5951.737
 304  5255.393
 305  5009.448
 306  4790.339
 307  4423.177
 308  4255.207
 309  4589.908
 310  4506.066
 311  4196.036
 312  4186.009
 313  4481.259
 314  4584.023
 315  4004.509
 316  4282.861
 317  4540.438
 318  4917.022
 319  5182.915
 320  4655.645
 321  4501.499
 322  4615.069
 323  4331.58
 324  4435.996
 325  4704.397
 326  5064.09
 327  4959.43
 328  4679.364
 329  4595.562
 330  4623.645
 331  4749.465
 332  4591.199
 333  4404.242
 334  4278.1
 335  4099.106
 336  3944.615
 337  3770.268
 338  3826.294
 339  4188.697
 340  3976.149
 341  3988.073
 342  3998.451
 343  3901.978
 344  4035.713
 345  3910.933
 346  4092.325
 347  4060.621
 348  4029.962
 349  4400.777
 350  4196.08
 351  3985.972
 352  3800.171
 353  3533.81
 354  3445.094
 355  3544.753
 356  3703.866
 357  3762.769
 358  4083.453
 359  4200.065
 360  4379.871
 361  4363.6
 362  3968.383
 363  3587.651
 364  3821.011
 365  4101.537
 366  3879.926
 367  3700.148
 368  3895.283
 369  3830.094
 370  3665.646
 371  3622.496
 372  4097.591
 373  4378.037
 374  4063.387
 375  3872.777
 376  3763.628
 377  3933.378
 378  3836.088
 379  4064.541
 380  4445.635
 381  4098.905
 382  3708.106
 383  4089.679
 384  4073.241
 385  4157.469
 386  4427.077
 387  4306.126
 388  4228.875
 389  4192.983
 390  4184.656
 391  4269.892
 392  4221.372
 393  4208.029
 394  4400.81
 395  4689.791
 396  4686.664
 397  4632.028
 398  4453.873
 399  4592.483
 400  4362.556
 401  4533.16
 402  5283.788
 403  5036.38
 404  4748.966
 405  4805.461
 406  4579.131
 407  4093.789
 408  4459.202
 409  4798.046
 410  4617.086
 411  4530.179
 412  4492.678
 413  4270.507
 414  3847.754
 415  3859.111
 416  3957.679
 417  3912.902
 418  4210.96
 419  4266.835
 420  4099.034
 421  4455.718
 422  4314.101
 423  4217.757
 424  4351.75
 425  4385.781
 426  4687.436
 427  4480.085
 428  4481.649
 429  4394.14
 430  4146.612
 431  4068.547
 432  4485.666
 433  4581.113
 434  4517.362
 435  4700.711
 436  4539.749
 437  3794.909
 438  3697.779
 439  3960.328
 440  3881.984
 441  3800.616
 442  3553.616
 443  3181.595
 444  3496.506
 445  3734.459
 446  3651.12
 447  3739.392
 448  3619.894
 449  4108.843
 450  3825.559
 451  3787.18
 452  3851.356
 453  4127.548
 454  4203.267
 455  4243.739
 456  4059.406
 457  4065.961
 458  3915.466
 459  4192.66
 460  4279.842
 461  4260.33
 462  4455.954
 463  4285.051
 464  4077.695
 465  4451.444
 466  4465.375
 467  4326.392
 468  4438.697
 469  4742.777
 470  4507.432
 471  4224.649
 472  4684.977
 473  4382.345
 474  4122.528
 475  4163.261
 476  3926.721
 477  4525.461
 478  4160.741
 479  4042.831
 480  4147.632
 481  4211.696
 482  4012.404
 483  4269.398
 484  4441.537
 485  4768.326
 486  4536.315
 487  4026.683
 488  3979.823
 489  3789.576
 490  3873.634
 491  4078.417
 492  3756.656
 493  3842.779
 494  3850.069
 495  3891.738
 496  4053.175
 497  3775.246
 498  3851.245
 499  4221.951
 500  4594.962
 501  4194.108
 502  3773.523
 503  3816.584
 504  4094.545
 505  4003.402
 506  3783.481
 507  3863.484
 508  3914.885
 509  3704.217
 510  3686.244
 511  3671.725
