# Input file       =  1207894977.102396_cleaned.dat
# Candidate        =  PSR_0332+5434
# Telescope        =  AR
# Epoch_topo       =  58224.266158592545
# Epoch_bary       =  N/A
# T_sample         =  0.002
# Data Folded      =  7208960
# Data Avg         =  0.0288946552675283
# Data StdDev      =  1.00007094335855 
# Profile Bins     =  512
# Profile Avg      =  406.925195469159 
# Profile StdDev   =  118.667593873984 
# Reduced chi-sqr  =  1.749
# Prob(Noise)      <  2.67e-23   (~9.9 sigma)
# P_topo (ms)      =  714.559171248634  +/- 9.13e-05
# P'_topo (s/s)    =  -0                +/- 4.9e-11
# P''_topo (s/s^2) =  0                 +/- 2.2e-14
# P_bary (ms)      =  N/A
# P'_bary (s/s)    =  N/A
# P''_bary (s/s^2) =  N/A
# P_orb (s)        =  N/A
# asin(i)/c (s)    =  N/A
# eccentricity     =  N/A
# w (rad)          =  N/A
# T_peri           =  N/A
######################################################
   0  1288.998
   1  1117.47
   2  901.5111
   3  706.4576
   4  540.9146
   5  279.1625
   6  213.9356
   7  324.2976
   8  409.312
   9  429.6745
  10  443.9942
  11  402.9212
  12  370.345
  13  307.1555
  14  387.6132
  15  314.9927
  16  347.6936
  17  415.9559
  18  435.7619
  19  458.6423
  20  415.5309
  21  311.9031
  22  238.5439
  23  335.0777
  24  443.4804
  25  458.5146
  26  400.444
  27  358.1785
  28  337.413
  29  390.2095
  30  308.6567
  31  248.5412
  32  424.6308
  33  606.1369
  34  499.5044
  35  396.0002
  36  397.2967
  37  338.6881
  38  233.0038
  39  281.7835
  40  379.1693
  41  330.6269
  42  425.6834
  43  341.2762
  44  331.7858
  45  366.258
  46  294.5176
  47  343.5302
  48  375.6368
  49  261.0155
  50  339.6844
  51  391.5764
  52  424.7997
  53  422.4342
  54  386.3167
  55  341.0685
  56  416.2317
  57  452.2693
  58  492.4516
  59  570.8846
  60  549.6321
  61  333.3895
  62  394.9062
  63  456.0002
  64  534.4663
  65  377.6438
  66  411.3901
  67  424.7801
  68  312.032
  69  400.6183
  70  346.4674
  71  424.8146
  72  328.517
  73  286.67
  74  361.0831
  75  410.7485
  76  407.0737
  77  348.9642
  78  430.4924
  79  277.2256
  80  239.3833
  81  330.7291
  82  417.3029
  83  411.6525
  84  461.3759
  85  447.5169
  86  413.5454
  87  440.8765
  88  431.1319
  89  440.9091
  90  531.0699
  91  519.9866
  92  476.8606
  93  414.9956
  94  328.0928
  95  342.8333
  96  227.0305
  97  298.1618
  98  497.7724
  99  412.434
 100  379.5422
 101  415.629
 102  329.4757
 103  338.4735
 104  345.9154
 105  338.2242
 106  419.7717
 107  377.7162
 108  289.6379
 109  453.7606
 110  322.2928
 111  254.6753
 112  243.7066
 113  282.412
 114  320.2768
 115  299.0631
 116  386.6413
 117  460.9964
 118  455.9799
 119  479.4218
 120  348.1012
 121  188.6113
 122  356.3847
 123  297.7833
 124  343.6837
 125  383.3191
 126  417.2322
 127  380.8648
 128  350.2949
 129  227.5013
 130  356.0169
 131  441.8055
 132  388.494
 133  412.8633
 134  403.5374
 135  476.505
 136  447.1131
 137  360.3286
 138  552.58
 139  405.6717
 140  363.798
 141  378.9836
 142  385.1552
 143  413.7833
 144  377.6533
 145  428.8679
 146  484.2144
 147  502.0184
 148  543.5439
 149  506.2931
 150  396.1648
 151  467.3227
 152  339.7096
 153  337.8637
 154  427.1516
 155  357.9543
 156  295.1781
 157  428.6495
 158  459.6643
 159  474.4034
 160  439.6562
 161  348.8467
 162  321.3911
 163  304.5475
 164  456.9518
 165  453.3288
 166  385.7743
 167  416.7789
 168  365.3011
 169  325.5399
 170  319.9265
 171  282.1317
 172  376.1142
 173  450.2312
 174  359.5567
 175  374.6067
 176  463.9103
 177  431.7213
 178  249.9528
 179  176.8049
 180  331.4388
 181  425.7044
 182  565.5786
 183  546.5264
 184  483.5029
 185  401.1978
 186  394.4337
 187  343.3332
 188  392.1444
 189  413.7775
 190  320.3063
 191  315.7722
 192  388.4391
 193  364.2732
 194  323.9859
 195  396.4798
 196  352.0038
 197  401.6665
 198  305.5503
 199  270.1033
 200  422.4076
 201  420.2042
 202  399.7917
 203  398.86
 204  400.7936
 205  435.0032
 206  490.9275
 207  389.0946
 208  287.7704
 209  258.9693
 210  377.823
 211  325.3234
 212  375.2711
 213  490.9646
 214  446.9794
 215  428.9312
 216  398.2955
 217  480.2007
 218  414.816
 219  273.0543
 220  308.2664
 221  425.8736
 222  397.8254
 223  343.3142
 224  250.5031
 225  287.3876
 226  381.0635
 227  334.8445
 228  354.1052
 229  275.9811
 230  417.7739
 231  481.4317
 232  338.774
 233  316.7711
 234  384.4867
 235  456.7853
 236  371.108
 237  462.3539
 238  594.9567
 239  609.9244
 240  315.7467
 241  319.2108
 242  335.0564
 243  415.1429
 244  350.8098
 245  374.3388
 246  494.1858
 247  472.8369
 248  493.4983
 249  336.9639
 250  446.8041
 251  484.8904
 252  397.9763
 253  376.2688
 254  407.9403
 255  479.6902
 256  437.3398
 257  402.8458
 258  489.2054
 259  367.0185
 260  302.127
 261  310.6987
 262  412.741
 263  377.1186
 264  411.9875
 265  496.4172
 266  548.9305
 267  471.7945
 268  458.5647
 269  397.7479
 270  418.9188
 271  460.5414
 272  550.5989
 273  475.5916
 274  490.6841
 275  425.1251
 276  382.7188
 277  275.0057
 278  464.9326
 279  533.1397
 280  594.3197
 281  589.1276
 282  511.5333
 283  597.8453
 284  526.5636
 285  493.2048
 286  498.1234
 287  463.8578
 288  443.8336
 289  556.3121
 290  462.5979
 291  359.4139
 292  448.21
 293  271.2345
 294  306.3695
 295  248.8291
 296  279.9641
 297  352.2097
 298  344.5705
 299  482.0575
 300  477.815
 301  266.0461
 302  356.7281
 303  350.0399
 304  306.635
 305  426.2766
 306  367.2547
 307  422.5656
 308  265.5261
 309  274.3225
 310  293.9384
 311  297.1554
 312  247.0658
 313  419.3253
 314  422.1693
 315  344.2875
 316  363.1485
 317  471.0602
 318  433.9012
 319  304.6824
 320  399.3249
 321  453.1114
 322  373.0178
 323  309.7744
 324  507.5143
 325  516.9883
 326  471.9907
 327  452.9012
 328  303.7292
 329  311.7495
 330  450.9507
 331  429.4726
 332  400.7357
 333  432.3362
 334  285.7273
 335  271.0839
 336  339.8944
 337  444.1026
 338  494.0088
 339  456.9923
 340  414.8694
 341  332.0807
 342  269.056
 343  243.6758
 344  204.417
 345  336.8461
 346  491.4953
 347  315.2596
 348  388.0934
 349  534.7096
 350  591.2523
 351  483.0213
 352  335.0439
 353  344.2804
 354  453.9398
 355  523.0355
 356  471.4932
 357  448.3935
 358  526.1949
 359  548.1843
 360  417.4392
 361  307.1756
 362  448.5578
 363  566.0626
 364  559.6284
 365  527.9362
 366  521.3354
 367  501.5622
 368  510.853
 369  293.8945
 370  280.2413
 371  366.606
 372  378.6428
 373  478.8872
 374  459.4783
 375  513.1344
 376  302.6073
 377  246.2215
 378  323.4946
 379  408.7917
 380  360.9571
 381  406.9194
 382  461.8974
 383  449.4543
 384  411.993
 385  289.1787
 386  421.3636
 387  533.5925
 388  530.8118
 389  443.5234
 390  374.5127
 391  420.1657
 392  358.3687
 393  262.5223
 394  376.0193
 395  367.2005
 396  382.1001
 397  383.5873
 398  362.1067
 399  444.1313
 400  506.0277
 401  425.8071
 402  497.0247
 403  606.4691
 404  481.0204
 405  417.9943
 406  413.1848
 407  268.0455
 408  368.4767
 409  416.4951
 410  442.6337
 411  364.1107
 412  346.8553
 413  430.9338
 414  548.3274
 415  444.2613
 416  494.6939
 417  333.7844
 418  313.2319
 419  396.057
 420  340.6016
 421  446.3609
 422  439.1853
 423  419.1249
 424  385.3771
 425  404.7819
 426  355.1426
 427  434.0728
 428  453.3957
 429  383.1387
 430  354.5602
 431  365.5156
 432  523.7998
 433  374.8008
 434  220.9742
 435  285.8933
 436  232.1736
 437  307.5557
 438  375.1425
 439  371.7802
 440  280.2869
 441  250.4333
 442  196.9728
 443  284.8705
 444  299.3636
 445  399.8053
 446  424.1309
 447  395.4827
 448  360.2313
 449  398.985
 450  410.5005
 451  448.0822
 452  499.4386
 453  565.2053
 454  476.0113
 455  438.9935
 456  458.986
 457  332.0956
 458  346.5722
 459  312.9684
 460  301.8286
 461  358.6969
 462  435.3647
 463  333.482
 464  275.8227
 465  318.5437
 466  361.2407
 467  515.5679
 468  530.8383
 469  417.5033
 470  339.4112
 471  355.4459
 472  410.7924
 473  484.0449
 474  484.4346
 475  386.9554
 476  294.9783
 477  279.4464
 478  387.2791
 479  461.5033
 480  375.6592
 481  356.1179
 482  321.9712
 483  437.2204
 484  483.6701
 485  458.0994
 486  454.0081
 487  468.4324
 488  465.3114
 489  496.727
 490  415.9943
 491  436.8686
 492  418
 493  387.139
 494  474.3397
 495  592.4307
 496  542.5754
 497  447.4962
 498  438.3072
 499  408.8942
 500  390.2229
 501  404.5211
 502  447.1835
 503  491.5191
 504  436.1494
 505  521.936
 506  599.0449
 507  688.998
 508  556.4526
 509  567.1444
 510  1122.878
 511  1364.88
