# Input file       =  1207752188.129288_cleaned.dat
# Candidate        =  PSR_0332+5434
# Telescope        =  AR
# Epoch_topo       =  58222.613508440831
# Epoch_bary       =  N/A
# T_sample         =  0.002
# Data Folded      =  7340032
# Data Avg         =  0.0300242042932642
# Data StdDev      =  1.00008477609181 
# Profile Bins     =  512
# Profile Avg      =  430.472265174656 
# Profile StdDev   =  119.743186875651 
# Reduced chi-sqr  =  1.641
# Prob(Noise)      <  2.62e-18   (~8.6 sigma)
# P_topo (ms)      =  714.560800498618  +/- 0.000308
# P'_topo (s/s)    =  -0                +/- 1.62e-10
# P''_topo (s/s^2) =  0                 +/- 7.16e-14
# P_bary (ms)      =  N/A
# P'_bary (s/s)    =  N/A
# P''_bary (s/s^2) =  N/A
# P_orb (s)        =  N/A
# asin(i)/c (s)    =  N/A
# eccentricity     =  N/A
# w (rad)          =  N/A
# T_peri           =  N/A
######################################################
   0  1307.1
   1  1216.854
   2  935.9242
   3  704.8267
   4  565.3728
   5  425.6641
   6  515.2469
   7  495.5506
   8  412.1821
   9  344.8605
  10  424.728
  11  416.0446
  12  440.2596
  13  444.4881
  14  367.3969
  15  398.4554
  16  358.1785
  17  462.5237
  18  532.4796
  19  444.4396
  20  462.1078
  21  564.2401
  22  449.5766
  23  535.6093
  24  464.8357
  25  367.404
  26  407.2425
  27  488.5326
  28  440.5031
  29  450.5063
  30  472.4084
  31  504.7723
  32  467.8102
  33  524.4005
  34  499.6284
  35  435.8167
  36  482.2751
  37  463.5414
  38  422.7337
  39  379.6127
  40  482.4952
  41  375.0308
  42  363.4103
  43  344.4371
  44  252.9907
  45  308.1351
  46  429.7095
  47  414.5906
  48  413.8858
  49  437.4633
  50  324.0608
  51  280.3409
  52  315.3253
  53  287.0592
  54  291.6839
  55  411.2704
  56  408.0189
  57  332.9412
  58  320.8107
  59  317.875
  60  437.6761
  61  468.8521
  62  451.4717
  63  387.2246
  64  372.5327
  65  455.8336
  66  496.3986
  67  418.5876
  68  392.9906
  69  300.0928
  70  297.6297
  71  352.278
  72  344.2997
  73  392.7708
  74  369.4912
  75  338.1864
  76  267.9299
  77  352.4364
  78  440.2268
  79  381.274
  80  290.5882
  81  399.479
  82  421.8866
  83  280.5278
  84  344.7468
  85  413.0369
  86  539.953
  87  418.4453
  88  280.0648
  89  343.4881
  90  364.0164
  91  392.3252
  92  436.268
  93  408.8431
  94  386.8221
  95  371.0974
  96  375.5111
  97  406.517
  98  517.0906
  99  509.0425
 100  450.7752
 101  417.2598
 102  556.7385
 103  524.5154
 104  390.4146
 105  417.4205
 106  301.5901
 107  357.7134
 108  275.4992
 109  301.2379
 110  351.6597
 111  263.5825
 112  337.1679
 113  332.3267
 114  391.4751
 115  316.4745
 116  416.1893
 117  486.2193
 118  439.0833
 119  359.3137
 120  249.0875
 121  342.6532
 122  347.3464
 123  431.9992
 124  390.8127
 125  242.0501
 126  341.1949
 127  444.6275
 128  479.6069
 129  314.6241
 130  370.4941
 131  410.6229
 132  336.1248
 133  404.9459
 134  391.3276
 135  373.3625
 136  380.2442
 137  312.1253
 138  258.6095
 139  275.4763
 140  336.8462
 141  286.4703
 142  277.0051
 143  424.6619
 144  467.3913
 145  549.7426
 146  573.2012
 147  581.2424
 148  437.6849
 149  365.1082
 150  396.6028
 151  471.0291
 152  531.0611
 153  518.0468
 154  474.7755
 155  471.61
 156  437.3607
 157  385.5101
 158  557.9623
 159  567.9064
 160  513.0031
 161  452.9634
 162  475.7271
 163  444.9441
 164  500.0761
 165  524.6622
 166  466.3415
 167  498.5849
 168  483.3202
 169  493.7046
 170  401.1157
 171  347.0332
 172  386.2639
 173  464.7138
 174  524.2447
 175  486.9144
 176  459.2621
 177  500.6724
 178  456.541
 179  469.9436
 180  406.1338
 181  434.8926
 182  495.7844
 183  367.6917
 184  368.4934
 185  357.8251
 186  335.966
 187  348.1504
 188  422.0901
 189  479.3961
 190  444.6841
 191  326.3615
 192  359.9487
 193  406.1327
 194  461.044
 195  428.6571
 196  422.1736
 197  414.0102
 198  390.3498
 199  353.6663
 200  436.9721
 201  392.2146
 202  458.1958
 203  490.6805
 204  414.4051
 205  404.473
 206  483.5392
 207  407.0901
 208  382.562
 209  497.7107
 210  453.2239
 211  383.0499
 212  229.5498
 213  353.3727
 214  331.6334
 215  446.4506
 216  451.7604
 217  550.1659
 218  467.4408
 219  398.7343
 220  346.3609
 221  449.1
 222  468.5102
 223  480.4358
 224  398.7553
 225  421.457
 226  402.2737
 227  412.8015
 228  444.2404
 229  477.9985
 230  421.2534
 231  317.4177
 232  440.7013
 233  576.7991
 234  555.2401
 235  508.1739
 236  499.5716
 237  504.1107
 238  535.6178
 239  505.3582
 240  512.6744
 241  522.9966
 242  435.9238
 243  485.0093
 244  570.5027
 245  534.2175
 246  477.2908
 247  481.6806
 248  441.6343
 249  376.0674
 250  443.0402
 251  411.0768
 252  418.1068
 253  406.8365
 254  388.4392
 255  314.0725
 256  357.6601
 257  483.048
 258  423.6901
 259  368.5796
 260  412.0809
 261  455.6479
 262  432.4386
 263  399.4434
 264  290.2093
 265  346.2919
 266  371.6424
 267  457.1129
 268  357.7525
 269  366.0364
 270  427.7164
 271  368.6756
 272  309.9628
 273  333.2454
 274  311.2462
 275  310.7321
 276  302.2798
 277  320.1186
 278  407.722
 279  438.1326
 280  431.278
 281  375.0576
 282  477.4847
 283  466.5258
 284  398.4546
 285  317.5219
 286  277.2781
 287  395.5849
 288  477.4119
 289  494.8026
 290  430.6394
 291  358.1526
 292  392.1131
 293  379.0323
 294  415.4865
 295  366.1922
 296  344.9396
 297  193.4297
 298  338.4534
 299  422.7401
 300  394.9711
 301  505.8289
 302  436.7176
 303  360.3403
 304  304.6086
 305  362.3275
 306  443.6931
 307  413.1005
 308  416.5482
 309  398.4312
 310  425.7968
 311  459.6496
 312  360.8337
 313  307.9162
 314  370.4651
 315  416.8343
 316  427.8507
 317  510.0691
 318  486.2159
 319  456.1694
 320  492.7506
 321  568.8309
 322  552.2891
 323  502.2565
 324  430.9689
 325  337.6524
 326  425.7207
 327  433.6096
 328  446.2732
 329  357.6342
 330  315.5455
 331  418.0184
 332  505.5082
 333  525.0455
 334  519.1116
 335  481.0689
 336  430.3128
 337  439.7929
 338  500.8595
 339  358.2472
 340  389.7674
 341  299.0054
 342  304.7755
 343  343.622
 344  527.6865
 345  571.756
 346  474.489
 347  504.2245
 348  454.2611
 349  492.9359
 350  333.5862
 351  329.3537
 352  405.8231
 353  493.8312
 354  506.5833
 355  536.5367
 356  422.2842
 357  352.5399
 358  319.6784
 359  367.6839
 360  495.0015
 361  548.2755
 362  465.4385
 363  466.0641
 364  448.8143
 365  451.7964
 366  414.6651
 367  577.6288
 368  577.4653
 369  542.3676
 370  481.7354
 371  464.3777
 372  555.4552
 373  477.93
 374  500.1889
 375  510.9411
 376  434.7166
 377  442.4925
 378  447.3763
 379  438.4884
 380  486.3463
 381  462.6826
 382  470.377
 383  506.4667
 384  522.7387
 385  515.445
 386  532.871
 387  489.0071
 388  501.9653
 389  542.3906
 390  639.9395
 391  568.8394
 392  557.8619
 393  524.2872
 394  526.7723
 395  509.8888
 396  379.6686
 397  458.575
 398  495.8041
 399  396.3434
 400  446.6924
 401  437.109
 402  433.1066
 403  439.2661
 404  376.1768
 405  431.7197
 406  466.1133
 407  521.6536
 408  498.4432
 409  401.7997
 410  425.0517
 411  406.419
 412  348.2032
 413  411.8311
 414  368.2113
 415  401.9061
 416  335.6733
 417  306.275
 418  303.0457
 419  397.1003
 420  288.7672
 421  282.6471
 422  151.6366
 423  275.4989
 424  352.4196
 425  235.9145
 426  284.6048
 427  380.2547
 428  323.2084
 429  316.9361
 430  303.4888
 431  400.2704
 432  412.8682
 433  372.5421
 434  237.1976
 435  341.713
 436  384.4034
 437  344.9896
 438  313.8387
 439  310.3455
 440  379.8415
 441  482.1
 442  398.5413
 443  500.2339
 444  513.6307
 445  408.6093
 446  380.5751
 447  373.8706
 448  450.2537
 449  348.8592
 450  329.4372
 451  467.8998
 452  426.3328
 453  465.5352
 454  310.1387
 455  284.3077
 456  514.7759
 457  520.7235
 458  371.9965
 459  458.7053
 460  443.4235
 461  449.6987
 462  505.2988
 463  494.061
 464  452.8861
 465  528.676
 466  543.4604
 467  465.8423
 468  422.344
 469  463.1139
 470  597.9979
 471  535.8732
 472  524.7743
 473  462.4821
 474  369.1903
 475  401.8457
 476  443.9339
 477  373.5214
 478  439.5945
 479  388.05
 480  461.4248
 481  400.7632
 482  372.7976
 483  316.5582
 484  390.4792
 485  390.5502
 486  371.3099
 487  408.1432
 488  501.0904
 489  421.462
 490  373.2758
 491  450.1044
 492  497.9168
 493  547.456
 494  504.5087
 495  508.4662
 496  437.9756
 497  475.0489
 498  505.8678
 499  430.6305
 500  359.8224
 501  380.2132
 502  456.023
 503  408.4145
 504  465.1018
 505  643.5416
 506  500.7447
 507  496.084
 508  763.2738
 509  920.6521
 510  1099.043
 511  1304.189
