# Input file       =  1207838381.10396_cleaned.dat
# Candidate        =  PSR_0332+5434
# Telescope        =  AR
# Epoch_topo       =  58223.611112314349
# Epoch_bary       =  N/A
# T_sample         =  0.002
# Data Folded      =  7340032
# Data Avg         =  0.0285430146315703
# Data StdDev      =  1.00004940612517 
# Profile Bins     =  512
# Profile Avg      =  409.200026774202 
# Profile StdDev   =  119.738951922149 
# Reduced chi-sqr  =  2.133
# Prob(Noise)      <  5.01e-44   (~13.9 sigma)
# P_topo (ms)      =  714.560035713538  +/- 0.000262
# P'_topo (s/s)    =  -0                +/- 1.38e-10
# P''_topo (s/s^2) =  0                 +/- 6.09e-14
# P_bary (ms)      =  N/A
# P'_bary (s/s)    =  N/A
# P''_bary (s/s^2) =  N/A
# P_orb (s)        =  N/A
# asin(i)/c (s)    =  N/A
# eccentricity     =  N/A
# w (rad)          =  N/A
# T_peri           =  N/A
######################################################
   0  1368.481
   1  1161.274
   2  971.1228
   3  810.6902
   4  640.5878
   5  497.9863
   6  443.272
   7  445.9407
   8  429.3765
   9  552.2689
  10  690.1645
  11  500.0149
  12  460.3914
  13  526.6155
  14  533.7227
  15  559.5281
  16  572.1248
  17  541.6001
  18  480.9001
  19  412.9253
  20  469.8618
  21  449.2511
  22  365.6086
  23  322.8114
  24  371.2175
  25  549.6744
  26  487.6222
  27  407.2687
  28  440.0255
  29  513.6834
  30  493.3799
  31  405.4039
  32  436.0878
  33  521.8392
  34  509.6003
  35  503.4741
  36  530.2975
  37  341.4599
  38  377.1927
  39  335.0655
  40  296.0545
  41  289.627
  42  309.3634
  43  291.1418
  44  295.8095
  45  368.7021
  46  236.3175
  47  349.5272
  48  410.7831
  49  389.0213
  50  285.3804
  51  263.297
  52  298.886
  53  409.5155
  54  313.491
  55  384.6396
  56  331.0241
  57  365.839
  58  339.7613
  59  372.4696
  60  487.9966
  61  473.326
  62  497.8619
  63  508.8738
  64  425.2064
  65  415.6079
  66  435.2214
  67  436.6008
  68  493.0149
  69  530.4714
  70  541.0361
  71  489.8449
  72  614.252
  73  500.4617
  74  585.7797
  75  503.6026
  76  464.2433
  77  491.1302
  78  443.0299
  79  434.6483
  80  599.2342
  81  498.2299
  82  411.7141
  83  536.6605
  84  528.789
  85  505.8955
  86  532.7363
  87  509.4092
  88  479.8671
  89  519.7994
  90  558.3163
  91  486.9178
  92  531.2181
  93  454.201
  94  465.6392
  95  480.417
  96  469.0108
  97  545.9728
  98  608.4646
  99  462.2205
 100  439.6824
 101  436.2301
 102  376.6131
 103  345.5643
 104  274.2347
 105  354.6903
 106  279.557
 107  236.4555
 108  303.9346
 109  290.1693
 110  328.766
 111  391.3987
 112  320.7695
 113  305.6874
 114  279.7895
 115  325.3047
 116  392.9281
 117  341.6096
 118  352.2029
 119  316.6536
 120  342.6015
 121  270.1138
 122  309.782
 123  370.2948
 124  335.816
 125  280.3367
 126  363.3466
 127  429.6497
 128  380.942
 129  259.4318
 130  227.9718
 131  251.3839
 132  317.6375
 133  397.0183
 134  404.2071
 135  352.6075
 136  425.765
 137  395.6546
 138  367.7638
 139  394.0132
 140  397.3284
 141  454.8087
 142  446.8093
 143  380.9061
 144  420.1853
 145  479.3447
 146  353.8513
 147  364.052
 148  450.6819
 149  378.9075
 150  444.7912
 151  468.0583
 152  438.336
 153  382.9201
 154  464.5051
 155  441.4787
 156  362.5543
 157  415.3869
 158  521.2472
 159  482.0972
 160  512.5059
 161  458.6714
 162  442.7459
 163  449.9092
 164  428.4749
 165  372.1016
 166  368.525
 167  330.5561
 168  336.9108
 169  446.662
 170  442.8364
 171  352.2273
 172  380.3944
 173  326.1218
 174  420.428
 175  394.8392
 176  286.351
 177  379.0309
 178  417.814
 179  397.7895
 180  408.7805
 181  415.6436
 182  432.8175
 183  285.2452
 184  368.8658
 185  332.9853
 186  343.4735
 187  326.1945
 188  415.1032
 189  311.2602
 190  271.7985
 191  380.8835
 192  352.0956
 193  303.4155
 194  313.8316
 195  309.3813
 196  394.1635
 197  323.5548
 198  431.3731
 199  489.7977
 200  431.6415
 201  358.9899
 202  433.8534
 203  392.4495
 204  288.9305
 205  437.4367
 206  385.4397
 207  344.0421
 208  419.7117
 209  412.3444
 210  384.8557
 211  411.4466
 212  412.7183
 213  329.3276
 214  234.6056
 215  296.2635
 216  449.4073
 217  439.7564
 218  399.4921
 219  414.8705
 220  425.5731
 221  471.8962
 222  387.315
 223  428.4799
 224  474.2572
 225  473.4601
 226  562.2105
 227  633.5927
 228  520.904
 229  554.6926
 230  544.2024
 231  392.6727
 232  557.0361
 233  555.6629
 234  635.9276
 235  562.5114
 236  463.7414
 237  532.0091
 238  522.2314
 239  600.9943
 240  508.8359
 241  482.1636
 242  494.0027
 243  594.7213
 244  441.1078
 245  403.65
 246  407.0581
 247  419.7472
 248  434.8191
 249  434.7274
 250  420.9332
 251  478.1855
 252  493.5834
 253  470.9142
 254  436.3773
 255  397.3557
 256  358.5878
 257  493.9118
 258  433.6466
 259  397.646
 260  433.6366
 261  503.8241
 262  456.109
 263  459.2148
 264  449.6228
 265  576.1168
 266  460.0434
 267  426.6844
 268  443.3723
 269  518.8577
 270  387.0474
 271  330.1291
 272  360.8872
 273  430.8954
 274  371.3727
 275  354.9999
 276  404.1174
 277  326.9447
 278  344.7606
 279  344.8
 280  297.4631
 281  343.5443
 282  356.2644
 283  474.2053
 284  455.3423
 285  423.165
 286  307.1271
 287  260.1667
 288  347.8744
 289  433.6001
 290  517.6442
 291  504.7096
 292  420.5344
 293  427.2432
 294  444.0967
 295  438.4474
 296  498.5866
 297  424.8517
 298  354.2175
 299  368.7384
 300  431.5023
 301  564.989
 302  494.7878
 303  563.419
 304  592.752
 305  554.7608
 306  362.6006
 307  432.8604
 308  460.9722
 309  491.9353
 310  491.1956
 311  464.113
 312  415.5214
 313  372.4145
 314  415.8554
 315  385.151
 316  467.8134
 317  532.2017
 318  388.8865
 319  344.6635
 320  318.6165
 321  311.5317
 322  205.4487
 323  158.9447
 324  206.8348
 325  387.7569
 326  422.0416
 327  297.8764
 328  305.773
 329  286.596
 330  359.5042
 331  328.382
 332  275.2326
 333  355.9304
 334  389.7837
 335  382.3701
 336  253.2122
 337  307.9122
 338  237.8658
 339  302.2734
 340  300.342
 341  377.641
 342  521.0906
 343  378.2937
 344  284.2742
 345  301.6777
 346  275.1643
 347  277.7347
 348  289.4264
 349  302.0718
 350  336.2191
 351  295.8489
 352  271.695
 353  268.6871
 354  294.4234
 355  250.2701
 356  391.9021
 357  265.7488
 358  151.2155
 359  210.5109
 360  309.7064
 361  355.3022
 362  328.75
 363  331.4402
 364  397.3834
 365  409.5804
 366  312.8434
 367  337.777
 368  347.221
 369  461.3415
 370  464.4217
 371  377.2135
 372  425.5205
 373  383.2249
 374  358.1333
 375  496.9459
 376  483.438
 377  444.7935
 378  407.9218
 379  439.8417
 380  471.4893
 381  429.4872
 382  359.3541
 383  399.5711
 384  382.2919
 385  342.0349
 386  272.1366
 387  263.7052
 388  273.8528
 389  323.4061
 390  415.4453
 391  427.8983
 392  392.6459
 393  337.3515
 394  373.8818
 395  402.8707
 396  357.5625
 397  366.8472
 398  406.89
 399  476.7398
 400  394.9901
 401  234.5119
 402  320.439
 403  282.6328
 404  220.9086
 405  198.6593
 406  247.6279
 407  339.9856
 408  241.4152
 409  271.0152
 410  175.179
 411  233.6362
 412  307.6546
 413  202.6665
 414  268.1057
 415  311.2458
 416  266.0215
 417  398.7406
 418  307.0842
 419  304.9349
 420  326.1347
 421  354.3771
 422  364.212
 423  402.6168
 424  287.757
 425  206.3387
 426  246.5108
 427  381.3604
 428  416.8849
 429  405.9138
 430  437.7213
 431  416.3069
 432  360.6612
 433  396.1269
 434  418.5214
 435  346.0364
 436  376.5756
 437  380.7536
 438  511.6467
 439  467.7405
 440  390.7909
 441  449.7021
 442  454.0661
 443  338.1707
 444  436.4489
 445  537.32
 446  550.5358
 447  505.3949
 448  453.9412
 449  474.0685
 450  475.5063
 451  389.84
 452  440.1095
 453  429.507
 454  345.7639
 455  475.4626
 456  458.6733
 457  428.4625
 458  390.5905
 459  354.5617
 460  427.0178
 461  429.9168
 462  459.834
 463  447.4129
 464  364.1772
 465  374.2455
 466  403.3863
 467  478.4328
 468  489.5109
 469  383.9195
 470  380.1512
 471  370.5098
 472  247.1644
 473  257.6842
 474  308.3589
 475  346.3737
 476  278.2914
 477  255.2243
 478  315.2339
 479  225.8074
 480  296.657
 481  310.5651
 482  158.1625
 483  148.8699
 484  252.0174
 485  341.7338
 486  415.9562
 487  348.5433
 488  247.2673
 489  325.8133
 490  297.1998
 491  438.8928
 492  482.7782
 493  514.8077
 494  483.4023
 495  529.8392
 496  486.6883
 497  454.3368
 498  386.8946
 499  317.5118
 500  399.5696
 501  389.0462
 502  408.866
 503  502.1917
 504  438.9773
 505  282.2797
 506  433.4321
 507  626.8456
 508  770.1649
 509  956.553
 510  1164.179
 511  1412.405
