# Input file       =  1207659017.11272_cleaned.dat
# Candidate        =  PSR_0332+5434
# Telescope        =  AR
# Epoch_topo       =  58221.535140193519
# Epoch_bary       =  N/A
# T_sample         =  0.002
# Data Folded      =  7340032
# Data Avg         =  0.499204602428239
# Data StdDev      =  7.01228419960355 
# Profile Bins     =  1024
# Profile Avg      =  3578.35524817848 
# Profile StdDev   =  593.688323669075 
# Reduced chi-sqr  =  0.913
# Prob(Noise)      <  0.979   (~0.0 sigma)
# P_topo (ms)      =  714.561435260203  +/- 0.000622
# P'_topo (s/s)    =  -0                +/- 3.28e-10
# P''_topo (s/s^2) =  0                 +/- 1.45e-13
# P_bary (ms)      =  N/A
# P'_bary (s/s)    =  N/A
# P''_bary (s/s^2) =  N/A
# P_orb (s)        =  N/A
# asin(i)/c (s)    =  N/A
# eccentricity     =  N/A
# w (rad)          =  N/A
# T_peri           =  N/A
######################################################
   0  3687.494
   1  3754.294
   2  3780.079
   3  3768.175
   4  3651.978
   5  3551.108
   6  3509.001
   7  3533.804
   8  3612.478
   9  3521.693
  10  3497.743
  11  3534.858
  12  3692.576
  13  3733.759
  14  3740.148
  15  3736.687
  16  3751.462
  17  3751.88
  18  3729.402
  19  3655.685
  20  3511.943
  21  3610.826
  22  3680.638
  23  3831.883
  24  3777.982
  25  3794.296
  26  3660.729
  27  3531.395
  28  3515.122
  29  3477.51
  30  3432.373
  31  3427.696
  32  3550.877
  33  3635.844
  34  3627.763
  35  3552.633
  36  3465.983
  37  3415.421
  38  3469.667
  39  3425.07
  40  3552.432
  41  3554.153
  42  3443.458
  43  3324.512
  44  3247.005
  45  3183.296
  46  3201.867
  47  3282.102
  48  3380.837
  49  3386.195
  50  3458.747
  51  3540.383
  52  3650.433
  53  3709.275
  54  3640.962
  55  3610.336
  56  3626.253
  57  3797.36
  58  3795.637
  59  3647.163
  60  3511.372
  61  3503.83
  62  3561.187
  63  3637.048
  64  3721.14
  65  3761.299
  66  3787.263
  67  3799.065
  68  3867.495
  69  3869.697
  70  3699.075
  71  3664.139
  72  3715.379
  73  3760.052
  74  3696.036
  75  3668.754
  76  3666.815
  77  3711.3
  78  3621.683
  79  3585.424
  80  3609.462
  81  3543.668
  82  3618.122
  83  3585.858
  84  3610.065
  85  3513.259
  86  3456.926
  87  3577.725
  88  3623.209
  89  3594.063
  90  3531.993
  91  3334.058
  92  3185.076
  93  3015.047
  94  3068.156
  95  3331.342
  96  3503.352
  97  3590.797
  98  3648.568
  99  3534.966
 100  3373.293
 101  3407.105
 102  3516.461
 103  3543.066
 104  3397.067
 105  3430.067
 106  3574.262
 107  3450.022
 108  3444.133
 109  3403.134
 110  3435.236
 111  3397.691
 112  3438.704
 113  3526.91
 114  3507.887
 115  3444.725
 116  3390.523
 117  3412.885
 118  3385.406
 119  3395.912
 120  3336.473
 121  3245.206
 122  3260.864
 123  3310.327
 124  3349.472
 125  3197.54
 126  3146.144
 127  3179.386
 128  3183.751
 129  3273.414
 130  3312.571
 131  3379.443
 132  3184.274
 133  3212.972
 134  3216.855
 135  3241.584
 136  3278.708
 137  3306.75
 138  3262.837
 139  3170.317
 140  3045.221
 141  3059.431
 142  3095.246
 143  3171.435
 144  3295.24
 145  3320.72
 146  3249.68
 147  3137.58
 148  3054.439
 149  3022.271
 150  2992.091
 151  2975.999
 152  3081.245
 153  3244.291
 154  3360.018
 155  3441.557
 156  3366.065
 157  3274.454
 158  3253.861
 159  3314.807
 160  3354.823
 161  3247.611
 162  3201.981
 163  3136.224
 164  3045.722
 165  3120.08
 166  3221.074
 167  3293.78
 168  3276.146
 169  3301.279
 170  3329.967
 171  3381.28
 172  3266.097
 173  3192.56
 174  3236.826
 175  3259.26
 176  3282.207
 177  3175.049
 178  3147.042
 179  3092.724
 180  3045.018
 181  2974.338
 182  2984.351
 183  2991.103
 184  3132.38
 185  3138.663
 186  3248.045
 187  3182.66
 188  3278.508
 189  3297.731
 190  3368.64
 191  3302.521
 192  3232.808
 193  3286.2
 194  3391.369
 195  3497.095
 196  3441.063
 197  3394.76
 198  3340.22
 199  3287.38
 200  3287.219
 201  3337.233
 202  3248.934
 203  3260.043
 204  3395.032
 205  3529.094
 206  3501.223
 207  3296.1
 208  3393.854
 209  3513.383
 210  3647.122
 211  3511.971
 212  3549.126
 213  3587.761
 214  3534.955
 215  3548.603
 216  3511.056
 217  3499.529
 218  3448.654
 219  3440.034
 220  3512.912
 221  3582.168
 222  3567.898
 223  3558.035
 224  3584.873
 225  3756.39
 226  3895.488
 227  3922.22
 228  3853.831
 229  3696.953
 230  3607.703
 231  3608.476
 232  3452.096
 233  3517.964
 234  3632.902
 235  3678.411
 236  3561.642
 237  3490.525
 238  3529.406
 239  3517.959
 240  3409.098
 241  3437.865
 242  3564.233
 243  3578.993
 244  3548.126
 245  3499.536
 246  3451.793
 247  3515.266
 248  3629.108
 249  3630.377
 250  3613.028
 251  3527.581
 252  3530.667
 253  3537.928
 254  3555.498
 255  3650.625
 256  3537.598
 257  3557.292
 258  3598.955
 259  3738.457
 260  3642.581
 261  3527.455
 262  3451.024
 263  3416.165
 264  3341.967
 265  3239.865
 266  3271.057
 267  3324.9
 268  3440.64
 269  3413.884
 270  3378.236
 271  3576.019
 272  3796.792
 273  3897.954
 274  3773.018
 275  3700.131
 276  3699.877
 277  3659.917
 278  3680.106
 279  3679.687
 280  3743.884
 281  3717.596
 282  3806.485
 283  3840.935
 284  3966.509
 285  3957.096
 286  3971.228
 287  3943.04
 288  3910.658
 289  3817.918
 290  3793.351
 291  3929.053
 292  3929.931
 293  3929.457
 294  3814.74
 295  3835.295
 296  3935.685
 297  3893.003
 298  3937.105
 299  3866.177
 300  3900.446
 301  3864.113
 302  3842.455
 303  3843.727
 304  3937.876
 305  4020.189
 306  4076.682
 307  4173.454
 308  4216.447
 309  4169.152
 310  3982.906
 311  3909.226
 312  3917.448
 313  3892.818
 314  3818.15
 315  3770.837
 316  3814.708
 317  3897.896
 318  3882.782
 319  3948.721
 320  4012.527
 321  3967.046
 322  3834.794
 323  3869.84
 324  3940.779
 325  4008.707
 326  3919.487
 327  3949.199
 328  3995.074
 329  3912.739
 330  3803.277
 331  3829.951
 332  3812.494
 333  3692.545
 334  3687.446
 335  3652.534
 336  3668.915
 337  3845.072
 338  3921.285
 339  4080.936
 340  3926.394
 341  3745.063
 342  3731.753
 343  3819.787
 344  3890.549
 345  3974.414
 346  3994.607
 347  3997.765
 348  3933.875
 349  3902.148
 350  3979.934
 351  3954.769
 352  3969.267
 353  4131.473
 354  4181.08
 355  4234.972
 356  4092.53
 357  4069.975
 358  4112.359
 359  4204.663
 360  4297.431
 361  4276.279
 362  4163.752
 363  4200.484
 364  4269.562
 365  4194.202
 366  4152.47
 367  4262.128
 368  4342.858
 369  4279.631
 370  4163.905
 371  4036.817
 372  4000.996
 373  4068.121
 374  4317.915
 375  4348.351
 376  4209.896
 377  4162.845
 378  4185.788
 379  4159.021
 380  4200.881
 381  4290.539
 382  4273.083
 383  4094.057
 384  3944.837
 385  4065.503
 386  4137.718
 387  4191.198
 388  4238.873
 389  4211.337
 390  3972.726
 391  3921.506
 392  3914.009
 393  4015.36
 394  4098.258
 395  4163.912
 396  4163.581
 397  4046.608
 398  3926.479
 399  3767.276
 400  3705.644
 401  3754.86
 402  3863.111
 403  3870.255
 404  3807.273
 405  3760.843
 406  3658.588
 407  3714.047
 408  3723.605
 409  3842.267
 410  3885.375
 411  3699.514
 412  3726.838
 413  3838.552
 414  3993.949
 415  3956.753
 416  3915.841
 417  3884.521
 418  3827.022
 419  3863.464
 420  3861.053
 421  4024.388
 422  3953.071
 423  3912.856
 424  3919.264
 425  3916.868
 426  3983.61
 427  3888.764
 428  3849.842
 429  3897.353
 430  3974.922
 431  3985.86
 432  3870.878
 433  3736.377
 434  3945.446
 435  4087.172
 436  4118.502
 437  4053.296
 438  4038.154
 439  4140.952
 440  4213.126
 441  4034.112
 442  3903.651
 443  3796.246
 444  3919.416
 445  4027.784
 446  4104.755
 447  4138.692
 448  4108.13
 449  4177.735
 450  4086.319
 451  4015.709
 452  3896.298
 453  3983.927
 454  3935.787
 455  4068.929
 456  4106.313
 457  4118.651
 458  3967.551
 459  3885.768
 460  3864.034
 461  3910.389
 462  3971.543
 463  4051.382
 464  3936.642
 465  3767.667
 466  3761.827
 467  3804.723
 468  3963.543
 469  4017.326
 470  4178.882
 471  4136.245
 472  4146.082
 473  4121.875
 474  4107.602
 475  4139.938
 476  4098.444
 477  4074.638
 478  3996.596
 479  3955.805
 480  3986.224
 481  4068.908
 482  4075.294
 483  3980.451
 484  3971.104
 485  3981.166
 486  3952.955
 487  3897.03
 488  3877.604
 489  3943.819
 490  3851.352
 491  3899.164
 492  3799.75
 493  3825.171
 494  3796.107
 495  3868.238
 496  3862.994
 497  3824.094
 498  3776.912
 499  3798.76
 500  3763.371
 501  3879.997
 502  3852.069
 503  3921.469
 504  3948.864
 505  3912.927
 506  3886.512
 507  3878.087
 508  3981.772
 509  4019.409
 510  3901.887
 511  3761.265
 512  3789.882
 513  3961.995
 514  4162.64
 515  4226.172
 516  4146.939
 517  4067.363
 518  4054.163
 519  4234.577
 520  4296.55
 521  4413.841
 522  4237.757
 523  4164.857
 524  4122.273
 525  4090.282
 526  4069.4
 527  4038.162
 528  4093.885
 529  4030.305
 530  4018.665
 531  3977.719
 532  4067.937
 533  4019.731
 534  3885.963
 535  3749.755
 536  3837.576
 537  3931.389
 538  4064.98
 539  4023.782
 540  4024.857
 541  3918.209
 542  3810.268
 543  3654.785
 544  3462.733
 545  3365.099
 546  3286.467
 547  3295.483
 548  3429.364
 549  3435.701
 550  3509.993
 551  3575.582
 552  3604.994
 553  3649.161
 554  3569.454
 555  3373.49
 556  3320.603
 557  3354.812
 558  3220.431
 559  3012.342
 560  3197.108
 561  3428.157
 562  3538.919
 563  3412.789
 564  3396.314
 565  3500.019
 566  3519.776
 567  3477.135
 568  3320.739
 569  3334.553
 570  3388.796
 571  3382.379
 572  3284.477
 573  3095.087
 574  3022.403
 575  3079.625
 576  3134.51
 577  3139.85
 578  3139.751
 579  3078.255
 580  3104.971
 581  3137.213
 582  3235.882
 583  3185.691
 584  3267.332
 585  3223.365
 586  3297.554
 587  3425.701
 588  3539.318
 589  3501.108
 590  3391.844
 591  3441.559
 592  3540.01
 593  3585.705
 594  3372.329
 595  3371.155
 596  3506.561
 597  3863.363
 598  4111.505
 599  4290.54
 600  4351.675
 601  4502.144
 602  4640.07
 603  4647.548
 604  4477.53
 605  4275.296
 606  4233.42
 607  4165.131
 608  4055.545
 609  3824.181
 610  3675.893
 611  3458.347
 612  3398.063
 613  3362.47
 614  3428.142
 615  3357.305
 616  3339.168
 617  3422.077
 618  3444.877
 619  3416.967
 620  3368.18
 621  3260.194
 622  3199.818
 623  3109.758
 624  3116.625
 625  3207.979
 626  3361.415
 627  3280.427
 628  3249.94
 629  3373.637
 630  3530.874
 631  3463.853
 632  3437.399
 633  3477.24
 634  3496.898
 635  3433.006
 636  3352.254
 637  3205.664
 638  3124.085
 639  3067.768
 640  3205.571
 641  3216.002
 642  3287.677
 643  3312.443
 644  3362.46
 645  3288.708
 646  3287.561
 647  3262.935
 648  3406.977
 649  3387.211
 650  3367.86
 651  3280.014
 652  3253.77
 653  3311.481
 654  3301.81
 655  3315.619
 656  3374.433
 657  3478.838
 658  3426.238
 659  3375.013
 660  3294.834
 661  3326.82
 662  3398.007
 663  3533.546
 664  3502.588
 665  3417.636
 666  3330.742
 667  3203.787
 668  3210.904
 669  3274.502
 670  3370.291
 671  3445.858
 672  3459.163
 673  3394.854
 674  3379.998
 675  3297.84
 676  3355.641
 677  3364.35
 678  3424.667
 679  3289.91
 680  3183.435
 681  3284.098
 682  3295.253
 683  3258.853
 684  3262.146
 685  3345.479
 686  3390.525
 687  3375.913
 688  3396.917
 689  3358.067
 690  3226.169
 691  3143.065
 692  3198.173
 693  3249.839
 694  3167.904
 695  3266.496
 696  3348.014
 697  3392.49
 698  3265.53
 699  3209.115
 700  3303.027
 701  3345.903
 702  3264.33
 703  3148.605
 704  3111.46
 705  3021.667
 706  3045.645
 707  3069.097
 708  3141.681
 709  3080.816
 710  3104.817
 711  3167.64
 712  3058.138
 713  3092.611
 714  3158.871
 715  3283.691
 716  3227.324
 717  3142.99
 718  3117.426
 719  3219.928
 720  3208.204
 721  3091.702
 722  3032.406
 723  3136.663
 724  3261.739
 725  3238.199
 726  3131.443
 727  3123.044
 728  3140.253
 729  3200.189
 730  3141.557
 731  3260.967
 732  3222.584
 733  3332.662
 734  3378.776
 735  3448.281
 736  3463.84
 737  3409.293
 738  3264.455
 739  3229.554
 740  3305.021
 741  3520.299
 742  3667.573
 743  3561.341
 744  3540.897
 745  3501.208
 746  3646.165
 747  3580.966
 748  3547.313
 749  3381.188
 750  3353.462
 751  3380.144
 752  3364.529
 753  3371.687
 754  3449.537
 755  3498.825
 756  3570.168
 757  3603.687
 758  3600.042
 759  3572.53
 760  3565.547
 761  3577.011
 762  3495.612
 763  3536.649
 764  3560.887
 765  3412.662
 766  3345.904
 767  3218.648
 768  3359.284
 769  3509.32
 770  3472.421
 771  3302.051
 772  3237.624
 773  3350.824
 774  3428.679
 775  3308.306
 776  3203.431
 777  3235.101
 778  3315.88
 779  3519.017
 780  3438.385
 781  3403.084
 782  3365.083
 783  3476.21
 784  3497.485
 785  3384.886
 786  3360.05
 787  3457.757
 788  3532.234
 789  3429.317
 790  3436.89
 791  3562.542
 792  3502.06
 793  3523.292
 794  3575.496
 795  3635.08
 796  3850.512
 797  3895.844
 798  3816.482
 799  3606.401
 800  3545.404
 801  3652.584
 802  3749.365
 803  3808.284
 804  3684.407
 805  3642.86
 806  3577.061
 807  3610.531
 808  3558.987
 809  3529.663
 810  3536.487
 811  3655.077
 812  3686.39
 813  3711.019
 814  3764.993
 815  3792.283
 816  3796.733
 817  3873.253
 818  4050.695
 819  4044.975
 820  3784.346
 821  3570.606
 822  3672.177
 823  3844.239
 824  3972.361
 825  3937.02
 826  3920.826
 827  3797.522
 828  3724.409
 829  3785.157
 830  3880.062
 831  3825.719
 832  3713.093
 833  3577.234
 834  3604.603
 835  3587.69
 836  3594.586
 837  3514.24
 838  3591.918
 839  3580.049
 840  3686.374
 841  3693.798
 842  3746.926
 843  3765.61
 844  3687.981
 845  3556.764
 846  3590.699
 847  3587.14
 848  3505.372
 849  3444.756
 850  3403.552
 851  3485.357
 852  3417.785
 853  3458.461
 854  3437.396
 855  3593.576
 856  3732.312
 857  3665.94
 858  3469.769
 859  3342.576
 860  3233.289
 861  3210.595
 862  3111.328
 863  3068.537
 864  3186.564
 865  3283.517
 866  3398.144
 867  3428.37
 868  3458.738
 869  3385.627
 870  3414.41
 871  3340.734
 872  3301.831
 873  3082.108
 874  3244.916
 875  3482.511
 876  3452.343
 877  3434.212
 878  3431.678
 879  3486.658
 880  3373.326
 881  3372.674
 882  3471.612
 883  3411.094
 884  3291.248
 885  3096.454
 886  3119.225
 887  3193.375
 888  3427.64
 889  3425.581
 890  3531.455
 891  3444.718
 892  3390.702
 893  3345.952
 894  3378.272
 895  3353.105
 896  3308.89
 897  3398.826
 898  3413.336
 899  3366.355
 900  3319.599
 901  3249.16
 902  3256.001
 903  3367.834
 904  3469.638
 905  3511.575
 906  3540.695
 907  3591.409
 908  3484.412
 909  3427.688
 910  3333.352
 911  3339.687
 912  3273.432
 913  3249.234
 914  3212.864
 915  3257.294
 916  3268.448
 917  3278.625
 918  3255.365
 919  3181.15
 920  3135.292
 921  3183.509
 922  3079.552
 923  3116.526
 924  3184.707
 925  3208.584
 926  3221.985
 927  3086.43
 928  3107.98
 929  3212.775
 930  3347.168
 931  3513.341
 932  3483.933
 933  3343.407
 934  3149.116
 935  3123.594
 936  3052.386
 937  3052.013
 938  3023.988
 939  3211.499
 940  3228.514
 941  3227.374
 942  3207.111
 943  3204.375
 944  3276.282
 945  3306.025
 946  3380.993
 947  3365.371
 948  3410.011
 949  3314.644
 950  3281.172
 951  3193.256
 952  3320.227
 953  3421.707
 954  3572.955
 955  3640.584
 956  3741.373
 957  3728.886
 958  3769.367
 959  3693.478
 960  3634.067
 961  3569.311
 962  3500.595
 963  3384.214
 964  3279.578
 965  3151.769
 966  3261.355
 967  3330.275
 968  3350.553
 969  3316.249
 970  3318.111
 971  3400.342
 972  3432.524
 973  3428.594
 974  3396.807
 975  3421.031
 976  3508.893
 977  3522.428
 978  3490.19
 979  3502.735
 980  3566.312
 981  3536.165
 982  3528.68
 983  3386.466
 984  3255.23
 985  3338.794
 986  3391.371
 987  3503.153
 988  3473.116
 989  3489.626
 990  3484.752
 991  3483
 992  3491.768
 993  3413.083
 994  3408.27
 995  3483.928
 996  3549.308
 997  3557.044
 998  3341.856
 999  3402.558
1000  3406.651
1001  3481.421
1002  3466.307
1003  3564.668
1004  3649.924
1005  3577.79
1006  3498.456
1007  3600.586
1008  3596.104
1009  3704.781
1010  3617.904
1011  3581.907
1012  3497.422
1013  3505.531
1014  3664.116
1015  3788.029
1016  3724.094
1017  3692.333
1018  3675.165
1019  3674.319
1020  3716.442
1021  3845.972
1022  3931.397
1023  3838.804
