# Input file       =  1207981188.104769_cleaned.dat
# Candidate        =  PSR_0332+5434
# Telescope        =  AR
# Epoch_topo       =  58225.263971120010
# Epoch_bary       =  N/A
# T_sample         =  0.002
# Data Folded      =  7143424
# Data Avg         =  0.0174777072576896
# Data StdDev      =  1.00002876262777 
# Profile Bins     =  512
# Profile Avg      =  243.871638510854 
# Profile StdDev   =  118.121981882745 
# Reduced chi-sqr  =  2.131
# Prob(Noise)      <  6.13e-44   (~13.9 sigma)
# P_topo (ms)      =  714.558386268042  +/- 0.000192
# P'_topo (s/s)    =  -0                +/- 1.04e-10
# P''_topo (s/s^2) =  0                 +/- 4.71e-14
# P_bary (ms)      =  N/A
# P'_bary (s/s)    =  N/A
# P''_bary (s/s^2) =  N/A
# P_orb (s)        =  N/A
# asin(i)/c (s)    =  N/A
# eccentricity     =  N/A
# w (rad)          =  N/A
# T_peri           =  N/A
######################################################
   0  1194.315
   1  955.3026
   2  625.1368
   3  436.2797
   4  334.571
   5  349.1596
   6  292.8371
   7  249.869
   8  202.0709
   9  176.43
  10  289.7025
  11  264.9482
  12  199.0432
  13  281.3028
  14  348.5726
  15  282.5554
  16  291.5303
  17  302.7898
  18  299.0389
  19  356.1018
  20  199.192
  21  299.2941
  22  306.5457
  23  209.6107
  24  279.7057
  25  330.162
  26  304.9402
  27  288.1289
  28  412.7284
  29  285.1206
  30  250.6721
  31  279.7778
  32  277.3445
  33  236.3835
  34  272.7101
  35  302.276
  36  164.5914
  37  245.7596
  38  296.8989
  39  333.7884
  40  261.7672
  41  298.663
  42  284.8593
  43  343.4233
  44  315.6966
  45  345.0323
  46  343.5775
  47  340.5066
  48  186.1852
  49  291.0423
  50  341.1833
  51  302.5302
  52  243.3139
  53  221.2205
  54  289.0034
  55  292.964
  56  343.3383
  57  338.865
  58  239.5353
  59  184.2123
  60  176.8163
  61  57.73715
  62  195.4496
  63  214.7454
  64  114.5099
  65  65.6535
  66  227.4514
  67  237.7499
  68  160.8736
  69  155.7154
  70  175.023
  71  166.8119
  72  179.7328
  73  255.6308
  74  208.4282
  75  90.09055
  76  194.8
  77  178.9285
  78  284.589
  79  306.1249
  80  243.7104
  81  197.5774
  82  95.34499
  83  36.59053
  84  119.6253
  85  134.0723
  86  189.0649
  87  154.1696
  88  141.6456
  89  178.832
  90  353.1812
  91  366.1957
  92  197.899
  93  92.51752
  94  83.54867
  95  85.76366
  96  141.3652
  97  242.4911
  98  209.4201
  99  156.6498
 100  205.6863
 101  186.331
 102  255.3827
 103  240.4874
 104  396.2906
 105  272.4561
 106  145.5593
 107  309.005
 108  262.3341
 109  351.3412
 110  294.5736
 111  164.6293
 112  232.7181
 113  322.9999
 114  202.4267
 115  154.7743
 116  297.3429
 117  283.3383
 118  282.9859
 119  291.3396
 120  201.8059
 121  300.5625
 122  262.1781
 123  275.627
 124  214.0903
 125  157.1852
 126  273.2073
 127  269.3749
 128  228.2946
 129  325.0327
 130  412.7519
 131  306.9276
 132  235.5369
 133  153.8
 134  142.9584
 135  108.1633
 136  100.2759
 137  278.0966
 138  304.0077
 139  150.1947
 140  174.7763
 141  268.5772
 142  219.7673
 143  293.0208
 144  208.6557
 145  405.9038
 146  431.2775
 147  278.0171
 148  242.3974
 149  172.7822
 150  242.0564
 151  340.2825
 152  156.7733
 153  155.4954
 154  277.0699
 155  254.608
 156  381.5612
 157  403.0373
 158  377.4798
 159  254.0567
 160  208.0945
 161  184.4959
 162  182.3229
 163  135.2322
 164  225.7851
 165  68.6791
 166  74.29114
 167  244.0234
 168  303.0245
 169  244.8937
 170  258.6336
 171  296.4492
 172  315.1566
 173  323.9989
 174  365.8171
 175  230.5113
 176  161.8288
 177  223.5803
 178  216.0927
 179  49.58826
 180  4.12514
 181  128.8152
 182  321.906
 183  206.3932
 184  238.7176
 185  285.7802
 186  355.4652
 187  362.6992
 188  364.242
 189  533.5683
 190  331.5503
 191  244.2097
 192  157.5704
 193  185.3223
 194  225.279
 195  372.7914
 196  383.225
 197  334.125
 198  225.6863
 199  221.5198
 200  262.5729
 201  254.0591
 202  201.9763
 203  322.5651
 204  198.1606
 205  175.6072
 206  146.4857
 207  153.4185
 208  271.4706
 209  259.4492
 210  298.2604
 211  97.24379
 212  174.2395
 213  132.9268
 214  8.136024
 215  277.2065
 216  330.6636
 217  241.0332
 218  110.2731
 219  189.2489
 220  331.1158
 221  350.2879
 222  254.7454
 223  268.1186
 224  249.3606
 225  306.9561
 226  286.2504
 227  372.3107
 228  328.9859
 229  246.7533
 230  246.2147
 231  290.9589
 232  308.7627
 233  297.7925
 234  233.5229
 235  243.1834
 236  252.4463
 237  324.9529
 238  253.2259
 239  222.6995
 240  382.5629
 241  397.1132
 242  264.6283
 243  194.1306
 244  214.3854
 245  247.3362
 246  313.1811
 247  418.1298
 248  293.1372
 249  212.3538
 250  236.6179
 251  259.0066
 252  230.423
 253  334.5785
 254  380.9599
 255  414.6896
 256  401.826
 257  191.9492
 258  246.2546
 259  365.4298
 260  192.6646
 261  237.4499
 262  204.2583
 263  276.4433
 264  134.5532
 265  169.1282
 266  158.4634
 267  140.601
 268  164.4068
 269  281.1316
 270  385.6619
 271  395.8113
 272  378.5639
 273  280.7129
 274  319.7162
 275  244.6722
 276  205.0208
 277  191.7325
 278  194.7866
 279  186.9013
 280  72.881
 281  62.38132
 282  238.6383
 283  77.93527
 284  41.83707
 285  175.0674
 286  257.1541
 287  239.7932
 288  129.3828
 289  228.6603
 290  231.278
 291  141.5973
 292  79.40557
 293  60.83792
 294  117.5018
 295  232.6814
 296  249.088
 297  166.157
 298  135.353
 299  132.4612
 300  145.2091
 301  280.7923
 302  253.132
 303  230.2358
 304  155.9715
 305  203.8923
 306  190.2452
 307  200.3799
 308  224.2026
 309  295.2176
 310  190.1288
 311  127.7627
 312  199.496
 313  209.8099
 314  263.7583
 315  207.5025
 316  189.223
 317  268.1816
 318  126.2975
 319  99.63182
 320  258.5739
 321  311.3208
 322  291.4889
 323  249.7652
 324  178.2337
 325  168.0291
 326  187.017
 327  233.8897
 328  235.4526
 329  157.5972
 330  2.219376
 331  97.45816
 332  251.2806
 333  304.2043
 334  280.3393
 335  441.2402
 336  415.5779
 337  306.43
 338  170.1664
 339  227.1148
 340  266.1369
 341  247.8056
 342  226.4394
 343  200.4376
 344  293.1476
 345  309.7066
 346  222.9364
 347  92.50848
 348  131.5006
 349  218.5526
 350  114.9921
 351  201.8224
 352  209.8364
 353  141.7068
 354  274.3019
 355  335.2823
 356  161.7182
 357  -14.60046
 358  13.15384
 359  181.2564
 360  271.3301
 361  177.0731
 362  94.77054
 363  145.1448
 364  135.8542
 365  167.1641
 366  101.406
 367  252.7354
 368  248.6622
 369  181.9113
 370  350.8695
 371  258.6334
 372  211.5632
 373  154.5078
 374  201.0192
 375  299.7046
 376  318.0525
 377  212.4649
 378  133.8438
 379  162.3201
 380  195.0289
 381  140.0016
 382  74.32367
 383  88.81647
 384  189.0126
 385  335.5226
 386  445.1546
 387  444.4851
 388  295.6226
 389  280.7299
 390  304.545
 391  209.2733
 392  114.3482
 393  33.80505
 394  103.7213
 395  221.2134
 396  302.5842
 397  37.48021
 398  212.5004
 399  294.9392
 400  191.4029
 401  179.8562
 402  290.1699
 403  262.1742
 404  283.9044
 405  267.9092
 406  306.5695
 407  166.0433
 408  183.2358
 409  177.549
 410  94.93058
 411  209.8328
 412  181.2373
 413  187.9871
 414  73.40788
 415  86.56628
 416  138.4802
 417  223.7486
 418  170.8259
 419  210.3842
 420  275.0214
 421  234.5729
 422  181.0298
 423  364.0931
 424  226.4735
 425  145.8947
 426  224.7367
 427  173.744
 428  175.5336
 429  197.9637
 430  215.7921
 431  292.0945
 432  149.4013
 433  94.34762
 434  -27.75885
 435  74.58198
 436  190.8226
 437  144.9276
 438  213.2218
 439  209.693
 440  117.6107
 441  87.66299
 442  159.0239
 443  190.1582
 444  145.9374
 445  129.2341
 446  78.43842
 447  176.7343
 448  235.6364
 449  239.9521
 450  255.6655
 451  342.3349
 452  203.8215
 453  277.903
 454  288.6701
 455  325.0224
 456  194.8257
 457  103.3788
 458  128.5812
 459  156.4539
 460  55.05731
 461  160.2857
 462  106.1601
 463  153.7198
 464  307.0458
 465  210.7044
 466  158.9978
 467  118.9881
 468  259.7769
 469  362.3286
 470  348.6424
 471  358.303
 472  284.7453
 473  372.9661
 474  385.9721
 475  309.5257
 476  304.4567
 477  249.1237
 478  132.0444
 479  111.7784
 480  153.343
 481  304.744
 482  209.2637
 483  406.5571
 484  475.9231
 485  387.0728
 486  351.6374
 487  213.7787
 488  323.0802
 489  242.8273
 490  294.2029
 491  328.6666
 492  364.0694
 493  369.1715
 494  371.4304
 495  312.7923
 496  244.6798
 497  278.3922
 498  212.1945
 499  130.0945
 500  144.1053
 501  214.4759
 502  306.8804
 503  370.6461
 504  519.6403
 505  429.5826
 506  461.4951
 507  467.5913
 508  625.0615
 509  768.4621
 510  1106.271
 511  1233.926
