# Input file       =  1207838381.103960-PSRB0329-2ms-sampling-dd.dat
# Candidate        =  PSR_0332+5434
# Telescope        =  AR
# Epoch_topo       =  58223.611112314349
# Epoch_bary       =  N/A
# T_sample         =  0.002
# Data Folded      =  7340032
# Data Avg         =  -1.5531916104805e-09
# Data StdDev      =  7.09501283730261 
# Profile Bins     =  512
# Profile Avg      =  -0.0119759261846537
# Profile StdDev   =  849.507430142376 
# Reduced chi-sqr  =  0.515
# Prob(Noise)      <  1   (~0.0 sigma)
# P_topo (ms)      =  714.560036528475  +/- 0.000743
# P'_topo (s/s)    =  -0                +/- 3.92e-10
# P''_topo (s/s^2) =  0                 +/- 1.73e-13
# P_bary (ms)      =  N/A
# P'_bary (s/s)    =  N/A
# P''_bary (s/s^2) =  N/A
# P_orb (s)        =  N/A
# asin(i)/c (s)    =  N/A
# eccentricity     =  N/A
# w (rad)          =  N/A
# T_peri           =  N/A
######################################################
   0  178.5595
   1  103.7005
   2  31.7223
   3  -226.7204
   4  -368.4549
   5  -849.754
   6  -598.9287
   7  -843.5426
   8  -643.2728
   9  -452.6169
  10  -568.2825
  11  -350.8088
  12  -269.161
  13  -812.2245
  14  -674.4484
  15  -515.9944
  16  -356.0721
  17  -143.1617
  18  -315.008
  19  -374.9113
  20  -371.9642
  21  -280.7712
  22  -591.6818
  23  -631.6227
  24  -496.9263
  25  -375.9935
  26  -503.8395
  27  -246.1168
  28  -72.32362
  29  -185.2076
  30  -586.8917
  31  -665.238
  32  -531.1024
  33  -191.1676
  34  -185.8051
  35  -118.1435
  36  -303.5343
  37  -269.0662
  38  -717.0944
  39  -593.5025
  40  -304.072
  41  -219.6762
  42  -96.37868
  43  -209.0871
  44  -453.645
  45  -616.2571
  46  -512.4603
  47  -647.7266
  48  -422.5241
  49  -151.2072
  50  -171.7479
  51  -25.80644
  52  -393.2819
  53  -776.9624
  54  -1012.894
  55  -833.563
  56  -885.1973
  57  -674.4766
  58  -431.7637
  59  -198.2132
  60  -321.4701
  61  -499.3954
  62  -675.8565
  63  -565.6028
  64  -337.416
  65  -155.5729
  66  -341.3027
  67  -339.5217
  68  -519.6249
  69  -442.8669
  70  -150.7136
  71  -219.9099
  72  -473.5409
  73  -255.5505
  74  -219.0591
  75  -55.63868
  76  -267.4785
  77  -438.6737
  78  -281.9281
  79  -145.3121
  80  18.52807
  81  256.1479
  82  157.699
  83  -84.42352
  84  -540.8997
  85  -322.2383
  86  -445.2143
  87  -497.6513
  88  -459.7366
  89  -202.4919
  90  -533.4745
  91  -536.8298
  92  -319.1451
  93  -417.8476
  94  -777.0944
  95  -714.8235
  96  -619.3922
  97  -331.0285
  98  -397.3029
  99  155.6384
 100  260.0944
 101  -217.1438
 102  -371.6686
 103  -68.44395
 104  -141.1263
 105  -559.4541
 106  -245.132
 107  -264.5262
 108  -66.47534
 109  230.4201
 110  339.5459
 111  93.66864
 112  -253.2509
 113  -493.1942
 114  -838.0928
 115  -679.9509
 116  -151.2508
 117  428.0629
 118  216.4648
 119  -224.6101
 120  -443.2687
 121  -302.8939
 122  -312.2067
 123  -515.1697
 124  -381.7792
 125  -228.0141
 126  -290.5472
 127  -17.76863
 128  -23.56121
 129  -329.5057
 130  -31.49778
 131  -5.320128
 132  -248.5771
 133  75.90382
 134  106.7128
 135  387.9526
 136  129.4747
 137  -74.86854
 138  -70.10191
 139  -16.09707
 140  589.9238
 141  567.6542
 142  254.635
 143  409.2545
 144  575.9791
 145  142.4074
 146  -2.088497
 147  197.2168
 148  141.1118
 149  248.6083
 150  340.6179
 151  255.0835
 152  359.8346
 153  460.4066
 154  512.5918
 155  464.5949
 156  478.9947
 157  361.8218
 158  623.0895
 159  470.3528
 160  343.3516
 161  610.3057
 162  788.1533
 163  432.3875
 164  446.1156
 165  327.8457
 166  544.0409
 167  454.8312
 168  388.5906
 169  594.7532
 170  784.3856
 171  416.0275
 172  177.2672
 173  266.6823
 174  453.2699
 175  114.4754
 176  298.6428
 177  493.6908
 178  281.1939
 179  82.76003
 180  -83.85345
 181  -68.49552
 182  -185.3579
 183  -121.8872
 184  443.2172
 185  546.4216
 186  439.9314
 187  -27.6817
 188  48.17744
 189  -18.40226
 190  42.98682
 191  296.5939
 192  345.9013
 193  40.36252
 194  56.13785
 195  165.8415
 196  248.5207
 197  154.0999
 198  -365.5119
 199  -352.4319
 200  -440.3946
 201  -129.3006
 202  208.4635
 203  264.8466
 204  298.8981
 205  222.799
 206  346.6787
 207  -246.4787
 208  -218.2134
 209  -105.3393
 210  157.3194
 211  258.991
 212  82.405
 213  -317.0193
 214  -329.6829
 215  -282.732
 216  -764.8635
 217  -309.7013
 218  -67.28639
 219  -350.1372
 220  -333.3279
 221  -441.7551
 222  -704.6168
 223  -838.0814
 224  -751.2917
 225  -504.1642
 226  293.4573
 227  265.1166
 228  228.694
 229  234.3071
 230  380.72
 231  564.6
 232  580.2933
 233  559.0345
 234  617.806
 235  895.3783
 236  853.6854
 237  510.253
 238  501.393
 239  -50.05651
 240  89.30742
 241  203.783
 242  554.4265
 243  908.63
 244  394.8665
 245  253.2194
 246  167.2973
 247  421.5773
 248  131.8738
 249  123.4633
 250  496.0017
 251  474.8901
 252  202.821
 253  98.74416
 254  -181.9778
 255  -108.9164
 256  -304.5648
 257  -86.2335
 258  -345.1925
 259  -697.7373
 260  -383.5468
 261  -155.5132
 262  -289.4767
 263  -423.8359
 264  -289.9591
 265  -46.15683
 266  -114.0364
 267  -389.5173
 268  -191.4374
 269  -431.5671
 270  -138.2445
 271  -134.5882
 272  -235.3603
 273  -47.26089
 274  -166.6803
 275  -41.44274
 276  210.997
 277  245.2956
 278  -88.3381
 279  -19.26769
 280  65.7466
 281  77.39199
 282  -148.6243
 283  -352.5387
 284  -146.8264
 285  41.1963
 286  -143.0781
 287  -400.1259
 288  -425.9586
 289  -720.4856
 290  -669.0076
 291  -133.0866
 292  210.8937
 293  555.5369
 294  560.7504
 295  335.5656
 296  -16.09387
 297  -160.099
 298  -100.1243
 299  253.7364
 300  844.442
 301  603.368
 302  -34.83258
 303  -34.59486
 304  -457.6516
 305  -909.6525
 306  -706.622
 307  -255.6799
 308  -18.5325
 309  38.99247
 310  67.87205
 311  -296.4912
 312  -80.7234
 313  -190.9281
 314  -484.9462
 315  -87.8447
 316  217.2127
 317  168.4899
 318  355.9979
 319  115.636
 320  183.9595
 321  341.0172
 322  345.6758
 323  398.576
 324  490.8443
 325  143.4751
 326  143.306
 327  458.7375
 328  798.9661
 329  604.9333
 330  751.8844
 331  775.6014
 332  575.2812
 333  443.7652
 334  419.5111
 335  388.7352
 336  76.22857
 337  -31.77547
 338  -21.89318
 339  411.2939
 340  252.6357
 341  131.2646
 342  394.056
 343  373.4002
 344  79.11401
 345  -89.97771
 346  58.64094
 347  96.48058
 348  -123.3009
 349  -98.23636
 350  -70.90478
 351  190.5049
 352  -202.9676
 353  -11.50807
 354  -144.6914
 355  -299.0527
 356  -19.97652
 357  65.04827
 358  160.7039
 359  267.6445
 360  446.3158
 361  274.4656
 362  143.3364
 363  378.8663
 364  428.0943
 365  -28.76051
 366  31.95264
 367  278.0827
 368  318.2366
 369  147.2986
 370  -153.1373
 371  -146.5949
 372  -66.34535
 373  -212.2857
 374  -290.0496
 375  -259.2705
 376  -19.72585
 377  -563.9124
 378  -614.1781
 379  -438.5896
 380  -667.8409
 381  -511.2459
 382  -315.1488
 383  -607.1133
 384  -617.3594
 385  -535.8643
 386  -228.686
 387  66.21932
 388  99.41775
 389  -289.5709
 390  -73.21043
 391  -78.48174
 392  387.369
 393  578.1424
 394  579.9106
 395  489.1878
 396  523.3253
 397  596.5298
 398  638.8786
 399  359.4516
 400  239.7731
 401  180.5655
 402  -184.3082
 403  36.67524
 404  370.8976
 405  174.2718
 406  -227.4624
 407  277.5263
 408  737.1595
 409  1049.159
 410  1640.082
 411  1951.088
 412  2776.665
 413  2727.915
 414  2159.736
 415  1625.886
 416  1099.099
 417  646.5925
 418  393.8721
 419  108.8321
 420  143.838
 421  -70.83546
 422  170.1656
 423  322.6376
 424  402.8463
 425  409.7241
 426  471.3033
 427  368.6595
 428  -64.48234
 429  98.38042
 430  192.1489
 431  59.62863
 432  -201.4165
 433  -67.05934
 434  -117.9825
 435  -326.8173
 436  -345.3027
 437  -96.95791
 438  316.5653
 439  -93.05853
 440  -260.6277
 441  -279.5149
 442  122.7762
 443  -201.1905
 444  -372.6104
 445  290.2216
 446  488.0897
 447  199.6358
 448  256.8018
 449  495.0432
 450  79.52406
 451  128.7182
 452  94.62556
 453  -234.1492
 454  -351.6249
 455  -279.2701
 456  125.3145
 457  48.75396
 458  43.37608
 459  -397.9467
 460  -130.0278
 461  -158.2688
 462  2.360545
 463  27.97749
 464  -186.4987
 465  -291.0005
 466  79.05473
 467  -105.4249
 468  -164.0683
 469  -297.2115
 470  -52.78817
 471  -198.1612
 472  -199.8468
 473  45.13194
 474  -229.5293
 475  -78.31423
 476  -0.9413124
 477  -64.68435
 478  -87.34361
 479  45.53068
 480  56.83496
 481  21.57389
 482  28.50193
 483  -7.511503
 484  160.9026
 485  489.1751
 486  401.3922
 487  404.5938
 488  171.4062
 489  279.8354
 490  -3.154654
 491  -356.3815
 492  -340.8464
 493  100.2174
 494  29.42011
 495  -117.9206
 496  182.3934
 497  117.3588
 498  -130.7226
 499  -149.7468
 500  -320.122
 501  -338.3702
 502  -22.78554
 503  94.67517
 504  83.87175
 505  311.7678
 506  68.76714
 507  6.324709
 508  -99.47254
 509  -92.10033
 510  410.2387
 511  709.9141
