# Input file       =  1207924562.108558-PSRB0329-2ms-sampling-dd.dat
# Candidate        =  PSR_0332+5434
# Telescope        =  AR
# Epoch_topo       =  58224.608577645347
# Epoch_bary       =  N/A
# T_sample         =  0.002
# Data Folded      =  7340032
# Data Avg         =  9.8574485856279e-11
# Data StdDev      =  123.638934230995 
# Profile Bins     =  512
# Profile Avg      =  0.0226024346017028
# Profile StdDev   =  14803.6650098644 
# Reduced chi-sqr  =  0.888
# Prob(Noise)      <  0.967   (~0.0 sigma)
# P_topo (ms)      =  714.55926009322   +/- 0.000376
# P'_topo (s/s)    =  -0                +/- 1.99e-10
# P''_topo (s/s^2) =  0                 +/- 8.77e-14
# P_bary (ms)      =  N/A
# P'_bary (s/s)    =  N/A
# P''_bary (s/s^2) =  N/A
# P_orb (s)        =  N/A
# asin(i)/c (s)    =  N/A
# eccentricity     =  N/A
# w (rad)          =  N/A
# T_peri           =  N/A
######################################################
   0  6787.036
   1  6009.106
   2  4867.672
   3  5883.896
   4  1375.245
   5  -769.834
   6  12992.6
   7  21849.2
   8  25868.2
   9  24918.45
  10  7706.202
  11  2654.585
  12  698.7408
  13  9286.949
  14  7861.382
  15  5645.936
  16  -1100.188
  17  -3895.56
  18  -5756.921
  19  -4623.616
  20  -4781.093
  21  -4144.342
  22  -2936.409
  23  -4986.723
  24  -6421.411
  25  -8188.826
  26  -9125.789
  27  -9160.227
  28  -9365.713
  29  -8905.027
  30  -8658.133
  31  -9089.084
  32  -9580.746
  33  -9254.893
  34  -8840.336
  35  -8500.562
  36  -8785.827
  37  -8857.845
  38  -9355.122
  39  -9962.919
  40  -9665.651
  41  -9170.673
  42  -9008.59
  43  -6703.595
  44  -4189.284
  45  -1777.242
  46  1349.453
  47  579.8178
  48  175.4912
  49  -2137.758
  50  3883.829
  51  8681.98
  52  9646.52
  53  10916.92
  54  9157.942
  55  5978.938
  56  1843.323
  57  -345.4468
  58  -2179.294
  59  -5946.407
  60  -7293.034
  61  -8076.835
  62  -5719.049
  63  -2864.111
  64  -2095.078
  65  -2246.091
  66  -5484.599
  67  -7338.271
  68  -9030.047
  69  -9077.243
  70  -8837.918
  71  -9119.455
  72  -9308.216
  73  -9463.876
  74  -9183.913
  75  -9702.352
  76  -9503.342
  77  -9717.105
  78  -9637.022
  79  -9781.92
  80  -9552.977
  81  -9200.511
  82  -9281.949
  83  -9034.3
  84  -9216.671
  85  -9437.093
  86  -9044.08
  87  -9363.094
  88  -8994.163
  89  -8814.275
  90  -9038.224
  91  -8622.889
  92  -8650.979
  93  -9102.379
  94  -8590.539
  95  -8396.543
  96  -8546.679
  97  -187.4147
  98  5476.728
  99  9185.017
 100  16060.33
 101  10082.06
 102  6282.634
 103  -3639.532
 104  18630.21
 105  28769.54
 106  36416.99
 107  27965.11
 108  15837.42
 109  3827.078
 110  -5285.408
 111  -7406.822
 112  -7272.254
 113  -5837.732
 114  -4050.658
 115  -2638.683
 116  -2822.111
 117  -6764.907
 118  -7125.955
 119  -5049.701
 120  1398.901
 121  3942.678
 122  3138.609
 123  1249.352
 124  -7176.044
 125  -7550.004
 126  -8563.742
 127  -7844.719
 128  -7944.079
 129  -8130.889
 130  -8577.259
 131  -9112.849
 132  -8914.363
 133  -8974.404
 134  -9151.666
 135  -8447.79
 136  -8488.164
 137  -8266.655
 138  -9144.358
 139  -9132.998
 140  -9165.192
 141  -8639.508
 142  -8915.414
 143  -8282.587
 144  -8841.689
 145  -9410.043
 146  -8892.081
 147  -8651.746
 148  -9181.655
 149  -8742.398
 150  -7909.182
 151  -6954.786
 152  -1222.096
 153  3135.274
 154  7060.605
 155  9628.405
 156  4029.99
 157  2293.594
 158  418.3442
 159  11829.21
 160  20721.85
 161  29337.79
 162  24955.11
 163  18056.45
 164  8650.014
 165  -961.0389
 166  -3779.435
 167  -5026.954
 168  1711.892
 169  1946.206
 170  2178.187
 171  -1877.466
 172  -6452.426
 173  -8580.742
 174  -9077.014
 175  -9972.146
 176  -9777.735
 177  -9537.766
 178  -10323.51
 179  -7490.798
 180  -3890.647
 181  4572.578
 182  8530.868
 183  9907.98
 184  7778.86
 185  -4930.619
 186  -2246.711
 187  11104.43
 188  22224.87
 189  24519.48
 190  24653.84
 191  4066.298
 192  -2971.644
 193  -8344.467
 194  -8477.444
 195  -8958.093
 196  -8126.743
 197  -8036.444
 198  -8162.315
 199  -8136.608
 200  -7956.257
 201  -8449.343
 202  -7869.682
 203  -7025.356
 204  1937.975
 205  10282.31
 206  22201.97
 207  31745.53
 208  26740.47
 209  18490.04
 210  5189.372
 211  27403.52
 212  46728.33
 213  62884
 214  55651.86
 215  42741.41
 216  15797.71
 217  1157.197
 218  -1585.405
 219  -798.9102
 220  -7062.226
 221  -7045.4
 222  -5633.289
 223  5333.209
 224  5440.827
 225  5017.893
 226  2693.897
 227  -6506.928
 228  -7725.153
 229  -7863.932
 230  -4503.115
 231  -2394.127
 232  -1979.085
 233  -2902.093
 234  -3436.416
 235  -7095.929
 236  -7686.338
 237  -8524.789
 238  -1103.451
 239  -1312.161
 240  -2655.351
 241  -5277.244
 242  -7337.074
 243  -8721.983
 244  -9359.459
 245  -9220.072
 246  -9210.208
 247  -9547.468
 248  -10059.09
 249  -6431.896
 250  -3789.292
 251  -879.9839
 252  3156.339
 253  1454.009
 254  -1535.611
 255  -8843.19
 256  1876.894
 257  8102.523
 258  14137.99
 259  11375.67
 260  10235.52
 261  7354.082
 262  4597.595
 263  2965.457
 264  -3278.838
 265  -6002.782
 266  5367.606
 267  12197.93
 268  14723.12
 269  13574.93
 270  3151.181
 271  -1609.251
 272  -4930.191
 273  -422.8049
 274  376.057
 275  817.5909
 276  -2299.533
 277  -1798.61
 278  -47.66552
 279  3722.92
 280  6547.486
 281  8974.457
 282  10861.9
 283  8865.742
 284  9079.145
 285  7952.313
 286  6230.823
 287  -7080.574
 288  1268.968
 289  9389.458
 290  20940.94
 291  20140.54
 292  15999.09
 293  6091.74
 294  -2156.546
 295  -3443.439
 296  -3183.974
 297  -4449.602
 298  -3423.611
 299  -179.4003
 300  6642.021
 301  8290.932
 302  6931.293
 303  8625.531
 304  13276.19
 305  14473.3
 306  13154.32
 307  9026.136
 308  6747.675
 309  10127.4
 310  13799.15
 311  13448.7
 312  9547.993
 313  955.4843
 314  -3906.127
 315  -8202.662
 316  -8306.127
 317  -8180.012
 318  -8833.109
 319  -8146.059
 320  -8628.42
 321  -8898.939
 322  -9125.379
 323  -9092.784
 324  -9189.368
 325  -8750.327
 326  -8548.694
 327  -8352.029
 328  -8078.083
 329  -8062.126
 330  -5876.627
 331  -3145.449
 332  -1443.81
 333  -16.97765
 334  446.2027
 335  -1884.795
 336  -7537.489
 337  -1382.207
 338  2616.616
 339  6592.812
 340  5167.022
 341  1829.505
 342  -986.957
 343  -4284.154
 344  -5425.81
 345  -6370.104
 346  -8098.627
 347  -8629.247
 348  -8297.481
 349  -8284.418
 350  -8710.404
 351  -8760.377
 352  -8601.854
 353  -7237.337
 354  -6206.785
 355  -5365.393
 356  -4698.888
 357  -6937.657
 358  -8580.312
 359  -5209.961
 360  -2659.671
 361  -582.2028
 362  537.7065
 363  -1013.582
 364  -1648.944
 365  -2168.444
 366  -2748.768
 367  1187.559
 368  7838.303
 369  15006.37
 370  14394.24
 371  11395.49
 372  310.0298
 373  2667.426
 374  8989.95
 375  19484.09
 376  16972.89
 377  12869.71
 378  1966.388
 379  -5492.019
 380  -5980.61
 381  -4921.856
 382  -4275.813
 383  -4686.906
 384  -4645.963
 385  -4983.084
 386  -6531.494
 387  -6596.496
 388  -6460.185
 389  -69.54752
 390  861.1632
 391  1223.734
 392  -2904.279
 393  -5021.207
 394  -6018.776
 395  -5895.49
 396  -5541.656
 397  -5711.488
 398  -5599.335
 399  -6207.756
 400  -6932.363
 401  -7434.607
 402  -6805.445
 403  -4547.175
 404  -3382.386
 405  -2749.07
 406  -4933.784
 407  -6049.479
 408  -7638.578
 409  -5969.777
 410  -4881.751
 411  -4913.792
 412  -4405.749
 413  -4798.994
 414  -4792.725
 415  -5085.2
 416  -3803.21
 417  -3948.176
 418  -3864.261
 419  1511.552
 420  2226.004
 421  2293.502
 422  -2962.324
 423  -4493.956
 424  -5460.664
 425  -4556.863
 426  -5801.095
 427  -6134.016
 428  -6780.065
 429  -7229.232
 430  -7514.165
 431  -6638.722
 432  -4053.413
 433  966.2272
 434  5496.923
 435  9321.062
 436  10073.84
 437  6148.495
 438  -3111.81
 439  4486.086
 440  13577.36
 441  24532.1
 442  21754.5
 443  13148.82
 444  4503.542
 445  -5966.448
 446  -2859.861
 447  -1389.114
 448  -391.0424
 449  -1255.206
 450  -2658.352
 451  -4525.791
 452  -3158.413
 453  -3419.935
 454  -3790.094
 455  -3330.799
 456  -3420.389
 457  -4162.226
 458  -6242.735
 459  -6510.769
 460  -5622.692
 461  -2711.46
 462  -859.183
 463  -1659.621
 464  -2846.383
 465  -6270.978
 466  -6468.807
 467  -6454.989
 468  -4374.515
 469  -4020.368
 470  -3741.661
 471  -4140.185
 472  -7435.929
 473  -7875.413
 474  -6757.594
 475  -1184.803
 476  -412.3781
 477  -749.3376
 478  774.6884
 479  62.92556
 480  1898.703
 481  5426.57
 482  5447.26
 483  3099.523
 484  -3820.479
 485  4245.993
 486  10329.62
 487  15974.04
 488  13914.34
 489  11533.08
 490  4811.444
 491  598.6439
 492  -1565.745
 493  -2840.912
 494  -6085.228
 495  -4962.902
 496  -3831.604
 497  -201.9342
 498  800.9391
 499  3663.76
 500  8982.691
 501  9732.459
 502  12123.77
 503  15618.17
 504  2490.444
 505  6422.146
 506  10441.36
 507  32022.97
 508  28880.68
 509  26482.98
 510  17763.32
 511  5772.377
