# Input file       =  1207909654.116253_cleaned.dat
# Candidate        =  PSR_0332+5434
# Telescope        =  AR
# Epoch_topo       =  58224.436031438112
# Epoch_bary       =  N/A
# T_sample         =  0.002
# Data Folded      =  7340032
# Data Avg         =  -0.0146789905213947
# Data StdDev      =  5.75294021018422 
# Profile Bins     =  512
# Profile Avg      =  -211.133754415739
# Profile StdDev   =  688.816999459348 
# Reduced chi-sqr  =  1.191
# Prob(Noise)      <  0.00185   (~2.9 sigma)
# P_topo (ms)      =  714.559058067365  +/- 0.000611
# P'_topo (s/s)    =  -0                +/- 3.23e-10
# P''_topo (s/s^2) =  0                 +/- 1.42e-13
# P_bary (ms)      =  N/A
# P'_bary (s/s)    =  N/A
# P''_bary (s/s^2) =  N/A
# P_orb (s)        =  N/A
# asin(i)/c (s)    =  N/A
# eccentricity     =  N/A
# w (rad)          =  N/A
# T_peri           =  N/A
######################################################
   0  -909.3309
   1  -937.5166
   2  -901.4838
   3  -904.9366
   4  -936.4625
   5  -864.2909
   6  -732.2351
   7  -210.6263
   8  97.18674
   9  -134.9901
  10  -525.3893
  11  -347.0252
  12  -335.6779
  13  -362.6869
  14  -214.4058
  15  -80.97251
  16  97.06689
  17  167.3835
  18  -110.8365
  19  -500.9607
  20  -381.52
  21  -401.1522
  22  -104.7693
  23  165.2332
  24  568.53
  25  696.3409
  26  351.4739
  27  -118.0598
  28  -345.6034
  29  -169.462
  30  18.01257
  31  -108.4733
  32  -21.00912
  33  -101.8624
  34  -172.929
  35  -244.7721
  36  -76.19402
  37  -56.58543
  38  -750.3856
  39  -564.5099
  40  -201.1062
  41  -174.388
  42  -494.7462
  43  -302.3475
  44  -585.7428
  45  -356.6569
  46  -57.18594
  47  -29.05133
  48  -163.2354
  49  -172.5415
  50  66.85726
  51  -36.19495
  52  -87.39648
  53  -208.1014
  54  -464.0509
  55  -42.67601
  56  93.93838
  57  190.875
  58  276.0361
  59  36.06687
  60  -193.4124
  61  -404.7919
  62  -454.1266
  63  -274.8508
  64  -186.2378
  65  -262.4865
  66  -671.5181
  67  -491.6847
  68  -313.6559
  69  -399.2098
  70  -373.4894
  71  -312.4713
  72  -397.8158
  73  -641.6893
  74  -386.3374
  75  -248.5044
  76  -14.96229
  77  -140.8276
  78  -463.8349
  79  -489.9727
  80  -495.3152
  81  -337.8182
  82  -145.1847
  83  -480.5001
  84  -116.7313
  85  54.65538
  86  -357.6042
  87  -579.0839
  88  -362.2573
  89  -146.9965
  90  -268.9661
  91  -91.0965
  92  305.2485
  93  322.8094
  94  166.5807
  95  466.0012
  96  641.7458
  97  411.6441
  98  798.3544
  99  747.3448
 100  581.0735
 101  271.2378
 102  403.6135
 103  518.0652
 104  399.1887
 105  438.533
 106  -11.87467
 107  -210.343
 108  156.9428
 109  206.9204
 110  -89.18655
 111  203.7619
 112  662.2711
 113  416.4117
 114  245.517
 115  294.7977
 116  -106.5109
 117  -266.666
 118  -168.9201
 119  -273.9552
 120  -206.4124
 121  90.2859
 122  -320.2814
 123  72.37112
 124  207.3574
 125  13.15109
 126  -242.8627
 127  -54.69921
 128  -103.5545
 129  -527.926
 130  -651.0682
 131  -628.9569
 132  -310.274
 133  -171.0777
 134  -301.3393
 135  -903.7899
 136  -601.1223
 137  -444.398
 138  -265.593
 139  -354.4551
 140  -349.7481
 141  -773.1694
 142  -837.0892
 143  -657.1606
 144  -462.6748
 145  -525.1024
 146  -836.1948
 147  -903.3624
 148  -560.1072
 149  -566.4899
 150  -801.0942
 151  -925.1235
 152  -1021.034
 153  -1109.494
 154  -1178.374
 155  -1608.403
 156  -1740.464
 157  -1709.445
 158  -1639.622
 159  -1607.156
 160  -1582.546
 161  -1356.247
 162  -1272.992
 163  -1144.915
 164  -1461.446
 165  -1646.46
 166  -1437.544
 167  -1177.849
 168  -1260.066
 169  -1189.474
 170  -1186.74
 171  -1448.667
 172  -1349.823
 173  -1525.839
 174  -1369.844
 175  -1569.693
 176  -1646.617
 177  -1458.425
 178  -1528.126
 179  -1465.449
 180  -1544.571
 181  -1189.084
 182  -1325.794
 183  -1338.878
 184  -1367.606
 185  -787.2772
 186  -439.541
 187  -465.5432
 188  -478.2667
 189  -839.7037
 190  -783.2207
 191  -470.9455
 192  -734.5352
 193  -378.1697
 194  -227.6992
 195  -481.0266
 196  -513.973
 197  -452.3481
 198  -467.0658
 199  -700.952
 200  -802.1962
 201  -1009.661
 202  -1076.582
 203  -716.202
 204  -395.7321
 205  -321.2307
 206  -768.8677
 207  -329.278
 208  -252.9723
 209  -196.0805
 210  -84.91844
 211  -404.7979
 212  -619.5283
 213  -304.0354
 214  -173.0611
 215  -146.5013
 216  -103.4906
 217  -32.72012
 218  -137.465
 219  3.822588
 220  188.4859
 221  232.5981
 222  435.6826
 223  190.9244
 224  180.1416
 225  475.7681
 226  642.3858
 227  598.2038
 228  634.9628
 229  699.6666
 230  310.3271
 231  438.8819
 232  481.6372
 233  539.4641
 234  689.9852
 235  648.4203
 236  1073.07
 237  653.9771
 238  595.6572
 239  749.1912
 240  479.4341
 241  107.5322
 242  36.25552
 243  97.03928
 244  510.4229
 245  364.382
 246  595.5257
 247  933.212
 248  694.7206
 249  546.3582
 250  657.5973
 251  480.7419
 252  534.459
 253  350.5246
 254  160.0688
 255  199.9016
 256  -92.6925
 257  -159.731
 258  -9.608895
 259  -187.1055
 260  -236.115
 261  164.3918
 262  309.3293
 263  -65.71249
 264  -425.6405
 265  -195.483
 266  -168.2572
 267  -326.7097
 268  -55.20887
 269  227.3374
 270  252.5941
 271  -162.2812
 272  -292.7269
 273  -271.4327
 274  -47.20911
 275  -112.6386
 276  -286.9598
 277  -331.4756
 278  -410.0421
 279  -380.8181
 280  -35.70763
 281  136.6497
 282  -271.1699
 283  -382.4258
 284  -347.0868
 285  -509.2166
 286  -458.8602
 287  -15.93279
 288  132.1855
 289  -2.896179
 290  -74.27474
 291  215.0824
 292  550.1143
 293  143.8993
 294  -147.2587
 295  -27.99921
 296  138.0266
 297  107.1319
 298  236.5534
 299  977.0179
 300  1456.544
 301  1422.878
 302  1649.157
 303  1094.162
 304  841.4745
 305  469.4603
 306  140.4683
 307  13.28772
 308  107.5237
 309  105.7001
 310  -209.422
 311  -156.8574
 312  -103.4128
 313  10.39076
 314  214.361
 315  372.0231
 316  388.4963
 317  361.7547
 318  312.5384
 319  269.3989
 320  361.9836
 321  223.0078
 322  222.4146
 323  -193.6914
 324  -484.7727
 325  -200.7259
 326  27.24136
 327  -42.09797
 328  -236.3226
 329  -308.6841
 330  -423.6525
 331  -457.063
 332  -250.0858
 333  -284.2969
 334  -178.4467
 335  -690.4287
 336  -673.9306
 337  -776.057
 338  -496.2672
 339  -168.8159
 340  -409.5018
 341  -715.597
 342  -614.7374
 343  -316.62
 344  -612.6454
 345  -419.8264
 346  -347.9273
 347  -482.1787
 348  -227.9252
 349  98.86029
 350  -127.1177
 351  -411.4565
 352  -711.2349
 353  -616.8146
 354  -607.04
 355  -849.8017
 356  -843.0743
 357  -320.4279
 358  -254.989
 359  -526.5727
 360  -257.0567
 361  -365.6325
 362  -369.8388
 363  -179.4196
 364  -238.5599
 365  -544.0839
 366  -803.4909
 367  -677.9847
 368  -664.924
 369  -816.4513
 370  -753.353
 371  -630.8571
 372  -923.676
 373  -874.5436
 374  -754.3995
 375  -572.6128
 376  -545.9612
 377  -483.9647
 378  -527.9031
 379  -886.3243
 380  -760.1354
 381  -501.9019
 382  -268.6277
 383  -268.0501
 384  -230.808
 385  -116.3362
 386  -134.151
 387  -266.2269
 388  -581.9844
 389  -167.0878
 390  102.5818
 391  330.9904
 392  356.5066
 393  474.3949
 394  15.03073
 395  -53.36812
 396  8.315505
 397  235.361
 398  -198.8405
 399  -46.43202
 400  -13.6156
 401  47.92347
 402  -64.67775
 403  -95.96871
 404  42.82868
 405  -253.3813
 406  -24.21604
 407  204.6797
 408  269.5035
 409  258.8643
 410  125.3682
 411  -276.5116
 412  -378.0979
 413  33.36377
 414  -214.3166
 415  -27.56371
 416  -21.07638
 417  -73.88579
 418  -238.2794
 419  -325.9245
 420  -348.8037
 421  -82.06397
 422  230.001
 423  147.6987
 424  -138.1859
 425  -4.93312
 426  -94.48555
 427  161.9908
 428  180.7087
 429  362.9276
 430  -13.71265
 431  76.79241
 432  223.1283
 433  53.81223
 434  286.8505
 435  546.1786
 436  487.3482
 437  491.7069
 438  771.1137
 439  727.552
 440  734.461
 441  396.4498
 442  377.6735
 443  597.9084
 444  383.6544
 445  195.2597
 446  503.0542
 447  929.8546
 448  863.0188
 449  502.1057
 450  466.1901
 451  418.6582
 452  165.4077
 453  219.0737
 454  652.6911
 455  449.6827
 456  152.3169
 457  299.3283
 458  372.3319
 459  485.074
 460  37.13875
 461  -144.806
 462  -185.225
 463  42.20378
 464  -83.61797
 465  -235.044
 466  285.6159
 467  65.75593
 468  -21.80313
 469  -63.08519
 470  189.3697
 471  371.7393
 472  308.625
 473  -90.31809
 474  -81.14072
 475  -76.88169
 476  -80.75474
 477  52.801
 478  -195.9448
 479  -465.512
 480  -345.3473
 481  -563.4091
 482  -681.7189
 483  -304.0431
 484  -312.3283
 485  -236.4022
 486  67.22191
 487  -5.96087
 488  -315.8717
 489  -502.7785
 490  -440.3523
 491  -346.0467
 492  -332.2001
 493  -442.4476
 494  -297.0603
 495  -698.8673
 496  -1006.495
 497  -1115.725
 498  -1059.778
 499  -950.2327
 500  -1067.387
 501  -1101.937
 502  -1185.384
 503  -1042.53
 504  -823.5021
 505  -972.4293
 506  -1256.167
 507  -1202.219
 508  -882.56
 509  -720.0169
 510  -1009.256
 511  -1011.125
