# Input file       =  1207838381.10396_cleaned.dat
# Candidate        =  PSR_0332+5434
# Telescope        =  AR
# Epoch_topo       =  58223.611112314349
# Epoch_bary       =  N/A
# T_sample         =  0.002
# Data Folded      =  7340032
# Data Avg         =  0.0285430146315703
# Data StdDev      =  1.00004940612517 
# Profile Bins     =  512
# Profile Avg      =  409.200032531135 
# Profile StdDev   =  119.738951922149 
# Reduced chi-sqr  =  2.134
# Prob(Noise)      <  4.03e-44   (~13.9 sigma)
# P_topo (ms)      =  714.560036528475  +/- 0.000261
# P'_topo (s/s)    =  -0                +/- 1.37e-10
# P''_topo (s/s^2) =  0                 +/- 6.07e-14
# P_bary (ms)      =  N/A
# P'_bary (s/s)    =  N/A
# P''_bary (s/s^2) =  N/A
# P_orb (s)        =  N/A
# asin(i)/c (s)    =  N/A
# eccentricity     =  N/A
# w (rad)          =  N/A
# T_peri           =  N/A
######################################################
   0  462.3508
   1  430.6529
   2  435.7943
   3  373.431
   4  346.2044
   5  268.6571
   6  364.9642
   7  258.2148
   8  250.3008
   9  298.5884
  10  293.1862
  11  332.7885
  12  395.3652
  13  311.1058
  14  309.3358
  15  275.3541
  16  338.924
  17  386.007
  18  343.8447
  19  344.7259
  20  324.7827
  21  332.1933
  22  274.3091
  23  313.8962
  24  372.9593
  25  324.4746
  26  286.5229
  27  371.7346
  28  427.3363
  29  377.3103
  30  245.9888
  31  235.4906
  32  249.6377
  33  325.9469
  34  407.9144
  35  394.1896
  36  353.3147
  37  432.2357
  38  388.0598
  39  371.5701
  40  394.6802
  41  400.9792
  42  457.7312
  43  440.2963
  44  378.7153
  45  428.3713
  46  470.8119
  47  347.2694
  48  371.4236
  49  451.4814
  50  377.7922
  51  452.1157
  52  466.6728
  53  430.7569
  54  382.6208
  55  469.8672
  56  436.6342
  57  355.6829
  58  435.5705
  59  513.1648
  60  491.548
  61  504.554
  62  460.2984
  63  442.7118
  64  443.9822
  65  430.7975
  66  364.0273
  67  372.016
  68  323.2724
  69  346.031
  70  449.1664
  71  438.8459
  72  350.9236
  73  379.8014
  74  324.2422
  75  432.0061
  76  377.2503
  77  293.4371
  78  381.6124
  79  423.3513
  80  389.9319
  81  417.2687
  82  415.4211
  83  420.299
  84  284.7818
  85  372.5814
  86  332.2604
  87  343.0766
  88  326.9996
  89  418.2075
  90  294.382
  91  285.4717
  92  386.197
  93  344.6302
  94  302.6494
  95  311.0349
  96  313.3929
  97  398.0011
  98  321.0031
  99  448.9039
 100  486.2227
 101  422.1363
 102  357.2678
 103  439.8299
 104  378.7283
 105  289.8028
 106  448.9156
 107  375.5854
 108  351.438
 109  418.7152
 110  418.0929
 111  376.7387
 112  424.7224
 113  398.8981
 114  324.7971
 115  228.2269
 116  311.1617
 117  457.5524
 118  435.7348
 119  397.731
 120  409.7195
 121  434.917
 122  467.6055
 123  388.6054
 124  433.1898
 125  470.2695
 126  479.2309
 127  571.6321
 128  630.6324
 129  513.2847
 130  565.7194
 131  530.2043
 132  396.9374
 133  565.6789
 134  551.9188
 135  645.4511
 136  547.1869
 137  464.0305
 138  534.3455
 139  525.5317
 140  602.5402
 141  499.9716
 142  481.8192
 143  506.2562
 144  585.8469
 145  428.9368
 146  407.2381
 147  408.5683
 148  420.8336
 149  434.4061
 150  434.1861
 151  423.9997
 152  482.4306
 153  493.1753
 154  465.5432
 155  436.0043
 156  386.0652
 157  367.7881
 158  497.5731
 159  426.2721
 160  397.8767
 161  437.3705
 162  507.367
 163  454.3071
 164  460.2971
 165  455.0115
 166  575.0862
 167  450.3994
 168  428.6389
 169  453.0995
 170  515.689
 171  372.6915
 172  330.0394
 173  367.6354
 174  432.7089
 175  363.4721
 176  362.252
 177  398.4663
 178  325.17
 179  344.6517
 180  342.9166
 181  297.4618
 182  344.8047
 183  363.4421
 184  479.2815
 185  451.5859
 186  412.8876
 187  299.8484
 188  265.2499
 189  354.7155
 190  440.7984
 191  527.8761
 192  496.5031
 193  418.0791
 194  430.2182
 195  438.2066
 196  444.4891
 197  498.9648
 198  411.8439
 199  357.2522
 200  369.7454
 201  445.5849
 202  567.3279
 203  489.0478
 204  572.4374
 205  587.7732
 206  544.2134
 207  357.0223
 208  442.5779
 209  462.0627
 210  492.712
 211  491.6505
 212  459.3729
 213  411.3206
 214  371.449
 215  418.9952
 216  381.6989
 217  482.4358
 218  525.2323
 219  376.7912
 220  348.2834
 221  315.3868
 222  307.0447
 223  194.3551
 224  157.5578
 225  221.754
 226  401.948
 227  407.5861
 228  294.1282
 229  307.4426
 230  288.3476
 231  366.2586
 232  318.0525
 233  277.2415
 234  366.2829
 235  390.3646
 236  371.4101
 237  252.906
 238  308.1224
 239  238.8798
 240  298.9207
 241  307.8587
 242  387.5521
 243  526.9103
 244  353.873
 245  290.2163
 246  293.8715
 247  283.5201
 248  274.9533
 249  290.5248
 250  303.4219
 251  338.9137
 252  283.0034
 253  275.0665
 254  272.5902
 255  292.2004
 256  256.368
 257  395.6548
 258  244.9855
 259  151.0781
 260  223.8535
 261  316.8409
 262  353.387
 263  328.6857
 264  332.4022
 265  404.0257
 266  401.0834
 267  313.2534
 268  339.7637
 269  350.0758
 270  469.1397
 271  454.8349
 272  377.8115
 273  432.8448
 274  371.9733
 275  367.5681
 276  504.2199
 277  481.3438
 278  436.1951
 279  406.5301
 280  445.4642
 281  471.3158
 282  424.3511
 283  359.6026
 284  400.0359
 285  380.1606
 286  339.4614
 287  264.3349
 288  266.3494
 289  271.1197
 290  335.097
 291  414.2337
 292  435.4065
 293  384.807
 294  334.3204
 295  383.3537
 296  395.8813
 297  356.1416
 298  372.5284
 299  407.3892
 300  480.2885
 301  378.1715
 302  235.8526
 303  325.422
 304  279.0129
 305  214.2332
 306  200.4391
 307  256.4557
 308  335.686
 309  236.82
 310  268.7606
 311  170.2548
 312  244.9516
 313  302.7274
 314  198.5482
 315  279.6231
 316  304.8771
 317  276.0832
 318  403.8132
 319  290.2016
 320  315.0937
 321  322.5845
 322  360.7273
 323  367.7744
 324  397.2014
 325  275.5979
 326  202.3162
 327  259.1535
 328  391.1427
 329  414.7459
 330  409.4803
 331  438.2404
 332  410.78
 333  357.3449
 334  404.0398
 335  416.9684
 336  340.6986
 337  377.3779
 338  385.8054
 339  523.6094
 340  455.6617
 341  390.7867
 342  455.8847
 343  441.4201
 344  340.6265
 345  448.8449
 346  536.8982
 347  558.3085
 348  489.5222
 349  456.7976
 350  473.4501
 351  475.7825
 352  385.9537
 353  447.5876
 354  418.8522
 355  345.0221
 356  486.9944
 357  453.7893
 358  434.2152
 359  376.4025
 360  360.0427
 361  430.3518
 362  426.6732
 363  467.0634
 364  434.606
 365  367.3854
 366  373.9009
 367  409.1383
 368  488.7222
 369  473.9308
 370  385.7646
 371  379.9998
 372  366.4097
 373  237.948
 374  258.6799
 375  314.5488
 376  344.7809
 377  276.326
 378  256.0731
 379  316.2377
 380  219.0945
 381  307.3392
 382  293.9512
 383  155.1898
 384  155.0409
 385  262.4415
 386  344.4752
 387  422.0609
 388  328.1362
 389  263.3478
 390  318.7908
 391  303.647
 392  450.2411
 393  482.1393
 394  518.3256
 395  481.1584
 396  532.9301
 397  476.9156
 398  457.9231
 399  373.9008
 400  321.5085
 401  404.9526
 402  381.1466
 403  421.6217
 404  500.5006
 405  423.8149
 406  282.7815
 407  455.524
 408  638.8778
 409  786.9183
 410  973.3605
 411  1189.08
 412  1422.004
 413  1353.89
 414  1142.237
 415  957.7173
 416  795.9277
 417  624.1319
 418  489.2644
 419  440.8241
 420  446.2448
 421  426.0703
 422  578.5052
 423  679.6916
 424  483.4146
 425  472.2974
 426  525.2274
 427  538.8373
 428  558.1465
 429  572.709
 430  535.1812
 431  473.2198
 432  418.9333
 433  471.361
 434  441.719
 435  360.4825
 436  318.8145
 437  380.188
 438  561.0476
 439  474.1035
 440  409.5164
 441  447.864
 442  518.7186
 443  486.1226
 444  403.257
 445  439.3929
 446  527.2578
 447  501.6899
 448  514.2737
 449  517.3947
 450  336.0429
 451  378.8501
 452  326.1816
 453  292.157
 454  293.3207
 455  308.1569
 456  287.2656
 457  309.6321
 458  360.9875
 459  237.7567
 460  359.0936
 461  414.8598
 462  377.4099
 463  280.5128
 464  266.0018
 465  311.2225
 466  400.1509
 467  317.8797
 468  380.7219
 469  334.0035
 470  364.871
 471  332.6263
 472  388.2043
 473  490.8307
 474  471.413
 475  500.9103
 476  503.8626
 477  415.7375
 478  425.5769
 479  433.6133
 480  438.5277
 481  498.9216
 482  527.9308
 483  535.1968
 484  502.0893
 485  610.4656
 486  503.9392
 487  587.2985
 488  492.4304
 489  465.3735
 490  490.2181
 491  428.8736
 492  455.9767
 493  600.8212
 494  486.1737
 495  413.3437
 496  546.2555
 497  529.6153
 498  500.2343
 499  540.03
 500  499.3709
 501  479.6045
 502  528.385
 503  552.6411
 504  494.8076
 505  521.1723
 506  451.2784
 507  467.3168
 508  484.2607
 509  468.3009
 510  563.4738
 511  590.4875
