# Input file       =  1208412144.103333-PSRB0329-2ms-sampling-dd.dat
# Candidate        =  PSR_0332+5434
# Telescope        =  AR
# Epoch_topo       =  58230.251887770057
# Epoch_bary       =  N/A
# T_sample         =  0.002
# Data Folded      =  7208960
# Data Avg         =  -6.89835185044879e-10
# Data StdDev      =  7.02751006612069 
# Profile Bins     =  512
# Profile Avg      =  0.571890057150229
# Profile StdDev   =  833.878552326621 
# Reduced chi-sqr  =  0.984
# Prob(Noise)      <  0.592   (~0.0 sigma)
# P_topo (ms)      =  714.554314435855  +/- 4.16e-05
# P'_topo (s/s)    =  -0                +/- 2.23e-11
# P''_topo (s/s^2) =  0                 +/- 1e-14
# P_bary (ms)      =  N/A
# P'_bary (s/s)    =  N/A
# P''_bary (s/s^2) =  N/A
# P_orb (s)        =  N/A
# asin(i)/c (s)    =  N/A
# eccentricity     =  N/A
# w (rad)          =  N/A
# T_peri           =  N/A
######################################################
   0  373.2386
   1  340.8487
   2  574.9346
   3  437.6555
   4  646.8169
   5  593.6765
   6  602.0195
   7  -198.5929
   8  -664.4272
   9  -479.7841
  10  -332.7488
  11  220.1693
  12  195.2944
  13  356.3427
  14  546.7697
  15  -256.4432
  16  -426.2444
  17  -469.5218
  18  -413.3416
  19  -188.769
  20  -595.2605
  21  -471.6736
  22  -47.99908
  23  -173.8586
  24  -1214.777
  25  -1275.466
  26  -686.8461
  27  -514.04
  28  -421.3758
  29  -125.6428
  30  419.5471
  31  300.3701
  32  -271.4807
  33  -473.82
  34  -363.3034
  35  -254.2079
  36  -510.7442
  37  -483.1028
  38  59.58638
  39  -302.2638
  40  -1117.049
  41  -1802.868
  42  -1630.128
  43  -921.7243
  44  -148.732
  45  -384.5041
  46  595.6121
  47  437.3958
  48  -257.1939
  49  -703.9335
  50  -1010.853
  51  -542.9042
  52  -152.4282
  53  -187.5677
  54  -403.6441
  55  26.05729
  56  -476.9481
  57  -790.2126
  58  -1291.106
  59  -852.0176
  60  -252.2249
  61  -28.1098
  62  144.1575
  63  664.5943
  64  1405.392
  65  774.3558
  66  129.8663
  67  -22.80771
  68  -413.0159
  69  403.3192
  70  352.6885
  71  432.179
  72  636.6361
  73  94.09235
  74  -296.5323
  75  -668.0204
  76  -540.168
  77  -239.4995
  78  -129.6408
  79  575.2994
  80  1182.939
  81  511.329
  82  37.01894
  83  48.19646
  84  -153.4236
  85  -306.1319
  86  -319.2476
  87  133.5357
  88  817.7266
  89  132.1643
  90  -571.5635
  91  -380.7642
  92  86.08082
  93  -427.4159
  94  -420.1995
  95  245.6405
  96  655.6128
  97  336.2433
  98  -368.7377
  99  -465.9249
 100  -113.8394
 101  42.50024
 102  322.0923
 103  481.647
 104  668.3179
 105  382.7158
 106  -469.2843
 107  -877.4996
 108  -790.8361
 109  -441.3545
 110  -229.1218
 111  -115.8663
 112  117.2198
 113  652.6282
 114  170.7587
 115  -208.5292
 116  -149.8958
 117  -277.2969
 118  -165.0295
 119  -851.9243
 120  -318.8901
 121  100.494
 122  -143.8622
 123  -284.5764
 124  -905.7785
 125  -829.4864
 126  -431.1504
 127  -434.2302
 128  143.9464
 129  1041.091
 130  1019.483
 131  -45.06068
 132  -255.8636
 133  -676.7688
 134  -643.4778
 135  35.73005
 136  237.6306
 137  197.8401
 138  -23.33111
 139  -382.3946
 140  -970.5558
 141  -709.2501
 142  -675.4206
 143  -49.57207
 144  -57.87288
 145  725.8781
 146  839.2114
 147  662.67
 148  666.2401
 149  -34.71696
 150  -355.5663
 151  -428.7483
 152  -509.2708
 153  -659.1265
 154  17.58444
 155  456.8979
 156  -448.3476
 157  -1501.294
 158  -1136.568
 159  -763.3848
 160  -772.915
 161  -297.0731
 162  399.5262
 163  601.8364
 164  201.7457
 165  -455.7065
 166  -163.6083
 167  -42.58072
 168  -182.9999
 169  -280.3504
 170  87.15272
 171  454.1979
 172  -204.6293
 173  -1076.611
 174  -1140.191
 175  -505.8674
 176  -5.425744
 177  -462.3846
 178  -74.36028
 179  417.2566
 180  368.8271
 181  -550.2123
 182  -523.0361
 183  -311.1267
 184  -266.3481
 185  -412.4529
 186  -271.6299
 187  197.4767
 188  202.7674
 189  -682.9252
 190  -1098.442
 191  -604.858
 192  -573.8561
 193  -395.1414
 194  -10.17532
 195  358.9805
 196  692.2097
 197  53.89901
 198  -860.6108
 199  -488.0713
 200  -282.4726
 201  -813.3244
 202  -814.0576
 203  -35.53402
 204  194.5477
 205  -364.1561
 206  -696.1824
 207  -915.483
 208  -452.1211
 209  -171.6038
 210  -170.4401
 211  566.2235
 212  808.9752
 213  412.1892
 214  48.53255
 215  -475.5859
 216  -514.4416
 217  -122.7716
 218  -92.32063
 219  141.4463
 220  200.2444
 221  551.7645
 222  -49.97702
 223  -795.4526
 224  -418.054
 225  42.44165
 226  -9.812412
 227  284.5606
 228  929.8857
 229  1453.029
 230  972.5084
 231  410.8155
 232  161.0007
 233  644.3053
 234  483.938
 235  106.2421
 236  286.223
 237  479.8333
 238  177.1234
 239  -502.3332
 240  -681.6649
 241  -324.1661
 242  -492.6888
 243  -294.0099
 244  652.3246
 245  1222.523
 246  1162.607
 247  619.9329
 248  23.49078
 249  442.171
 250  275.6282
 251  347.3518
 252  152.1322
 253  394.2136
 254  243.2991
 255  -555.2508
 256  -1005.787
 257  -437.8944
 258  100.616
 259  322.1543
 260  530.0412
 261  644.4554
 262  384.9269
 263  20.71358
 264  -228.6549
 265  45.64656
 266  -3.078835
 267  109.5561
 268  91.63706
 269  -195.3088
 270  98.60152
 271  -222.5609
 272  -705.7322
 273  -1119.959
 274  -658.3008
 275  -321.895
 276  -114.5086
 277  444.4171
 278  563.5306
 279  53.68893
 280  -712.0385
 281  -804.9741
 282  -503.8914
 283  -555.956
 284  -690.7794
 285  -139.7536
 286  -139.8895
 287  -767.2536
 288  -1564.151
 289  -1885.558
 290  -877.0952
 291  -184.8104
 292  -417.2838
 293  80.30793
 294  528.3455
 295  585.095
 296  -108.7514
 297  -644.4976
 298  -425.4648
 299  -373.6849
 300  -293.6835
 301  -201.9543
 302  23.90098
 303  177.722
 304  156.8931
 305  -672.7634
 306  -989.7999
 307  -631.1458
 308  -341.1618
 309  147.4006
 310  545.6249
 311  1150.863
 312  862.3673
 313  -139.2682
 314  -233.2564
 315  -196.6729
 316  60.79964
 317  552.7836
 318  446.9543
 319  974.6443
 320  525.8796
 321  -105.588
 322  -711.7872
 323  -494.2884
 324  -225.4881
 325  36.96916
 326  473.9895
 327  1079.132
 328  1384.08
 329  842.7712
 330  309.9857
 331  -92.81099
 332  454.4044
 333  387.0885
 334  65.60472
 335  108.8693
 336  527.7481
 337  578.328
 338  -629.3159
 339  -438.3224
 340  -153.9899
 341  156.2271
 342  -249.3809
 343  80.82043
 344  83.49007
 345  -117.2895
 346  -252.0313
 347  -542.4712
 348  -280.747
 349  -481.1071
 350  -134.4686
 351  -537.2385
 352  -44.24716
 353  -250.4681
 354  -756.6239
 355  -950.3836
 356  -548.0293
 357  -257.1035
 358  -116.9085
 359  18.00164
 360  566.4061
 361  522.6973
 362  457.0696
 363  -28.23316
 364  -71.09818
 365  -43.91162
 366  -172.9284
 367  -422.6005
 368  -557.7889
 369  -146.612
 370  -553.2546
 371  -1078.288
 372  -1020.361
 373  -638.5698
 374  -751.6964
 375  -368.1387
 376  407.6974
 377  234.5958
 378  479.6153
 379  121.0808
 380  -287.6926
 381  -253.2111
 382  -161.1846
 383  -240.976
 384  168.4196
 385  476.2342
 386  157.0292
 387  -561.2552
 388  -991.8668
 389  -1013.518
 390  -601.171
 391  -107.5607
 392  316.2105
 393  917.1628
 394  1153.295
 395  718.4786
 396  -142.5132
 397  -258.0968
 398  -132.6969
 399  534.1675
 400  559.5673
 401  572.0562
 402  911.0802
 403  343.2052
 404  6.119078
 405  -246.0773
 406  357.1313
 407  550.8539
 408  527.5523
 409  559.9493
 410  689.9593
 411  943.0761
 412  267.189
 413  533.7313
 414  573.1722
 415  861.1592
 416  573.3124
 417  715.7766
 418  558.3454
 419  624.0924
 420  182.3383
 421  62.02655
 422  37.58716
 423  -31.30143
 424  483.9984
 425  491.4361
 426  1314.792
 427  1249.073
 428  936.3766
 429  581.8378
 430  347.8164
 431  475.8208
 432  407.5685
 433  310.1031
 434  489.964
 435  537.5888
 436  -7.410138
 437  -1057.744
 438  -432.7773
 439  -125.5953
 440  160.7618
 441  -336.7578
 442  430.4118
 443  1036.796
 444  527.9792
 445  305.9723
 446  443.2307
 447  512.0927
 448  382.2683
 449  195.0855
 450  118.4077
 451  -122.3873
 452  200.9746
 453  -349.0004
 454  -1114.359
 455  -711.4355
 456  -377.5789
 457  -322.2946
 458  -135.3277
 459  303.2074
 460  438.818
 461  24.10119
 462  -582.8327
 463  -464.217
 464  179.4508
 465  146.6945
 466  -189.8284
 467  -33.2593
 468  533.4022
 469  44.99778
 470  -714.9627
 471  -1027.586
 472  -381.4623
 473  196.8266
 474  280.6265
 475  656.5502
 476  697.9167
 477  114.7788
 478  -798.0309
 479  -467.286
 480  63.24594
 481  285.3295
 482  1089.991
 483  1043.591
 484  692.5346
 485  425.6613
 486  -184.013
 487  -561.0479
 488  -195.9557
 489  307.5092
 490  -51.6122
 491  546.7172
 492  683.7658
 493  614.4539
 494  637.8852
 495  389.179
 496  229.9869
 497  355.15
 498  1077.72
 499  1201.271
 500  1664.535
 501  2446.808
 502  3006.147
 503  2067.028
 504  1119.846
 505  1232.887
 506  850.323
 507  561.1475
 508  790.6044
 509  1355.843
 510  978.2476
 511  447.9815
