# Input file       =  1208082048.119238-PSRB0329-2ms-sampling-dd.dat
# Candidate        =  PSR_0332+5434
# Telescope        =  AR
# Epoch_topo       =  58226.431332398584
# Epoch_bary       =  N/A
# T_sample         =  0.002
# Data Folded      =  7340032
# Data Avg         =  -4.57053594315556e-10
# Data StdDev      =  6.89615815547246 
# Profile Bins     =  512
# Profile Avg      =  0.168368696035296
# Profile StdDev   =  825.697955289116 
# Reduced chi-sqr  =  0.519
# Prob(Noise)      <  1   (~0.0 sigma)
# P_topo (ms)      =  714.557475931464  +/- 0.000917
# P'_topo (s/s)    =  -0                +/- 4.84e-10
# P''_topo (s/s^2) =  0                 +/- 2.14e-13
# P_bary (ms)      =  N/A
# P'_bary (s/s)    =  N/A
# P''_bary (s/s^2) =  N/A
# P_orb (s)        =  N/A
# asin(i)/c (s)    =  N/A
# eccentricity     =  N/A
# w (rad)          =  N/A
# T_peri           =  N/A
######################################################
   0  704.6411
   1  669.4863
   2  244.7389
   3  633.7341
   4  1075.687
   5  791.2366
   6  708.8276
   7  760.4265
   8  487.214
   9  -91.03416
  10  -247.7206
  11  185.3922
  12  360.1918
  13  246.661
  14  84.98003
  15  1.914776
  16  123.4769
  17  -91.57867
  18  -113.69
  19  152.0664
  20  229.5345
  21  -490.7886
  22  -749.7809
  23  -388.4307
  24  -193.4568
  25  -299.1059
  26  -218.0343
  27  -249.024
  28  -86.20497
  29  -358.2522
  30  -552.15
  31  -600.3267
  32  -598.4304
  33  -410.6475
  34  -134.6715
  35  -17.23337
  36  -71.81384
  37  109.8665
  38  -118.4071
  39  -312.0734
  40  -140.9507
  41  -287.2122
  42  235.7053
  43  100.7997
  44  89.45882
  45  111.9197
  46  -205.3751
  47  -18.27689
  48  394.7575
  49  184.4704
  50  308.7659
  51  282.2941
  52  118.414
  53  61.82878
  54  -74.56489
  55  -115.6276
  56  -312.5298
  57  28.92107
  58  236.9557
  59  -132.2056
  60  -499.5618
  61  -614.0674
  62  -561.928
  63  -442.3792
  64  -584.0494
  65  -254.1606
  66  -52.21596
  67  -7.239677
  68  -12.03968
  69  -96.32863
  70  -184.1235
  71  -359.8594
  72  21.23383
  73  9.399699
  74  -226.9967
  75  119.3426
  76  420.2242
  77  516.459
  78  83.12526
  79  -266.6303
  80  -263.476
  81  -179.6838
  82  -224.0506
  83  313.5747
  84  604.4725
  85  61.13108
  86  -125.3053
  87  -323.5904
  88  -266.4394
  89  -434.0329
  90  -297.0601
  91  15.15113
  92  -119.0884
  93  63.48209
  94  -4.456503
  95  -221.9451
  96  -517.5656
  97  -198.3408
  98  86.26588
  99  -107.4996
 100  -128.2029
 101  40.11005
 102  168.6736
 103  456.7866
 104  170.8327
 105  155.0463
 106  151.6202
 107  75.53648
 108  154.6498
 109  249.153
 110  82.06035
 111  130.368
 112  -9.62433
 113  -313.2672
 114  -180.9762
 115  -57.29672
 116  250.2391
 117  83.17377
 118  -134.0505
 119  -329.8896
 120  -584.447
 121  -360.1989
 122  -236.2714
 123  -3.292776
 124  -144.9274
 125  -390.2669
 126  -178.328
 127  -312.5926
 128  -634.4897
 129  -720.3835
 130  -543.4842
 131  -408.3323
 132  -121.5556
 133  268.7072
 134  -304.7427
 135  -406.7349
 136  -227.2906
 137  -9.824869
 138  -356.8606
 139  -348.8161
 140  -293.9694
 141  -492.1747
 142  -914.1166
 143  -641.3942
 144  -757.5522
 145  -741.3151
 146  -1126.671
 147  -969.4909
 148  -835.6514
 149  -1227.969
 150  -1185.926
 151  -1126.072
 152  -960.5209
 153  -569.7847
 154  -650.8967
 155  -785.5669
 156  -865.4658
 157  -711.7846
 158  -633.3203
 159  -331.4158
 160  -478.9035
 161  -472.2577
 162  -770.4684
 163  -742.2549
 164  -750.509
 165  -663.6168
 166  -440.63
 167  -141.7628
 168  -373.0624
 169  -290.9876
 170  -590.2229
 171  -379.6717
 172  -137.174
 173  -162.6776
 174  -454.1133
 175  -516.6605
 176  -554.8556
 177  -958.2192
 178  -969.8963
 179  -583.6368
 180  -447.895
 181  -242.0618
 182  -516.0372
 183  -428.613
 184  -617.1626
 185  -787.7736
 186  -631.6877
 187  -291.7466
 188  -350.0901
 189  -396.0765
 190  -331.4184
 191  -663.7225
 192  -592.2621
 193  -685.6179
 194  -496.4207
 195  -451.6861
 196  -432.2024
 197  -455.7767
 198  -389.0153
 199  -304.7644
 200  72.3129
 201  167.8446
 202  233.226
 203  318.6648
 204  380.162
 205  244.7872
 206  986.049
 207  1537.995
 208  2056.219
 209  1633.266
 210  997.5159
 211  562.1459
 212  346.4677
 213  442.506
 214  331.1158
 215  206.5502
 216  277.0645
 217  46.23608
 218  222.0436
 219  646.5098
 220  143.4738
 221  351.2628
 222  353.3366
 223  447.8704
 224  219.7253
 225  169.3364
 226  188.3106
 227  -351.2269
 228  -263.9216
 229  -85.69065
 230  -19.4927
 231  -108.6946
 232  -346.2304
 233  -296.2684
 234  -102.6015
 235  -402.3989
 236  -289.8391
 237  -850.5799
 238  -377.4196
 239  -428.4794
 240  -114.7471
 241  108.1477
 242  -416.8944
 243  -220.7911
 244  -39.39079
 245  -197.5714
 246  -205.03
 247  219.2167
 248  334.1857
 249  211.3456
 250  39.92723
 251  -148.7667
 252  -367.8926
 253  -682.7113
 254  -353.4085
 255  -131.5474
 256  180.7586
 257  -62.51945
 258  -307.0203
 259  -137.1502
 260  370.6567
 261  232.411
 262  -108.3431
 263  -26.76548
 264  48.412
 265  -174.4554
 266  -339.3205
 267  -74.58122
 268  41.0685
 269  79.99287
 270  188.8483
 271  211.3996
 272  118.2103
 273  -159.4311
 274  134.2022
 275  523.3427
 276  185.252
 277  284.2666
 278  310.5725
 279  -265.1288
 280  99.05251
 281  84.99854
 282  372.6352
 283  351.3444
 284  129.2378
 285  8.036458
 286  -318.7663
 287  -19.52632
 288  283.5429
 289  736.6658
 290  905.3022
 291  417.3928
 292  362.8814
 293  469.26
 294  339.977
 295  384.6622
 296  782.8209
 297  460.8278
 298  476.0296
 299  445.4348
 300  371.9145
 301  263.7234
 302  274.0961
 303  -35.51062
 304  204.9697
 305  450.5016
 306  265.2256
 307  536.6068
 308  728.7848
 309  983.4276
 310  874.3561
 311  729.7061
 312  505.3845
 313  188.6789
 314  306.1323
 315  307.4728
 316  456.8242
 317  408.6173
 318  9.040398
 319  -504.8152
 320  -392.418
 321  0.2362138
 322  44.1571
 323  -21.26185
 324  -266.8448
 325  -172.1565
 326  -337.896
 327  -262.4698
 328  -341.8452
 329  -396.7498
 330  -278.0191
 331  -326.7372
 332  -373.7519
 333  -393.0432
 334  -636.2879
 335  -697.2628
 336  -492.1626
 337  -603.1434
 338  -197.1097
 339  -182.812
 340  -285.8804
 341  -277.3575
 342  -528.2595
 343  -292.0996
 344  24.59618
 345  -203.9589
 346  -233.0239
 347  -294.8373
 348  -450.4024
 349  -569.0988
 350  -452.9231
 351  -158.0052
 352  -601.0254
 353  -489.0968
 354  -200.1677
 355  -79.08558
 356  -256.702
 357  -540.3235
 358  -488.3358
 359  -597.2816
 360  -384.7364
 361  -559.3036
 362  -469.0565
 363  -253.3747
 364  -253.7564
 365  -624.8099
 366  -365.5564
 367  -161.4327
 368  41.17451
 369  -59.52
 370  -11.78673
 371  343.7504
 372  528.8749
 373  129.6817
 374  -366.3202
 375  -228.1927
 376  325.4039
 377  143.1227
 378  441.8131
 379  464.3836
 380  61.07042
 381  -0.6049041
 382  393.4876
 383  540.3651
 384  359.6171
 385  318.1562
 386  -49.68538
 387  81.96957
 388  358.4879
 389  262.5645
 390  303.5028
 391  463.4352
 392  594.8741
 393  565.4915
 394  563.938
 395  699.6046
 396  907.256
 397  780.9965
 398  406.605
 399  426.0894
 400  465.0372
 401  910.5148
 402  831.9501
 403  591.1152
 404  556.031
 405  177.769
 406  154.6727
 407  176.8076
 408  100.0623
 409  155.9152
 410  353.1673
 411  80.67273
 412  164.904
 413  335.9713
 414  385.1088
 415  -183.7491
 416  -186.4463
 417  244.6021
 418  29.20412
 419  -180.5474
 420  -108.6793
 421  -271.2133
 422  -469.5241
 423  -29.22496
 424  -44.05401
 425  248.336
 426  510.5158
 427  470.0471
 428  102.4142
 429  166.346
 430  141.469
 431  -114.9182
 432  -180.283
 433  -96.3677
 434  185.8628
 435  222.4491
 436  174.6948
 437  85.19495
 438  57.36016
 439  88.9555
 440  106.0114
 441  216.6741
 442  266.5109
 443  314.7607
 444  116.77
 445  2.498239
 446  333.0298
 447  215.2608
 448  163.3365
 449  175.5987
 450  104.3061
 451  -147.7883
 452  -211.2173
 453  -87.0219
 454  476.0893
 455  545.5598
 456  360.567
 457  207.0835
 458  258.8691
 459  275.3183
 460  600.8611
 461  725.9031
 462  772.5643
 463  484.6033
 464  393.1397
 465  234.0675
 466  46.8291
 467  159.7932
 468  271.6685
 469  131.2541
 470  49.30379
 471  213.4671
 472  284.9729
 473  484.5046
 474  572.5078
 475  435.4537
 476  506.9993
 477  1.444438
 478  267.3958
 479  634.3175
 480  571.4066
 481  793.0035
 482  606.192
 483  753.6755
 484  729.5934
 485  413.4898
 486  510.1013
 487  475.9857
 488  364.9183
 489  218.7677
 490  255.5032
 491  -63.47393
 492  -71.07437
 493  -116.838
 494  128.4646
 495  597.2687
 496  369.9148
 497  281.6686
 498  229.5402
 499  -243.646
 500  -328.5507
 501  -232.4874
 502  237.7849
 503  374.8515
 504  260.7153
 505  209.7674
 506  168.6655
 507  224.9007
 508  491.1476
 509  347.4687
 510  702.9533
 511  956.8762
