# Input file       =  1208943319.116623-PSRB0329-2ms-sampling-dd.dat
# Candidate        =  PSR_0332+5434
# Telescope        =  AR
# Epoch_topo       =  58236.399746720170
# Epoch_bary       =  N/A
# T_sample         =  0.002
# Data Folded      =  7340032
# Data Avg         =  2.03960262842185e-10
# Data StdDev      =  7.67242052111632 
# Profile Bins     =  512
# Profile Avg      =  0.229954515178328
# Profile StdDev   =  918.642205352667 
# Reduced chi-sqr  =  0.568
# Prob(Noise)      <  1   (~0.0 sigma)
# P_topo (ms)      =  714.549044188492  +/- 0.000654
# P'_topo (s/s)    =  -0                +/- 3.45e-10
# P''_topo (s/s^2) =  0                 +/- 1.52e-13
# P_bary (ms)      =  N/A
# P'_bary (s/s)    =  N/A
# P''_bary (s/s^2) =  N/A
# P_orb (s)        =  N/A
# asin(i)/c (s)    =  N/A
# eccentricity     =  N/A
# w (rad)          =  N/A
# T_peri           =  N/A
######################################################
   0  -806.6613
   1  -814.1654
   2  -741.7733
   3  -546.571
   4  -508.0273
   5  -428.4908
   6  -432.3693
   7  -377.2903
   8  -597.8353
   9  -644.4095
  10  -344.5716
  11  -410.7399
  12  -81.64779
  13  -403.5992
  14  -513.4305
  15  -560.6713
  16  -560.6517
  17  57.38481
  18  -42.33084
  19  52.74508
  20  -98.40665
  21  -46.83488
  22  -155.8077
  23  91.49191
  24  500.806
  25  911.4954
  26  673.7626
  27  169.2183
  28  64.23969
  29  -27.52679
  30  -142.1114
  31  79.78162
  32  961.4394
  33  688.488
  34  -224.937
  35  -275.286
  36  -3.574604
  37  47.6393
  38  -150.4941
  39  -77.37698
  40  -34.30288
  41  262.8611
  42  330.6649
  43  535.6445
  44  267.0994
  45  492.4782
  46  853.2022
  47  1172.047
  48  1808.021
  49  2425.103
  50  2484.127
  51  1905.333
  52  847.0688
  53  308.5298
  54  55.16021
  55  42.20205
  56  225.1433
  57  492.5148
  58  679.8305
  59  383.5294
  60  -224.7756
  61  -357.6004
  62  -213.8968
  63  -237.4255
  64  -87.35605
  65  418.7731
  66  425.6671
  67  -15.92102
  68  -234.5868
  69  -393.4925
  70  45.95005
  71  395.468
  72  268.7657
  73  360.5871
  74  -134.1749
  75  201.8574
  76  150.0771
  77  -82.41454
  78  336.7305
  79  499.089
  80  171.2253
  81  530.5324
  82  429.6982
  83  497.1906
  84  223.326
  85  202.1974
  86  611.0822
  87  501.5045
  88  156.6373
  89  119.365
  90  -29.77341
  91  363.3669
  92  304.636
  93  191.1395
  94  -155.6654
  95  -7.051152
  96  -133.4908
  97  -26.70947
  98  -278.6247
  99  -138.8047
 100  -83.91721
 101  -329.1534
 102  -252.2597
 103  -288.8737
 104  -40.04239
 105  103.5727
 106  59.66541
 107  564.5637
 108  331.96
 109  284.8393
 110  484.4382
 111  448.6786
 112  159.9321
 113  346.804
 114  365.307
 115  499.0045
 116  454.7797
 117  1020.968
 118  741.5155
 119  774.8939
 120  818.3718
 121  557.8242
 122  278.0254
 123  816.6168
 124  853.3059
 125  824.9493
 126  870.3228
 127  516.1141
 128  678.2229
 129  403.8267
 130  22.51255
 131  -115.9986
 132  -301.2555
 133  50.36017
 134  57.55747
 135  536.4178
 136  186.2066
 137  -182.2949
 138  106.0378
 139  151.7672
 140  -2.385987
 141  225.2773
 142  670.9138
 143  720.286
 144  699.472
 145  503.4331
 146  246.83
 147  34.41153
 148  15.20152
 149  -13.16602
 150  -514.7442
 151  -740.0855
 152  -466.1718
 153  -105.1569
 154  -401.9924
 155  -673.7487
 156  -364.0794
 157  -273.1927
 158  -845.6569
 159  -1128.391
 160  -712.3647
 161  -369.0056
 162  -290.5896
 163  -456.5504
 164  -413.0519
 165  -168.2351
 166  -313.9375
 167  -711.8821
 168  -661.3519
 169  -462.3317
 170  -230.0847
 171  -195.7971
 172  171.38
 173  243.6019
 174  -143.2292
 175  -220.1465
 176  143.1668
 177  62.22162
 178  -128.2673
 179  118.5027
 180  -100.5698
 181  241.437
 182  229.7151
 183  355.8561
 184  362.5005
 185  367.3294
 186  601.2538
 187  680.2479
 188  763.458
 189  886.5576
 190  657.6713
 191  1193.422
 192  622.4709
 193  417.2952
 194  651.9506
 195  569.1462
 196  249.2229
 197  601.3157
 198  886.4724
 199  139.8087
 200  121.084
 201  301.7073
 202  462.119
 203  626.1115
 204  429.16
 205  475.043
 206  259.9595
 207  -7.237431
 208  -390.5098
 209  -204.4994
 210  20.39976
 211  -419.8268
 212  -623.6873
 213  -285.6967
 214  -209.4933
 215  -424.2923
 216  -307.3225
 217  -509.8
 218  -304.9348
 219  -593.4987
 220  -596.2393
 221  -231.7138
 222  -292.8517
 223  -229.2806
 224  -378.8215
 225  -745.8519
 226  -583.8681
 227  -315.2668
 228  39.36493
 229  -871.0248
 230  -736.1323
 231  -1126.443
 232  -1187.443
 233  -1154.301
 234  -1089.568
 235  -828.3601
 236  -792.261
 237  -599.9195
 238  -671.8001
 239  -617.0287
 240  -809.6193
 241  -742.0897
 242  -898.0789
 243  -662.369
 244  -796.0154
 245  -886.7949
 246  -770.1613
 247  -826.0695
 248  -684.2899
 249  -651.3909
 250  -279.5268
 251  -397.5337
 252  -368.5479
 253  -305.5417
 254  -397.6614
 255  -340.5767
 256  -547.0816
 257  -420.3553
 258  -475.1716
 259  -688.8978
 260  -260.4084
 261  -326.7744
 262  -313.8974
 263  -696.2945
 264  -637.2883
 265  -492.8138
 266  -347.905
 267  -0.3797798
 268  337.543
 269  324.1977
 270  135.9988
 271  208.3824
 272  15.2392
 273  199.1501
 274  312.2141
 275  224.7573
 276  -86.26689
 277  -84.94537
 278  402.7209
 279  394.7599
 280  617.7952
 281  567.2494
 282  71.85886
 283  82.6102
 284  215.3774
 285  -95.2804
 286  65.94225
 287  246.965
 288  71.48202
 289  413.698
 290  119.2749
 291  -385.5743
 292  -658.9184
 293  -145.7551
 294  240.5894
 295  267.0133
 296  531.397
 297  278.6455
 298  -369.2349
 299  -257.9706
 300  168.5036
 301  -16.1337
 302  -87.56549
 303  -153.1689
 304  81.43795
 305  -134.6289
 306  -22.33793
 307  27.26907
 308  -276.6156
 309  -213.5462
 310  -657.1642
 311  -434.133
 312  -264.1302
 313  -335.0199
 314  -716.0632
 315  -355.7357
 316  -54.33818
 317  -99.4369
 318  -285.1182
 319  -415.5987
 320  -444.3747
 321  -363.0623
 322  -222.9438
 323  -430.5607
 324  -311.7205
 325  -474.9609
 326  -228.6657
 327  -30.65048
 328  61.76646
 329  -87.85233
 330  -232.238
 331  -216.2875
 332  -8.633624
 333  -102.8911
 334  -61.81819
 335  -88.05612
 336  -62.67951
 337  277.2386
 338  657.5782
 339  -28.70161
 340  -684.3152
 341  -520.5754
 342  -301.0835
 343  -481.0851
 344  -633.4437
 345  -603.6844
 346  -812.498
 347  -896.5627
 348  -430.7339
 349  -458.8827
 350  -417.0148
 351  -96.46701
 352  813.9649
 353  1031.305
 354  934.0349
 355  853.7664
 356  -237.6079
 357  -125.5479
 358  282.6301
 359  1173.389
 360  975.8721
 361  911.5144
 362  1182.042
 363  293.0047
 364  -685.7517
 365  -857.1935
 366  -83.2822
 367  -19.94694
 368  -302.7317
 369  -254.6335
 370  94.13906
 371  -40.03043
 372  -701.3939
 373  -437.3339
 374  -241.1246
 375  202.5614
 376  688.0854
 377  -17.33805
 378  44.02234
 379  323.9774
 380  296.3981
 381  159.6639
 382  -40.5535
 383  325.781
 384  159.4041
 385  222.6688
 386  14.43006
 387  -289.5549
 388  -85.77526
 389  86.34225
 390  -42.35568
 391  -44.95804
 392  -245.6117
 393  -285.0589
 394  33.3832
 395  196.854
 396  181.5321
 397  83.71576
 398  250.1588
 399  374.0852
 400  291.4089
 401  237.119
 402  -14.47953
 403  300.8022
 404  642.1154
 405  246.2199
 406  41.07918
 407  -214.5165
 408  103.8166
 409  257.7267
 410  -37.17569
 411  -114.274
 412  -91.97774
 413  -221.3178
 414  -338.8017
 415  -533.3404
 416  139.2296
 417  -7.422289
 418  -125.5109
 419  -229.4115
 420  -125.7487
 421  265.4969
 422  152.7087
 423  -178.0557
 424  -207.592
 425  189.6745
 426  -193.2059
 427  -376.7206
 428  -447.5703
 429  -542.501
 430  -600.9222
 431  -710.1546
 432  -361.5194
 433  -277.8239
 434  -120.8445
 435  -488.3729
 436  -432.587
 437  -113.7772
 438  -27.90753
 439  -334.4393
 440  -168.3672
 441  32.66885
 442  148.3434
 443  150.1662
 444  -175.7089
 445  -471.9499
 446  -369.9251
 447  -310.222
 448  -296.7429
 449  -250.1082
 450  -417.2219
 451  -563.6936
 452  -326.6588
 453  -286.6925
 454  -698.2137
 455  -361.5809
 456  -306.4319
 457  -33.08169
 458  -238.691
 459  -350.9632
 460  -45.25758
 461  22.93263
 462  171.2796
 463  100.9816
 464  -16.62121
 465  -25.47353
 466  55.07485
 467  281.1166
 468  358.356
 469  370.0625
 470  -65.41447
 471  -156.9897
 472  -246.6382
 473  709.2676
 474  1014.167
 475  1934.714
 476  1194.843
 477  430.555
 478  -522.1342
 479  -69.79595
 480  454.2025
 481  777.9691
 482  1313.405
 483  1025.38
 484  869.298
 485  -111.1138
 486  55.65149
 487  269.2766
 488  754.8369
 489  804.636
 490  897.0264
 491  599.5341
 492  289.3286
 493  -283.4599
 494  236.2653
 495  267.8935
 496  576.5412
 497  593.1323
 498  306.3606
 499  124.4113
 500  -640.3339
 501  -50.98003
 502  -41.42355
 503  -328.0235
 504  -116.7499
 505  -24.30471
 506  -437.7741
 507  -482.0047
 508  -514.6658
 509  -689.2133
 510  -715.5462
 511  -547.5988
