# Input file       =  1208183128.111974_cleaned.dat
# Candidate        =  PSR_0332+5434
# Telescope        =  AR
# Epoch_topo       =  58227.601239721924
# Epoch_bary       =  N/A
# T_sample         =  0.002
# Data Folded      =  7340032
# Data Avg         =  0.194211379154045
# Data StdDev      =  5.59278444649733 
# Profile Bins     =  512
# Profile Avg      =  2784.30387277437 
# Profile StdDev   =  669.641063579877 
# Reduced chi-sqr  =  1.213
# Prob(Noise)      <  0.00065   (~3.2 sigma)
# P_topo (ms)      =  714.556867027013  +/- 0.000293
# P'_topo (s/s)    =  -0                +/- 1.54e-10
# P''_topo (s/s^2) =  0                 +/- 6.82e-14
# P_bary (ms)      =  N/A
# P'_bary (s/s)    =  N/A
# P''_bary (s/s^2) =  N/A
# P_orb (s)        =  N/A
# asin(i)/c (s)    =  N/A
# eccentricity     =  N/A
# w (rad)          =  N/A
# T_peri           =  N/A
######################################################
   0  2510.503
   1  2501.678
   2  2667.338
   3  2848.48
   4  2655.116
   5  2511.133
   6  3144.479
   7  2974.847
   8  3289.094
   9  3419.602
  10  3345.934
  11  3318.763
  12  3362.868
  13  3777.499
  14  3711.106
  15  3627.931
  16  3646.033
  17  3629.709
  18  3466.813
  19  3304.922
  20  3648.829
  21  3960.023
  22  3570.647
  23  3400.313
  24  2683.539
  25  2798.747
  26  2726.849
  27  3237.635
  28  3941.297
  29  3639.378
  30  3583.882
  31  3411.394
  32  3229.798
  33  3208.017
  34  3457.59
  35  3513.8
  36  3763.695
  37  3574.14
  38  3564.72
  39  3742.592
  40  3785.823
  41  3542.548
  42  3448.01
  43  3068.873
  44  3000.988
  45  3125.732
  46  3426.031
  47  3241.239
  48  3324.661
  49  3322.113
  50  3347.584
  51  3054.839
  52  3032.007
  53  3198.554
  54  2934.332
  55  2958.071
  56  3028.91
  57  3291.812
  58  3340.917
  59  2768.523
  60  2613.57
  61  2747.085
  62  2431.422
  63  2144.539
  64  2415.202
  65  2443.656
  66  2698.085
  67  2417.869
  68  2706.706
  69  2698.534
  70  2598.567
  71  2555.821
  72  2481.5
  73  2089.314
  74  2482.965
  75  2440.966
  76  2489.59
  77  2863.3
  78  3064.198
  79  2588.235
  80  1996.127
  81  1910.373
  82  2585.825
  83  2775.773
  84  2366.466
  85  2422.716
  86  2313.948
  87  2608.499
  88  2364.148
  89  2556.859
  90  2396.076
  91  2032.213
  92  2235.783
  93  2380.842
  94  2311.989
  95  2320.667
  96  2706.787
  97  2500.2
  98  2618.28
  99  2434.087
 100  2226.012
 101  2687.89
 102  2610.233
 103  2487.442
 104  2678.694
 105  3012.762
 106  2661.086
 107  2655.75
 108  3159.376
 109  3273.038
 110  2978.567
 111  2970.561
 112  3034.656
 113  2942.747
 114  2689.897
 115  2600.061
 116  2761.887
 117  2715.707
 118  2396.306
 119  2100.58
 120  2149.167
 121  2185.014
 122  2200.346
 123  2134.495
 124  2247.414
 125  1832.434
 126  1646.275
 127  1861.416
 128  1973.419
 129  2066.581
 130  1738.921
 131  1754.471
 132  1925.262
 133  1855.721
 134  1812.757
 135  1819.151
 136  1933.721
 137  2131.302
 138  2226.86
 139  2324.269
 140  1925.469
 141  1686.72
 142  1939.443
 143  2020.992
 144  2180.56
 145  2336.452
 146  2364.4
 147  1894.564
 148  2449.902
 149  2345.256
 150  2294.936
 151  2168.052
 152  2211.998
 153  2454.766
 154  2405.853
 155  2415.688
 156  2573.809
 157  2410.396
 158  2347.482
 159  2509.437
 160  2563.809
 161  2248.261
 162  2036.137
 163  2480.719
 164  2427.646
 165  2077.012
 166  1939.772
 167  1981.826
 168  2375.111
 169  2915.05
 170  3246.563
 171  3070.055
 172  2850.3
 173  2915.357
 174  2401.721
 175  2620.835
 176  2877.451
 177  3003.381
 178  3097.722
 179  2850.592
 180  3107.607
 181  3242.582
 182  2962.698
 183  3048.59
 184  3216.551
 185  2931.268
 186  3129.491
 187  3436.943
 188  3025.918
 189  2902.545
 190  2582.609
 191  2333.673
 192  2550.173
 193  2546.067
 194  2695.778
 195  2699.848
 196  2726.722
 197  2581.766
 198  2405.381
 199  2472.718
 200  2517.318
 201  2206.877
 202  2029.963
 203  1882.295
 204  2037.486
 205  2207.633
 206  2342.646
 207  2575.984
 208  2568.898
 209  2541.99
 210  1994.937
 211  2180.443
 212  2224.632
 213  2315.846
 214  2113.058
 215  2275.897
 216  2223.006
 217  1753.156
 218  2187.105
 219  2527.044
 220  2893.57
 221  2499.509
 222  2423.948
 223  2326.367
 224  2229.025
 225  2445.908
 226  2640.329
 227  2328.741
 228  2529.461
 229  2614.638
 230  2559.095
 231  2409.056
 232  2233.067
 233  2319.299
 234  2403.815
 235  2265.698
 236  2768.997
 237  2935.296
 238  2857.801
 239  2938.002
 240  2972.261
 241  2777.305
 242  2697.255
 243  2807.34
 244  2835.646
 245  3210.72
 246  3512.479
 247  3277.198
 248  3263.242
 249  3122.515
 250  3120.883
 251  3600.069
 252  3396.08
 253  3205.686
 254  3007.873
 255  2692.56
 256  2455.517
 257  2702.15
 258  2993.435
 259  3123.103
 260  3282.976
 261  3119.63
 262  2742.811
 263  2963.015
 264  2720.126
 265  2921.679
 266  3011.921
 267  2987.304
 268  2586.972
 269  2445.218
 270  2676.748
 271  2415.632
 272  2651.724
 273  2776.095
 274  2746.821
 275  2761.489
 276  2477.257
 277  2226.036
 278  2748.184
 279  2805.332
 280  2722.417
 281  2590.142
 282  2821.021
 283  2965.001
 284  2928.717
 285  2778.359
 286  3014.696
 287  3189.582
 288  3019.88
 289  2776.932
 290  2692.62
 291  2902.963
 292  2654.846
 293  2869.54
 294  2732.226
 295  2451.897
 296  2203.259
 297  2662.445
 298  3164.697
 299  3883.328
 300  4129.298
 301  4524.974
 302  4740.417
 303  4272.005
 304  3610.288
 305  2983.232
 306  3014.488
 307  2753.708
 308  2797.32
 309  3343.062
 310  3240.093
 311  3529.793
 312  3622.805
 313  3834.654
 314  3810.865
 315  3935.138
 316  4207.37
 317  4229.006
 318  3986.315
 319  3844.824
 320  3821.75
 321  3984.489
 322  4095.262
 323  3891.523
 324  3719.393
 325  3640.912
 326  3287.974
 327  3549.034
 328  3518.113
 329  3598.238
 330  3462.709
 331  3352.262
 332  3377.184
 333  3528.852
 334  3357.959
 335  2849.985
 336  2840.045
 337  2936.924
 338  2634.506
 339  2511.004
 340  3008.748
 341  2913.372
 342  2409.133
 343  2851.669
 344  2903.608
 345  2992.682
 346  2906.69
 347  2847.305
 348  2860.169
 349  2547.795
 350  2191.834
 351  2254.586
 352  2254.816
 353  2578.483
 354  2457.995
 355  2602.013
 356  2505.92
 357  1967.294
 358  1869.767
 359  1988.83
 360  1955.463
 361  1795.592
 362  1773.688
 363  1610.189
 364  1945.822
 365  2194.664
 366  2209.119
 367  1995.057
 368  1947.095
 369  1920.169
 370  1866.537
 371  2474.744
 372  2588.265
 373  2445.548
 374  2304.149
 375  1886.814
 376  2126.549
 377  2452.628
 378  2769.302
 379  2591.246
 380  2664.483
 381  2883.692
 382  2653.224
 383  3026.953
 384  2727.496
 385  2808.645
 386  3365.969
 387  2932.975
 388  2910.509
 389  3334.366
 390  3326.325
 391  3454.998
 392  3312.646
 393  3419.701
 394  3557.159
 395  3234.057
 396  3103.344
 397  3623.935
 398  3687.005
 399  3462.676
 400  3235.442
 401  3504.781
 402  3264.919
 403  3178.277
 404  3559.459
 405  3570.823
 406  3498.386
 407  3194.646
 408  3392.017
 409  2825.466
 410  2684.352
 411  2654.938
 412  2882.262
 413  2801.677
 414  2225.752
 415  2431.851
 416  2578.315
 417  2566.976
 418  2717.473
 419  2455.843
 420  2319.452
 421  2637.347
 422  2551.721
 423  2214.874
 424  1962.416
 425  2030.969
 426  2233.135
 427  2429.094
 428  2372.477
 429  2269.744
 430  2315.541
 431  2178.177
 432  1941.048
 433  2429.773
 434  2710.144
 435  2183.261
 436  1944.2
 437  2222.368
 438  2812.333
 439  2761.025
 440  2669.942
 441  2396.918
 442  2795.483
 443  3024.245
 444  3121.749
 445  2757.841
 446  2729.699
 447  2813.665
 448  2608.423
 449  2735.709
 450  2749.039
 451  2741.168
 452  3001.201
 453  3010.721
 454  3198.145
 455  3338.59
 456  3301.667
 457  3282.638
 458  3365.098
 459  3219.903
 460  3132.757
 461  3517.875
 462  3550.903
 463  3111.427
 464  2726.396
 465  3219.905
 466  3406.857
 467  3684.798
 468  3497.323
 469  3538.718
 470  3134.018
 471  2980.441
 472  3349.171
 473  3313.538
 474  3461.798
 475  3666.344
 476  3411.947
 477  2699.832
 478  2431.361
 479  2925.724
 480  3337.138
 481  3241.768
 482  2926.882
 483  2936.244
 484  3077.291
 485  2926.053
 486  2669.69
 487  2429.64
 488  2907.788
 489  2750.997
 490  2127.392
 491  2397.733
 492  2474.292
 493  2541.061
 494  2857.034
 495  2787.875
 496  2482.147
 497  2366.218
 498  2641.965
 499  2907.724
 500  2999.371
 501  3050.052
 502  2662.049
 503  2172.306
 504  2120.257
 505  2591.159
 506  2439.234
 507  2207.935
 508  2341.478
 509  2691.524
 510  2497.852
 511  2423.982
