# Input file       =  1208928641.108855_cleaned.dat
# Candidate        =  PSR_0332+5434
# Telescope        =  AR
# Epoch_topo       =  58236.229862371008
# Epoch_bary       =  N/A
# T_sample         =  0.002
# Data Folded      =  7208960
# Data Avg         =  0.265957529715853
# Data StdDev      =  5.63604302384678 
# Profile Bins     =  512
# Profile Avg      =  3744.59468742916 
# Profile StdDev   =  668.768219946537 
# Reduced chi-sqr  =  1.499
# Prob(Noise)      <  1.8e-12   (~7.0 sigma)
# P_topo (ms)      =  714.549182904766  +/- 3.48e-05
# P'_topo (s/s)    =  -0                +/- 1.87e-11
# P''_topo (s/s^2) =  0                 +/- 8.41e-15
# P_bary (ms)      =  N/A
# P'_bary (s/s)    =  N/A
# P''_bary (s/s^2) =  N/A
# P_orb (s)        =  N/A
# asin(i)/c (s)    =  N/A
# eccentricity     =  N/A
# w (rad)          =  N/A
# T_peri           =  N/A
######################################################
   0  4086.924
   1  3125.151
   2  2769.739
   3  2410.78
   4  2258.008
   5  3918.712
   6  4469.053
   7  4576.086
   8  4437.368
   9  4329.547
  10  4027.898
  11  3688.029
  12  3610.414
  13  3136.375
  14  3037.019
  15  3482.897
  16  3979.673
  17  3923.169
  18  3593.805
  19  3498.811
  20  3137.515
  21  3230.837
  22  3411.625
  23  4337.975
  24  4627.329
  25  4732.195
  26  4906.163
  27  4206.431
  28  3508.46
  29  3310.82
  30  3620.994
  31  4035.974
  32  4004.976
  33  3894.45
  34  3889.805
  35  3356.801
  36  3024.365
  37  2537.201
  38  3223.111
  39  3930.069
  40  4377.995
  41  4115.625
  42  3680.949
  43  4177.833
  44  3829.761
  45  3717.903
  46  3521.982
  47  4014.712
  48  3920.223
  49  3632.22
  50  3424.761
  51  3116.603
  52  3175.055
  53  3316.012
  54  3467.952
  55  3634.541
  56  4484.634
  57  4579.782
  58  3831.375
  59  4229.52
  60  4127.52
  61  3699.677
  62  3499.498
  63  3893.476
  64  4184.675
  65  4400.894
  66  3742.382
  67  2819.011
  68  3018.282
  69  2684.947
  70  3095.005
  71  3609.778
  72  4658.551
  73  4298.142
  74  4263.661
  75  4276.697
  76  3592.935
  77  3307.013
  78  3219.644
  79  3499.332
  80  3543.642
  81  3947.708
  82  4075.271
  83  3595.133
  84  3140.536
  85  3024.648
  86  3083.198
  87  2925.424
  88  3756.979
  89  3986.397
  90  4372.611
  91  4297.761
  92  4196.428
  93  4166.564
  94  3676.906
  95  3635.708
  96  3407.624
  97  3575.416
  98  3736.071
  99  4066.605
 100  3696.117
 101  3004.806
 102  3095.451
 103  2773.616
 104  3093.461
 105  3804.767
 106  4600.687
 107  4460.923
 108  4349.793
 109  4475.749
 110  3763.982
 111  3220.564
 112  3123.342
 113  3546.079
 114  3811.692
 115  4038.902
 116  3906.526
 117  3656.148
 118  3187.091
 119  3033.458
 120  3271.719
 121  3857.99
 122  4101.672
 123  4453.083
 124  4541.608
 125  4575.848
 126  4389.671
 127  4294.607
 128  3809.35
 129  4041.811
 130  3820.646
 131  3715.056
 132  3487.065
 133  3710.961
 134  3803.881
 135  3630.764
 136  3357.892
 137  3735.858
 138  4445.816
 139  4193.201
 140  4506.8
 141  4693.442
 142  4612.711
 143  4036.096
 144  3842.19
 145  3916.278
 146  3881.1
 147  3757.239
 148  3891.319
 149  3539.294
 150  3216.924
 151  3406.8
 152  3054.012
 153  3505.77
 154  4316.883
 155  5207.045
 156  4603.209
 157  4050.08
 158  4370.229
 159  4085.135
 160  3660.109
 161  3415.191
 162  3299.354
 163  3520.103
 164  4015.392
 165  3676.964
 166  3340.227
 167  3539.484
 168  3141.599
 169  3443.655
 170  3504.036
 171  4675.45
 172  4834.979
 173  4869.029
 174  5033.848
 175  4421.055
 176  3994.316
 177  2954.546
 178  2716.635
 179  3120.537
 180  4087.42
 181  3858.201
 182  3844.164
 183  3683.321
 184  2911.984
 185  2553.826
 186  2327.487
 187  3651.004
 188  3965.261
 189  4773.947
 190  4609.846
 191  4727.746
 192  4339.939
 193  3579.547
 194  3005.561
 195  3075.332
 196  3320.031
 197  3623.11
 198  3573.889
 199  3634.121
 200  3634.305
 201  2822.744
 202  2696.335
 203  3066.402
 204  3366.061
 205  3985.643
 206  4138.824
 207  4478.606
 208  4587.44
 209  4227.202
 210  3470.978
 211  3333.978
 212  2967.296
 213  3106.521
 214  3192.532
 215  3288.109
 216  3495.765
 217  3612.05
 218  3170.622
 219  2851.005
 220  3616.691
 221  4025.337
 222  4108.03
 223  4177.325
 224  4367.986
 225  4131.861
 226  3614.739
 227  3638.322
 228  3687.76
 229  4150.497
 230  3640.783
 231  3381.369
 232  3609.322
 233  3688.398
 234  3612.624
 235  3534.793
 236  4116.645
 237  3825.299
 238  4339.613
 239  4742.372
 240  4367.03
 241  4138.105
 242  3554.183
 243  3232.676
 244  2863.851
 245  3734.879
 246  4182.618
 247  4132.033
 248  3499.618
 249  2997.691
 250  3056.928
 251  2872.858
 252  3511.238
 253  3877.185
 254  4799.674
 255  4846.302
 256  4667.159
 257  4601.98
 258  3852.189
 259  3414.22
 260  2786.349
 261  2845.274
 262  3470.928
 263  4087.39
 264  3942.167
 265  3893.059
 266  3649.215
 267  3129.973
 268  2791.402
 269  2595.848
 270  3516.641
 271  4224.328
 272  4655.771
 273  4612.383
 274  4421.701
 275  4183.877
 276  3619.69
 277  2914.749
 278  3212.396
 279  3751.988
 280  3828.627
 281  3525.775
 282  3848.608
 283  3739.55
 284  3047.75
 285  3101.29
 286  3274.594
 287  4038.221
 288  4720.618
 289  4315.224
 290  4675.387
 291  4225.072
 292  3576.046
 293  3500.719
 294  3403.281
 295  3288.953
 296  3623.952
 297  3724.223
 298  3673.929
 299  3793.553
 300  3348.117
 301  3445.661
 302  3807.793
 303  4017.019
 304  4193.93
 305  4119.041
 306  4724.083
 307  4405.735
 308  4599.029
 309  3867.36
 310  3715.051
 311  3895.963
 312  4150.16
 313  3972.13
 314  3449.141
 315  4009.712
 316  3550.954
 317  3362.592
 318  3223.481
 319  4102.494
 320  4338.969
 321  4668.599
 322  5044.906
 323  4982.611
 324  4521.171
 325  3350.926
 326  3268.125
 327  3401.42
 328  3652.932
 329  3950.969
 330  3932.376
 331  3461.415
 332  3149.666
 333  3040.082
 334  2524.179
 335  3192.01
 336  3659.533
 337  4578.078
 338  4520.803
 339  4190.092
 340  4105.792
 341  3645.699
 342  3449.297
 343  2973.603
 344  3122.144
 345  3484.905
 346  3930.36
 347  3582.047
 348  3516.962
 349  3420.836
 350  2764.587
 351  2440.452
 352  3149.337
 353  4265.868
 354  4306.394
 355  4225.443
 356  4618.836
 357  4204.101
 358  3449.553
 359  3055.329
 360  2666.159
 361  2883.917
 362  3903.252
 363  4230.729
 364  3959.238
 365  3247.371
 366  3207.283
 367  3019.008
 368  3056.624
 369  3832.636
 370  4637.291
 371  5303.019
 372  5437.898
 373  5848.009
 374  5675.441
 375  5636.934
 376  5604.878
 377  5383.645
 378  4327.78
 379  3580.908
 380  3506.461
 381  3418.983
 382  3679.151
 383  3328.258
 384  3539.558
 385  3763.504
 386  3999.13
 387  4338.363
 388  4386.538
 389  4811.402
 390  4601.086
 391  4478.429
 392  3827.926
 393  3060.257
 394  3441.182
 395  3843.685
 396  3639.974
 397  3072.399
 398  2764.687
 399  2914.237
 400  3073.853
 401  2779.413
 402  3589.29
 403  4259.258
 404  4530.978
 405  4478.824
 406  4142.635
 407  3583.748
 408  2772.83
 409  3220.323
 410  3317.77
 411  3812.492
 412  3702.829
 413  3293.594
 414  3249.087
 415  3508.632
 416  3171.228
 417  2646.827
 418  3651.029
 419  4382.709
 420  4428.071
 421  4393.89
 422  4479.896
 423  4233.33
 424  3382.933
 425  2939.934
 426  3235.82
 427  3981.5
 428  4060.243
 429  3928.107
 430  3305.531
 431  2886.151
 432  3071.706
 433  2786.541
 434  3275.745
 435  3792.941
 436  4408.847
 437  4160.731
 438  4373.333
 439  4571.579
 440  3711.447
 441  3654.147
 442  3338.412
 443  3491.59
 444  3900.127
 445  4293.73
 446  3778.038
 447  3862.368
 448  3302.728
 449  3011.281
 450  2902.263
 451  3096.573
 452  4237.229
 453  4534.939
 454  4591.542
 455  4364.055
 456  4204.383
 457  3991.016
 458  3390.775
 459  3518.495
 460  3431.345
 461  3624.678
 462  3767.976
 463  3530.461
 464  3514.974
 465  3359.676
 466  2999.084
 467  3001.716
 468  3589.338
 469  4006.532
 470  4071.083
 471  4095.307
 472  4435.424
 473  3793.911
 474  3365.969
 475  3076.251
 476  3165.995
 477  3471.224
 478  3708.033
 479  3748.474
 480  3139.061
 481  3091.629
 482  2625.26
 483  3031.002
 484  3177.454
 485  3917.692
 486  4466.888
 487  4173.666
 488  4233.671
 489  3822.964
 490  3341.104
 491  3030.313
 492  3339.905
 493  3580.893
 494  3930.834
 495  3495.941
 496  2961.858
 497  2947.73
 498  3066.498
 499  3207.466
 500  2697.629
 501  3813.657
 502  4033.587
 503  4547.6
 504  4566.129
 505  4107.99
 506  3875.662
 507  3024.598
 508  3104.281
 509  3173.763
 510  3816.878
 511  3865.732
