# Input file       =  1208340608.107277_cleaned.dat
# Candidate        =  PSR_0332+5434
# Telescope        =  AR
# Epoch_topo       =  58229.423924852745
# Epoch_bary       =  N/A
# T_sample         =  0.002
# Data Folded      =  7340032
# Data Avg         =  0.0302013740827329
# Data StdDev      =  1.00012843886647 
# Profile Bins     =  512
# Profile Avg      =  433.034087196838 
# Profile StdDev   =  119.748414752237 
# Reduced chi-sqr  =  1.139
# Prob(Noise)      <  0.0161   (~2.1 sigma)
# P_topo (ms)      =  714.555028656848  +/- 0.00071
# P'_topo (s/s)    =  -0                +/- 3.75e-10
# P''_topo (s/s^2) =  0                 +/- 1.65e-13
# P_bary (ms)      =  N/A
# P'_bary (s/s)    =  N/A
# P''_bary (s/s^2) =  N/A
# P_orb (s)        =  N/A
# asin(i)/c (s)    =  N/A
# eccentricity     =  N/A
# w (rad)          =  N/A
# T_peri           =  N/A
######################################################
   0  608.3129
   1  586.1262
   2  523.0505
   3  566.9696
   4  622.5788
   5  535.5552
   6  531.6639
   7  460.3203
   8  518.0073
   9  503.9495
  10  460.8134
  11  454.4706
  12  401.3463
  13  360.8983
  14  461.1086
  15  446.5608
  16  342.5104
  17  358.9249
  18  410.7019
  19  389.1002
  20  336.5291
  21  383.2307
  22  417.999
  23  466.5909
  24  375.3333
  25  307.6928
  26  371.9614
  27  375.4398
  28  328.8192
  29  400.4273
  30  409.988
  31  422.3879
  32  382.5922
  33  419.5872
  34  345.2296
  35  319.7748
  36  362.5345
  37  391.1147
  38  357.1789
  39  345.8256
  40  283.9986
  41  392.9017
  42  390.4649
  43  346.8317
  44  380.0836
  45  360.1628
  46  333.5656
  47  359.5535
  48  274.2798
  49  297.1855
  50  330.0771
  51  377.8119
  52  374.8072
  53  408.3601
  54  430.8928
  55  430.2224
  56  497.5874
  57  473.3404
  58  455.9539
  59  431.3205
  60  532.5938
  61  504.2047
  62  485.1991
  63  453.559
  64  375.7836
  65  381.6348
  66  472.8719
  67  465.8912
  68  416.8943
  69  482.7258
  70  506.4868
  71  548.906
  72  498.8222
  73  504.9055
  74  474.0147
  75  488.3574
  76  448.9643
  77  494.0389
  78  506.5656
  79  507.4765
  80  426.407
  81  466.2262
  82  433.2201
  83  485.2484
  84  450.2299
  85  356.0202
  86  344.398
  87  366.1176
  88  368.0981
  89  392.9531
  90  329.6726
  91  238.3426
  92  267.0418
  93  271.112
  94  284.7231
  95  283.004
  96  259.5447
  97  420.6082
  98  421.4102
  99  255.5952
 100  267.3674
 101  316.7996
 102  407.9053
 103  263.6413
 104  398.1024
 105  354.5623
 106  290.5039
 107  289.6316
 108  346.1222
 109  265.4171
 110  245.6436
 111  232.1807
 112  271.6174
 113  295.7811
 114  399.5123
 115  330.8648
 116  320.1431
 117  278.3873
 118  254.601
 119  254.1158
 120  293.6425
 121  311.5846
 122  299.8745
 123  283.0188
 124  251.5258
 125  383.5127
 126  427.9073
 127  352.1425
 128  283.515
 129  323.1016
 130  323.7473
 131  304.2682
 132  298.4067
 133  324.2655
 134  294.1465
 135  389.742
 136  452.6428
 137  352.4424
 138  380.046
 139  294.2628
 140  391.0858
 141  452.0901
 142  352.6794
 143  346.1039
 144  410.44
 145  362.1807
 146  379.2647
 147  370.3415
 148  332.1756
 149  436.9028
 150  376.3238
 151  311.0758
 152  322.3574
 153  360.3621
 154  385.0876
 155  406.8451
 156  401.8339
 157  446.9013
 158  421.0443
 159  446.9769
 160  500.8161
 161  444.1796
 162  426.2521
 163  350.5429
 164  365.8262
 165  412.8938
 166  460.0362
 167  440.4855
 168  391.5985
 169  390.3812
 170  377.8677
 171  364.2704
 172  424.6903
 173  382.0873
 174  439.6455
 175  510.081
 176  444.3972
 177  421.7348
 178  330.5221
 179  408.7237
 180  386.0681
 181  327.6326
 182  398.1284
 183  452.2714
 184  399.4252
 185  371.7122
 186  395.2293
 187  366.5517
 188  386.5607
 189  406.6652
 190  406.4456
 191  360.1261
 192  360.3231
 193  397.915
 194  364.5039
 195  387.3412
 196  364.8425
 197  341.8104
 198  424.1793
 199  401.4539
 200  429.2607
 201  407.187
 202  369.6232
 203  396.46
 204  434.1846
 205  409.3566
 206  423.1574
 207  408.0615
 208  443.0138
 209  403.5682
 210  335.2982
 211  384.1792
 212  442.2544
 213  342.1363
 214  364.5591
 215  303.4843
 216  353.4601
 217  276.1564
 218  332.2906
 219  397.7623
 220  412.8127
 221  448.6237
 222  483.6009
 223  422.7858
 224  370.8956
 225  410.1233
 226  404.9176
 227  420.2304
 228  404.6769
 229  369.7156
 230  426.666
 231  378.3621
 232  308.7966
 233  407.4828
 234  400.3747
 235  402.0611
 236  353.4768
 237  458.7018
 238  434.0683
 239  466.103
 240  435.7758
 241  419.129
 242  415.7374
 243  431.394
 244  535.074
 245  528.9974
 246  531.0347
 247  488.3417
 248  536.5923
 249  549.9926
 250  476.9795
 251  550.0034
 252  584.9882
 253  496.4342
 254  494.2435
 255  533.3428
 256  559.3067
 257  555.1325
 258  534.3535
 259  532.1202
 260  568.7087
 261  609.9835
 262  513.2994
 263  499.3083
 264  562.7508
 265  580.413
 266  520.0732
 267  624.8663
 268  510.3735
 269  530.9495
 270  596.8384
 271  564.9958
 272  587.9431
 273  569.9066
 274  554.6353
 275  568.4219
 276  546.7822
 277  526.2459
 278  512.6919
 279  532.4285
 280  534.1935
 281  509.0104
 282  482.7542
 283  529.3586
 284  515.8336
 285  526.7405
 286  518.8929
 287  466.1158
 288  510.2203
 289  641.9699
 290  591.3032
 291  568.2947
 292  524.9176
 293  534.2916
 294  520.8146
 295  463.5126
 296  498.457
 297  459.5636
 298  528.5886
 299  450.9178
 300  482.4557
 301  458.3037
 302  461.4731
 303  437.1537
 304  394.9028
 305  406.8466
 306  453.3375
 307  411.6702
 308  400.0548
 309  418.1763
 310  438.0988
 311  480.3888
 312  415.3357
 313  345.0419
 314  362.2033
 315  466.5005
 316  460.9504
 317  477.9647
 318  570.1835
 319  725.6832
 320  841.6324
 321  942.2392
 322  944.8268
 323  823.386
 324  638.9772
 325  471.9317
 326  420.736
 327  441.7107
 328  459.9936
 329  436.1165
 330  393.3127
 331  469.8302
 332  431.5522
 333  410.1054
 334  447.5779
 335  437.7619
 336  395.4589
 337  428.4179
 338  465.4364
 339  393.3553
 340  439.2311
 341  481.7894
 342  416.3921
 343  535.9246
 344  530.3322
 345  523.9171
 346  452.204
 347  497.8162
 348  402.105
 349  417.7988
 350  497.011
 351  410.2759
 352  518.6779
 353  583.0182
 354  502.2378
 355  515.6163
 356  547.8652
 357  501.0065
 358  529.498
 359  529.9222
 360  534.267
 361  491.0684
 362  513.5131
 363  472.9792
 364  471.3669
 365  514.6315
 366  514.9599
 367  471.7635
 368  509.6727
 369  527.826
 370  555.4435
 371  501.0534
 372  462.6818
 373  477.0174
 374  514.9417
 375  355.2933
 376  354.6569
 377  477.6277
 378  418.9988
 379  372.4062
 380  440.856
 381  466.9073
 382  455.4827
 383  547.2181
 384  488.737
 385  381.1913
 386  274.1573
 387  347.2733
 388  306.6005
 389  327.8493
 390  414.8232
 391  411.3321
 392  400.4142
 393  389.2266
 394  329.6104
 395  360.7698
 396  332.3123
 397  339.0485
 398  405.1489
 399  425.4158
 400  388.176
 401  248.2699
 402  293.3044
 403  290.1383
 404  355.459
 405  322.8339
 406  301.9022
 407  392.6922
 408  445.9543
 409  432.4239
 410  324.8058
 411  374.1196
 412  419.0131
 413  419.5094
 414  337.439
 415  386.7285
 416  365.1401
 417  321.2408
 418  368.7516
 419  417.3051
 420  432.3737
 421  446.9252
 422  446.4742
 423  413.2771
 424  406.8661
 425  449.6856
 426  444.28
 427  414.7258
 428  378.6805
 429  455.1545
 430  483.9459
 431  472.1287
 432  542.7524
 433  544.5904
 434  453.8852
 435  411.9244
 436  418.5462
 437  510.3359
 438  467.9346
 439  523.3297
 440  465.3257
 441  502.0071
 442  445.5342
 443  449.6507
 444  513.978
 445  466.7548
 446  396.0209
 447  481.1902
 448  474.3644
 449  516.8312
 450  417.2095
 451  382.8487
 452  441.4799
 453  479.1875
 454  446.5167
 455  462.4247
 456  446.1008
 457  458.8484
 458  376.5761
 459  401.1591
 460  437.273
 461  362.0881
 462  359.5595
 463  383.2413
 464  404.8748
 465  432.7932
 466  377.9353
 467  379.2067
 468  402.4726
 469  393.7006
 470  419.1729
 471  349.4439
 472  376.242
 473  422.7882
 474  372.0461
 475  398.8047
 476  441.4139
 477  375.8789
 478  393.1635
 479  394.0303
 480  424.9203
 481  426.9625
 482  449.0139
 483  464.7748
 484  400.2718
 485  420.2657
 486  455.3227
 487  457.093
 488  422.2404
 489  408.7347
 490  440.8583
 491  389.5719
 492  420.4985
 493  490.2602
 494  456.9752
 495  411.2083
 496  448.3582
 497  486.9529
 498  604.5131
 499  547.4073
 500  558.7219
 501  544.0842
 502  560.9947
 503  621.4601
 504  607.1679
 505  602.5211
 506  628.7609
 507  624.4615
 508  628.5514
 509  646.683
 510  652.6846
 511  583.9957
