# Input file       =  1208239734.114344_cleaned.dat
# Candidate        =  PSR_0332+5434
# Telescope        =  AR
# Epoch_topo       =  58228.256401786384
# Epoch_bary       =  N/A
# T_sample         =  0.002
# Data Folded      =  7208960
# Data Avg         =  0.159613305782179
# Data StdDev      =  4.90849529172619 
# Profile Bins     =  256
# Profile Avg      =  4494.3181538097  
# Profile StdDev   =  823.691726906234 
# Reduced chi-sqr  =  1.474
# Prob(Noise)      <  1.25e-06   (~4.7 sigma)
# P_topo (ms)      =  714.555971603079  +/- 4.89e-05
# P'_topo (s/s)    =  -0                +/- 2.63e-11
# P''_topo (s/s^2) =  0                 +/- 1.18e-14
# P_bary (ms)      =  N/A
# P'_bary (s/s)    =  N/A
# P''_bary (s/s^2) =  N/A
# P_orb (s)        =  N/A
# asin(i)/c (s)    =  N/A
# eccentricity     =  N/A
# w (rad)          =  N/A
# T_peri           =  N/A
######################################################
   0  5440.816
   1  4949.714
   2  4935.258
   3  4209.289
   4  3343.962
   5  4478.378
   6  5807.364
   7  4884.512
   8  4987.37
   9  4735.084
  10  4788.712
  11  4390.042
  12  3979.97
  13  3555.328
  14  5343.875
  15  5278.881
  16  4259.693
  17  3684.273
  18  3952.104
  19  3924.054
  20  2841.08
  21  2935.659
  22  3937.285
  23  5347.144
  24  4882.36
  25  4002.87
  26  3891.258
  27  4790.311
  28  5172.003
  29  3874.139
  30  4990.082
  31  5107.221
  32  6031.733
  33  5319.194
  34  4712.236
  35  4926.364
  36  4277.473
  37  3412.677
  38  3933.43
  39  5028.655
  40  5181.192
  41  4454.923
  42  4626.57
  43  5088.56
  44  5067.047
  45  4168.431
  46  3553.487
  47  5204.471
  48  5718
  49  5311.506
  50  4856.884
  51  4614.016
  52  4200.754
  53  3174.119
  54  3514.563
  55  4236.893
  56  5766.59
  57  4610.455
  58  5011.351
  59  4571.777
  60  5828.498
  61  4155.612
  62  3497.842
  63  2753.979
  64  4783.786
  65  6266.975
  66  3759.23
  67  3593.232
  68  4465.85
  69  4547.05
  70  3354.416
  71  3384.642
  72  4229.175
  73  5642.759
  74  5013.402
  75  3789.529
  76  3833.652
  77  3977.788
  78  3521.024
  79  3225.625
  80  4412.167
  81  4729.409
  82  4817.621
  83  4148.229
  84  4159.546
  85  5086.865
  86  3847.944
  87  3421.126
  88  4293.451
  89  5081.402
  90  5325.147
  91  4599.49
  92  3961.134
  93  4728.098
  94  3204.973
  95  2765.597
  96  3783.99
  97  5407.095
  98  5149.472
  99  4112.465
 100  3698.825
 101  4768.685
 102  5467.949
 103  3008.538
 104  3288.762
 105  4646.292
 106  6222.564
 107  4459.002
 108  3222.312
 109  3916.646
 110  4444.315
 111  4076.464
 112  3300.472
 113  4468.252
 114  5663.768
 115  5492.494
 116  4457.736
 117  3677.317
 118  3844.495
 119  4133.616
 120  3590.793
 121  4487.375
 122  4717.687
 123  4388.54
 124  4397.444
 125  3791.033
 126  4988.413
 127  3450.354
 128  3789.347
 129  4604.997
 130  4761.263
 131  4535.125
 132  4797.97
 133  4651.544
 134  4514.975
 135  3822.628
 136  2882.414
 137  2761.061
 138  4353.368
 139  5432.485
 140  3213.605
 141  3572.135
 142  4727.652
 143  5443.829
 144  3886.582
 145  3254.287
 146  4814.34
 147  7218.743
 148  6151.913
 149  5848.858
 150  6630.024
 151  8224.406
 152  5311.151
 153  3215.409
 154  4415.03
 155  6168.31
 156  6382.337
 157  5548.869
 158  4739.217
 159  4583.715
 160  4213.342
 161  4913.638
 162  4960.13
 163  4920.948
 164  5325.082
 165  5308.912
 166  4484.723
 167  5249.902
 168  4355.526
 169  4776.834
 170  4789.535
 171  5149.918
 172  5357.086
 173  5177.724
 174  5772.772
 175  4961.023
 176  4861.255
 177  3459.79
 178  3658.109
 179  5339.648
 180  5313.432
 181  4656.144
 182  3350.213
 183  3929.91
 184  4420.983
 185  3590.885
 186  2944.036
 187  4296.999
 188  6650.164
 189  5435.676
 190  4202.818
 191  3852.912
 192  4280.95
 193  4030.159
 194  3560.539
 195  2765.694
 196  4614.211
 197  5679.449
 198  4866.163
 199  4355.382
 200  3960.473
 201  4498.966
 202  4569.306
 203  4239.468
 204  5059.69
 205  5427.171
 206  5058.546
 207  3905.176
 208  3737.343
 209  4464.358
 210  4128.385
 211  3554.052
 212  4318.838
 213  4789.733
 214  4871.155
 215  5098.408
 216  4321.159
 217  3980.658
 218  3759.504
 219  3355.377
 220  4407.366
 221  4941.759
 222  4449.155
 223  3872.602
 224  3441.835
 225  4156.755
 226  3175.113
 227  2737.754
 228  3500.708
 229  5680.312
 230  5063.25
 231  4069.023
 232  4180.327
 233  4070.146
 234  4261.83
 235  3796.982
 236  3548.508
 237  4111.787
 238  5565.236
 239  4341.055
 240  3820.234
 241  4244.08
 242  4901.694
 243  4250.539
 244  4302.125
 245  5405.767
 246  6756.486
 247  6231.93
 248  4522.817
 249  4597.003
 250  4870.755
 251  3978.837
 252  3667.569
 253  4863.118
 254  5699.073
 255  5871.076
