# Input file       =  1208269331.106611_cleaned.dat
# Candidate        =  PSR_0332+5434
# Telescope        =  AR
# Epoch_topo       =  58228.598959567258
# Epoch_bary       =  N/A
# T_sample         =  0.002
# Data Folded      =  7340032
# Data Avg         =  0.228121008127345
# Data StdDev      =  5.85411771923122 
# Profile Bins     =  512
# Profile Avg      =  3270.19443660242 
# Profile StdDev   =  700.931289830582 
# Reduced chi-sqr  =  1.611
# Prob(Noise)      <  5.23e-17   (~8.3 sigma)
# P_topo (ms)      =  714.556049963971  +/- 0.000197
# P'_topo (s/s)    =  -0                +/- 1.04e-10
# P''_topo (s/s^2) =  0                 +/- 4.59e-14
# P_bary (ms)      =  N/A
# P'_bary (s/s)    =  N/A
# P''_bary (s/s^2) =  N/A
# P_orb (s)        =  N/A
# asin(i)/c (s)    =  N/A
# eccentricity     =  N/A
# w (rad)          =  N/A
# T_peri           =  N/A
######################################################
   0  3181.563
   1  3159.177
   2  3277.163
   3  3229.454
   4  2820.687
   5  2527.18
   6  2514.21
   7  2735.562
   8  2703.641
   9  2670.213
  10  2351.834
  11  2526.87
  12  2394.697
  13  2469.886
  14  2667.158
  15  2530.203
  16  2669.285
  17  2740.903
  18  2685.303
  19  2747.676
  20  2896.056
  21  3287.55
  22  3505.437
  23  3299.107
  24  3254.446
  25  3046.846
  26  3339.243
  27  3175.007
  28  3110.022
  29  3098.366
  30  3196.549
  31  2925.002
  32  2557.079
  33  2917.554
  34  3260.831
  35  2669.886
  36  2694.028
  37  2928.046
  38  3047.93
  39  2822.383
  40  3081.764
  41  3188.439
  42  3036.778
  43  2899.893
  44  3020.799
  45  3308.615
  46  3083.64
  47  3059.259
  48  3376.798
  49  3421.697
  50  3421.653
  51  3915.143
  52  3963.894
  53  3681.259
  54  3719.649
  55  3623.786
  56  3995.678
  57  4180.607
  58  4117.385
  59  3808.085
  60  4113.172
  61  4470.38
  62  4460.042
  63  4310.755
  64  4311.92
  65  4259.806
  66  4080.439
  67  4115.948
  68  4256.245
  69  3936.907
  70  4229.569
  71  3976.05
  72  3535.038
  73  3238.496
  74  3318.258
  75  3309.244
  76  3268.042
  77  3046.817
  78  2961.24
  79  2665.707
  80  2623.276
  81  3196.88
  82  3161.96
  83  2962.715
  84  2401.478
  85  2382.122
  86  2706.282
  87  2708.868
  88  2698.028
  89  2747.824
  90  3236.974
  91  2798.099
  92  2642.366
  93  2552.283
  94  3232.785
  95  3209.35
  96  3231.481
  97  3197.671
  98  3244.343
  99  3661.255
 100  3820.677
 101  3600.975
 102  3824.652
 103  3708.349
 104  3649.573
 105  3692.152
 106  3543.857
 107  3228.3
 108  3207.291
 109  3079.158
 110  2941.669
 111  3000.346
 112  3350.634
 113  3542.551
 114  3426.785
 115  3384.732
 116  3093.209
 117  2943.563
 118  3321.954
 119  3503.692
 120  3266.304
 121  2888.314
 122  3109.467
 123  3074.715
 124  3102.501
 125  3479.184
 126  3540.19
 127  3209.185
 128  3592.376
 129  3359.922
 130  3482.776
 131  4035.85
 132  3877.199
 133  3914.66
 134  3630.591
 135  3994.483
 136  4166.545
 137  4182.832
 138  4018.591
 139  3760.859
 140  3836.781
 141  3409.6
 142  3388.125
 143  3000.343
 144  2801.387
 145  2497.181
 146  2632.74
 147  2539.357
 148  2414.865
 149  2163.504
 150  1985.422
 151  2162.831
 152  2182.619
 153  2170.425
 154  2105.624
 155  2154.799
 156  2069.207
 157  1815.182
 158  1794.366
 159  1796.746
 160  1795.634
 161  1383.23
 162  1811.189
 163  1810.388
 164  1991.551
 165  1903.528
 166  2355.908
 167  2349.585
 168  2559.514
 169  2527.195
 170  2317.312
 171  2565.324
 172  2817.288
 173  2764.365
 174  2374.204
 175  2232.836
 176  2126.058
 177  2468.636
 178  2435.804
 179  2746.194
 180  2727.728
 181  1980.432
 182  2249.141
 183  2270.575
 184  2819.774
 185  3106.514
 186  2898.288
 187  2817.091
 188  2596.911
 189  3005.691
 190  2818.248
 191  3501.57
 192  3455.454
 193  3254.451
 194  3325.729
 195  3078.169
 196  3433.268
 197  3533.918
 198  3448.062
 199  3783.192
 200  3948.16
 201  3947.634
 202  3916.255
 203  4182.948
 204  3685.514
 205  3705.479
 206  4071.391
 207  4193.408
 208  4126.616
 209  4349.253
 210  3963.239
 211  4022.866
 212  4021.382
 213  3919.584
 214  3739.867
 215  3576.099
 216  3260.758
 217  3183.045
 218  3159.827
 219  2973.026
 220  2745.764
 221  3065.824
 222  2848.475
 223  2837.361
 224  2792.337
 225  2039.77
 226  2075.741
 227  2472.732
 228  2805.026
 229  2851.418
 230  2316.358
 231  2550.606
 232  2810.954
 233  3124.783
 234  2734.416
 235  2909.297
 236  2884.66
 237  3066.868
 238  2743.766
 239  3061.517
 240  2900.312
 241  3057.506
 242  3077.346
 243  2929.116
 244  3431.309
 245  3560.552
 246  3161.616
 247  3187.364
 248  3038.763
 249  2976.34
 250  2911.311
 251  2952.063
 252  3511.353
 253  4010.875
 254  3851.014
 255  3307.968
 256  3116.311
 257  3191.304
 258  3589.795
 259  3948.521
 260  3919.846
 261  3502.544
 262  3162.114
 263  3059.421
 264  3235.631
 265  3199.759
 266  3479.546
 267  3289.803
 268  3756.186
 269  3370.673
 270  3176.536
 271  3521.046
 272  3602.746
 273  3863.546
 274  4047.241
 275  4471.235
 276  4594.24
 277  4279.558
 278  4067.003
 279  4467.795
 280  4483.086
 281  4261.075
 282  4232.577
 283  4287.811
 284  4429.833
 285  4235.591
 286  4012.312
 287  3914.541
 288  3600.334
 289  3579.841
 290  4110.263
 291  3893.801
 292  3631.274
 293  3269.478
 294  3395.778
 295  3471.056
 296  3426.061
 297  3261.048
 298  3861.447
 299  4129.255
 300  4172.753
 301  4306.52
 302  3983.108
 303  4130.383
 304  3412.382
 305  2883.811
 306  2629.462
 307  2334.55
 308  2473.157
 309  2927.148
 310  2489.585
 311  2311.901
 312  2346.359
 313  2445.673
 314  2874.663
 315  3158.91
 316  2643.789
 317  2278.641
 318  2506.699
 319  2457.873
 320  3136.272
 321  3071.065
 322  3010.182
 323  3019.043
 324  3144.619
 325  3449.013
 326  3107.276
 327  3295.728
 328  3149.379
 329  2578.893
 330  3028.004
 331  3116.565
 332  3485.876
 333  3597.577
 334  3474.907
 335  3228.681
 336  3326.813
 337  3358.164
 338  3757.275
 339  4302.873
 340  4056.066
 341  3679.123
 342  3851.225
 343  4019.161
 344  3976.829
 345  3934.815
 346  3947.28
 347  4250.193
 348  4195.436
 349  4248.086
 350  4323.644
 351  4198.468
 352  3872.495
 353  3462.902
 354  3525.273
 355  3618.394
 356  3564.559
 357  3814.585
 358  3719.234
 359  3601.949
 360  3501.051
 361  3824.296
 362  4040.696
 363  3576.503
 364  3508.445
 365  3756.061
 366  3900.911
 367  3514.971
 368  3172.662
 369  3027.438
 370  2454.069
 371  2934.754
 372  2976.085
 373  3066.081
 374  2720.177
 375  2684.872
 376  2913.923
 377  3118.957
 378  3080.188
 379  2386.235
 380  2759.25
 381  2974.156
 382  2490.218
 383  2440.076
 384  2692.865
 385  2693.387
 386  2520.391
 387  2749.265
 388  2709.354
 389  2730.375
 390  2838.897
 391  2747.062
 392  2628.531
 393  2791.211
 394  2878.449
 395  3046.571
 396  3099.327
 397  3034.471
 398  2883.134
 399  3104.302
 400  3186.76
 401  3513.214
 402  3594.546
 403  3167.185
 404  3038.986
 405  3513.841
 406  3607.698
 407  3699.331
 408  3844.799
 409  4117.951
 410  3588.621
 411  3694.742
 412  3691.623
 413  3866.729
 414  3554.543
 415  3564.013
 416  3675.492
 417  3765.185
 418  3946.238
 419  4086.158
 420  4050.885
 421  4098.312
 422  4220.545
 423  4287.103
 424  4209.807
 425  3994.334
 426  4042.999
 427  4385.45
 428  4567.401
 429  4671.344
 430  4669.969
 431  4527.37
 432  4400.194
 433  4523.973
 434  4490.798
 435  4341.939
 436  4448.891
 437  4227.194
 438  4049.763
 439  3606.756
 440  3318.308
 441  3579.457
 442  3762.676
 443  3496.603
 444  2840.994
 445  2750.059
 446  3025.873
 447  3068.239
 448  2912.551
 449  2543.772
 450  2822.674
 451  2542.615
 452  2614.56
 453  2993.795
 454  2693.965
 455  2609.275
 456  2539.472
 457  2867.524
 458  2805.195
 459  2911.073
 460  2903.72
 461  2544.903
 462  2931.05
 463  3287.226
 464  3099.803
 465  2997.587
 466  2953.627
 467  2415.854
 468  1962.606
 469  2325.575
 470  2831.039
 471  2920.309
 472  3018.005
 473  3307.905
 474  2718.847
 475  2035.617
 476  1943.609
 477  2239.927
 478  2386.468
 479  2568.703
 480  2832.388
 481  2787.469
 482  2596.885
 483  2848.971
 484  2956.966
 485  2833.25
 486  3150.383
 487  2936.271
 488  3202.417
 489  3376.045
 490  3573.164
 491  3765.039
 492  3764.065
 493  3975.959
 494  4013.646
 495  4367.834
 496  4189.683
 497  3961.164
 498  4253.224
 499  4473.35
 500  4311.95
 501  4659.958
 502  4821.375
 503  4340.395
 504  3750.041
 505  3770.252
 506  4223.602
 507  4158.496
 508  4370.858
 509  3896.566
 510  3649.225
 511  3811.588
