# Input file       =  1208498346.111598_cleaned.dat
# Candidate        =  PSR_0332+5434
# Telescope        =  AR
# Epoch_topo       =  58231.249596199050
# Epoch_bary       =  N/A
# T_sample         =  0.002
# Data Folded      =  7208960
# Data Avg         =  0.268377500793642
# Data StdDev      =  6.21577315261835 
# Profile Bins     =  512
# Profile Avg      =  3778.80907025499 
# Profile StdDev   =  737.558519209249 
# Reduced chi-sqr  =  1.230
# Prob(Noise)      <  0.000285   (~3.4 sigma)
# P_topo (ms)      =  714.553474074665  +/- 6.85e-05
# P'_topo (s/s)    =  -0                +/- 3.68e-11
# P''_topo (s/s^2) =  0                 +/- 1.65e-14
# P_bary (ms)      =  N/A
# P'_bary (s/s)    =  N/A
# P''_bary (s/s^2) =  N/A
# P_orb (s)        =  N/A
# asin(i)/c (s)    =  N/A
# eccentricity     =  N/A
# w (rad)          =  N/A
# T_peri           =  N/A
######################################################
   0  3996.08
   1  4152.384
   2  4251.22
   3  4252.346
   4  4004.247
   5  3645.85
   6  3786.415
   7  4623.185
   8  4431.212
   9  3896.447
  10  3343.603
  11  3101.887
  12  2889.15
  13  2730.654
  14  2751.148
  15  4131.187
  16  4403.732
  17  4788.703
  18  4546.91
  19  4536.113
  20  3980.455
  21  2814.011
  22  2966.797
  23  3411.372
  24  4306.138
  25  4470.003
  26  4028.55
  27  3649.831
  28  2589.553
  29  2413.242
  30  2200.083
  31  3098.577
  32  3736.018
  33  4535.446
  34  4502.224
  35  4551.147
  36  3912.739
  37  3448.596
  38  3457.031
  39  3644.749
  40  3670.891
  41  3876.795
  42  3399.429
  43  3137.549
  44  3191.647
  45  2822.36
  46  2262.336
  47  2810.326
  48  3186.999
  49  3614.481
  50  4092.744
  51  5121.022
  52  4377.166
  53  3403.438
  54  3088.327
  55  3084.62
  56  3712.208
  57  3239.216
  58  3602.932
  59  3379.468
  60  2979.809
  61  3505.737
  62  3147.292
  63  3663.569
  64  4033.54
  65  3913.632
  66  3519.602
  67  3369.813
  68  3992.561
  69  4338.336
  70  3920.192
  71  3927.928
  72  3954.734
  73  3988.059
  74  3708.929
  75  3491.324
  76  3007.993
  77  3190.652
  78  3509.594
  79  3358.258
  80  3755.537
  81  3753.575
  82  3866.375
  83  3947.914
  84  4081.243
  85  4467.958
  86  3956.085
  87  3742.285
  88  3859.546
  89  3903.075
  90  3934.11
  91  3720.285
  92  3497.103
  93  3770.397
  94  3783.911
  95  2697.764
  96  2867.772
  97  3204.439
  98  3846.378
  99  3349.575
 100  3827.162
 101  4527.752
 102  3954.023
 103  3633.305
 104  3369.017
 105  3738.836
 106  3896.234
 107  3977.16
 108  4184.983
 109  4112.806
 110  3670.431
 111  2996.165
 112  2711.416
 113  2496.43
 114  3205.922
 115  3592.793
 116  4088.033
 117  4825.149
 118  4668.216
 119  3964.695
 120  3046.836
 121  3315.269
 122  3470.12
 123  3795.653
 124  3460.082
 125  3319.412
 126  3764.184
 127  3455.233
 128  3048.495
 129  2956.845
 130  3505.295
 131  3929.414
 132  3847.719
 133  3913.646
 134  4538.607
 135  4846.923
 136  4189.57
 137  3422.751
 138  3636.798
 139  4094.719
 140  3941.659
 141  3740.017
 142  3933.27
 143  3964.068
 144  2880.36
 145  2493.03
 146  2959.746
 147  3687.296
 148  3827.086
 149  4161.604
 150  4091.122
 151  4046.354
 152  3851.818
 153  3547.566
 154  4054.906
 155  4242.273
 156  4479.792
 157  3929.103
 158  3490.104
 159  3712.115
 160  2956.844
 161  3326.312
 162  3653.944
 163  3867.249
 164  4256.188
 165  4498.375
 166  4345.533
 167  3735.069
 168  4620.799
 169  4916.408
 170  4666.107
 171  4380.905
 172  4521.859
 173  4564.447
 174  3704.355
 175  2944.987
 176  3153.709
 177  3426.072
 178  3408.432
 179  4230.147
 180  4511.886
 181  4093.477
 182  4079.937
 183  4380.466
 184  4442.351
 185  4060.924
 186  4258.255
 187  3791.245
 188  4205.339
 189  3952.564
 190  3775.202
 191  3578.771
 192  3884.501
 193  3942.533
 194  3203.728
 195  2934.903
 196  3173.945
 197  3790.413
 198  3957.131
 199  4295.034
 200  4765.397
 201  4348.684
 202  4310.344
 203  3739.613
 204  3759.203
 205  3423.164
 206  2736.514
 207  2728.963
 208  3196.425
 209  4167.481
 210  3684.699
 211  3299.459
 212  2884.368
 213  3283.4
 214  3551.384
 215  3339.159
 216  3971.146
 217  4309.335
 218  4717.138
 219  4293.659
 220  3741.87
 221  3385.563
 222  2762.169
 223  3247.684
 224  3012.409
 225  3251.116
 226  3845.413
 227  4024.828
 228  3626.562
 229  3211.04
 230  3289.231
 231  3298.073
 232  3432.424
 233  4407.258
 234  5052.553
 235  4922.187
 236  4084.442
 237  3259.956
 238  3340.77
 239  3235.09
 240  3796.65
 241  3643.099
 242  4095.126
 243  3574.967
 244  3379.454
 245  3567.369
 246  3807.182
 247  3879.631
 248  3935.155
 249  4399.776
 250  4947.198
 251  5520.853
 252  4586.195
 253  4217.229
 254  3979.438
 255  3854.876
 256  3641.926
 257  4084.641
 258  4057.98
 259  3443.79
 260  2799.666
 261  2556.265
 262  3479.897
 263  3800.499
 264  4192.608
 265  4828.186
 266  4561.717
 267  4839.417
 268  3809.385
 269  3396.075
 270  3564.479
 271  3634.927
 272  4193.258
 273  4798.545
 274  5048.069
 275  3851.838
 276  3211.051
 277  2097.22
 278  2855.537
 279  3457.219
 280  4350.713
 281  4537.637
 282  4620.711
 283  4798.604
 284  4019.316
 285  3674.448
 286  3450.927
 287  3590.266
 288  3347.862
 289  3685.086
 290  3715.247
 291  4002.258
 292  4463.042
 293  4214.033
 294  3962.156
 295  3544.301
 296  3438.937
 297  3489.313
 298  4779.834
 299  6047.1
 300  6948.583
 301  6922.916
 302  5810.353
 303  4467.333
 304  3440.562
 305  3509.729
 306  4019.288
 307  3971.694
 308  4309.443
 309  3891.941
 310  3321.532
 311  3218.328
 312  3491.113
 313  3923.014
 314  4122.919
 315  4078.511
 316  4689.098
 317  4538.521
 318  4175.228
 319  3674.064
 320  3441.823
 321  3707.169
 322  3660.093
 323  3931.018
 324  4005.676
 325  3572.699
 326  2950.413
 327  2837.3
 328  3695.746
 329  4119.715
 330  3918.585
 331  3955.978
 332  4583.705
 333  4457.984
 334  4479.678
 335  4186.697
 336  4581.297
 337  4350.417
 338  3724.412
 339  3845.831
 340  3645.469
 341  3646.675
 342  3253.633
 343  3592.797
 344  3748.438
 345  4079.29
 346  3955.363
 347  3745.121
 348  3946.142
 349  3914.822
 350  4243.423
 351  3867.847
 352  3337.216
 353  3650.719
 354  3517.62
 355  3333.724
 356  3499.12
 357  3207.567
 358  3474.856
 359  3420.019
 360  2813.918
 361  3258.882
 362  3320.296
 363  3902.151
 364  3901.021
 365  4031.947
 366  4174.403
 367  3560.139
 368  3692.938
 369  3546.197
 370  3714.697
 371  3549.277
 372  2707.147
 373  2874.387
 374  3062.665
 375  3116.196
 376  2680.89
 377  2715.293
 378  2907.216
 379  2926.628
 380  3312.589
 381  3712.428
 382  4278.769
 383  3991.667
 384  3475.925
 385  3473.504
 386  3835.964
 387  3463.09
 388  3221.221
 389  3367
 390  3334.578
 391  3530.825
 392  3272.187
 393  3796.272
 394  3403.632
 395  3631.503
 396  3737.708
 397  4272.05
 398  4263.821
 399  4472.534
 400  3931.167
 401  3775.437
 402  4267.677
 403  4362.667
 404  4039.689
 405  3324.289
 406  3377.645
 407  3558.832
 408  3571.961
 409  3482.546
 410  3446.049
 411  3562.79
 412  3473.914
 413  3705.991
 414  3984.235
 415  4745.086
 416  4989.692
 417  4108.398
 418  3872.258
 419  3948.755
 420  4038.113
 421  4210.861
 422  3969.765
 423  3581.011
 424  3683.472
 425  3341.622
 426  3186.303
 427  4014.019
 428  4906.387
 429  4664.139
 430  4518.261
 431  4291.605
 432  4351.795
 433  4042.931
 434  3565.17
 435  3828.099
 436  3491.085
 437  3579.045
 438  3319.657
 439  3496.422
 440  3755.976
 441  3489.704
 442  3305.992
 443  3264.307
 444  3836.919
 445  3998.184
 446  3773.24
 447  3792.518
 448  4004.072
 449  3846.925
 450  3336.748
 451  3608.886
 452  3922.862
 453  3618.164
 454  2651.975
 455  2746.788
 456  3062.078
 457  3628.037
 458  3693.319
 459  3584.029
 460  3972.442
 461  3645.097
 462  3376.464
 463  3082.331
 464  3496.305
 465  4822.628
 466  4138.757
 467  3968.277
 468  3883.067
 469  3441.038
 470  3171.976
 471  2938.423
 472  2793.596
 473  3344.622
 474  4102.464
 475  3705.935
 476  3405.218
 477  3325.128
 478  3374.587
 479  3722.499
 480  4326.792
 481  4248.15
 482  4432.05
 483  4126.543
 484  3692.442
 485  4040.102
 486  4609.158
 487  4280.022
 488  3985.782
 489  4027.376
 490  4115.995
 491  3799.105
 492  3830.239
 493  4128.935
 494  4423.741
 495  4403.528
 496  4093.98
 497  4642.405
 498  4828.819
 499  4496.127
 500  4125.554
 501  4289.366
 502  4637.61
 503  3801.853
 504  3732.122
 505  3175.417
 506  2792.718
 507  2846.16
 508  2331.898
 509  3203.875
 510  3810.484
 511  4155.692
