# Input file       =  1208685322.118577_cleaned.dat
# Candidate        =  PSR_0332+5434
# Telescope        =  AR
# Epoch_topo       =  58233.413670353897
# Epoch_bary       =  N/A
# T_sample         =  0.002
# Data Folded      =  7340032
# Data Avg         =  0.375133967442836
# Data StdDev      =  6.75019902592038 
# Profile Bins     =  256
# Profile Avg      =  10756.3960999034 
# Profile StdDev   =  1142.99826705765 
# Reduced chi-sqr  =  1.155
# Prob(Noise)      <  0.0451   (~1.7 sigma)
# P_topo (ms)      =  714.551651465041  +/- 0.000867
# P'_topo (s/s)    =  -0                +/- 4.57e-10
# P''_topo (s/s^2) =  0                 +/- 2.02e-13
# P_bary (ms)      =  N/A
# P'_bary (s/s)    =  N/A
# P''_bary (s/s^2) =  N/A
# P_orb (s)        =  N/A
# asin(i)/c (s)    =  N/A
# eccentricity     =  N/A
# w (rad)          =  N/A
# T_peri           =  N/A
######################################################
   0  9517.756
   1  9691.475
   2  9717.312
   3  10413.41
   4  11176.49
   5  10990.87
   6  10967.99
   7  10817.43
   8  10658.99
   9  11194.44
  10  10077.15
  11  10273.34
  12  9952.085
  13  10308
  14  10421.35
  15  10336.31
  16  10583.3
  17  10124.56
  18  9997.472
  19  10194.75
  20  10072.51
  21  10230.74
  22  10517
  23  10261.83
  24  11242.44
  25  11156.84
  26  10565.8
  27  10818.88
  28  10663.42
  29  10916.9
  30  11365.99
  31  11422.74
  32  12049.04
  33  12684.47
  34  12876.13
  35  12500.87
  36  12294.3
  37  12314.6
  38  12581.93
  39  11611.22
  40  11858.01
  41  12179.75
  42  12384.58
  43  11759.26
  44  11937.68
  45  11747.63
  46  11659.56
  47  11260.1
  48  11425.38
  49  11104.9
  50  10953.04
  51  10713.94
  52  11427.31
  53  11401.07
  54  10860.06
  55  12173.87
  56  11306.02
  57  11433.29
  58  12065.77
  59  11983.88
  60  11200.21
  61  11201.53
  62  11331.11
  63  11191.85
  64  10707.05
  65  11771.77
  66  11871.89
  67  12193.06
  68  12074.83
  69  12225.73
  70  12382.25
  71  11873.05
  72  11842.06
  73  11377.85
  74  11764.72
  75  12032.55
  76  11868.47
  77  12101.88
  78  12100.46
  79  12482.14
  80  11740.37
  81  11935.34
  82  11757.93
  83  11827.31
  84  11786.19
  85  11935.13
  86  11304.45
  87  10058.28
  88  10837.9
  89  10836.71
  90  11231.43
  91  10469.67
  92  11654.15
  93  12109.07
  94  11282.71
  95  11041.83
  96  11475.22
  97  10933.69
  98  10310.82
  99  10523.87
 100  10029.34
 101  9757.564
 102  9955.691
 103  9725.882
 104  9277.607
 105  9360.598
 106  9367.609
 107  9027.134
 108  8613.201
 109  9321.558
 110  9281.133
 111  8852.329
 112  8576.366
 113  9003.326
 114  8992.42
 115  9209.458
 116  9372.355
 117  8471.502
 118  9114.758
 119  8408.833
 120  7752.248
 121  9191.288
 122  9200.561
 123  9341.922
 124  9088.223
 125  9174.698
 126  10245.84
 127  9376.074
 128  9506.583
 129  10147.37
 130  10142.75
 131  9496.42
 132  10279.62
 133  10511.49
 134  9939.47
 135  10995.93
 136  11543.6
 137  11119.52
 138  11284.19
 139  11215.25
 140  12556.11
 141  13972.43
 142  11982.53
 143  11949.48
 144  12220.31
 145  12409.02
 146  11255.3
 147  11562.64
 148  11852.62
 149  13244.96
 150  15118.09
 151  14523.73
 152  10896.33
 153  9857.867
 154  10552.83
 155  11287.79
 156  11484.51
 157  11641.02
 158  11971.93
 159  11446.43
 160  10397.63
 161  10183.23
 162  10197.93
 163  9943.97
 164  9607.773
 165  10044.65
 166  10405.76
 167  10016.56
 168  10162.91
 169  10155.1
 170  10085.42
 171  10190.33
 172  10621.45
 173  10059.25
 174  9585.578
 175  10051.5
 176  10298.6
 177  9323.953
 178  9397.963
 179  9135.847
 180  9351.684
 181  9094.048
 182  9463.501
 183  9703.383
 184  10366.49
 185  10422.84
 186  9692.387
 187  10488.07
 188  10856.92
 189  11194.89
 190  11425.4
 191  11069.53
 192  11396.2
 193  10646.79
 194  11165.28
 195  10844.99
 196  10442.03
 197  11753.87
 198  11471.1
 199  10656.32
 200  11063.61
 201  11538.37
 202  10862.09
 203  11226.86
 204  12056.01
 205  11630.71
 206  11217.65
 207  10880.98
 208  11391.59
 209  10551.6
 210  11174.79
 211  10889.09
 212  10969.68
 213  10106.37
 214  10629.73
 215  10272.8
 216  10038.05
 217  10469.19
 218  10239.4
 219  9688.782
 220  9920.841
 221  10459.21
 222  10051.92
 223  10160.21
 224  10397.52
 225  10561.09
 226  11140.94
 227  11678.11
 228  10576.68
 229  10233.56
 230  10585.34
 231  10957.83
 232  11191.89
 233  10590.83
 234  10248.34
 235  10874.53
 236  10685.85
 237  10376.84
 238  9856.504
 239  10198.5
 240  10520.33
 241  9819.866
 242  10438.32
 243  11096.81
 244  10488.25
 245  10638.02
 246  11504.22
 247  10191.99
 248  10299.98
 249  10332.82
 250  10369.18
 251  9559.242
 252  8918.727
 253  9411.932
 254  9148.025
 255  8983.301
