# Input file       =  1208183128.111974_cleaned.dat
# Candidate        =  PSR_0332+5434
# Telescope        =  AR
# Epoch_topo       =  58227.601239721924
# Epoch_bary       =  N/A
# T_sample         =  0.002
# Data Folded      =  7340032
# Data Avg         =  0.194211379154045
# Data StdDev      =  5.59278444649733 
# Profile Bins     =  512
# Profile Avg      =  2784.30387271784 
# Profile StdDev   =  669.641063579877 
# Reduced chi-sqr  =  1.214
# Prob(Noise)      <  0.000641   (~3.2 sigma)
# P_topo (ms)      =  714.556867006803  +/- 0.000293
# P'_topo (s/s)    =  -0                +/- 1.54e-10
# P''_topo (s/s^2) =  0                 +/- 6.81e-14
# P_bary (ms)      =  N/A
# P'_bary (s/s)    =  N/A
# P''_bary (s/s^2) =  N/A
# P_orb (s)        =  N/A
# asin(i)/c (s)    =  N/A
# eccentricity     =  N/A
# w (rad)          =  N/A
# T_peri           =  N/A
######################################################
   0  2418.103
   1  2113.252
   2  2013.932
   3  1832.986
   4  2186.999
   5  2157.485
   6  2463.773
   7  2526.446
   8  2685.558
   9  2336.266
  10  2005.664
  11  2166.981
  12  2299.041
  13  2276.449
  14  2102.832
  15  2344.791
  16  2030.746
  17  1806.768
  18  2307.683
  19  2699.471
  20  2795.122
  21  2437.865
  22  2395.689
  23  2288.707
  24  2239.759
  25  2587.995
  26  2551.055
  27  2346.499
  28  2583.282
  29  2627.729
  30  2508.068
  31  2350.477
  32  2211.854
  33  2394.132
  34  2351.341
  35  2373.205
  36  2853.955
  37  2890.662
  38  2893.794
  39  2922.598
  40  2980.444
  41  2692.181
  42  2722.445
  43  2787.295
  44  2920.407
  45  3362.162
  46  3482.726
  47  3251.341
  48  3218.566
  49  3065.085
  50  3288.305
  51  3562.828
  52  3336.09
  53  3166.659
  54  2956.714
  55  2586.592
  56  2476.556
  57  2840.722
  58  2970.82
  59  3208.505
  60  3301.896
  61  2946.953
  62  2795.894
  63  2939.63
  64  2720.289
  65  2991.16
  66  3019.155
  67  2940.005
  68  2455.394
  69  2495.369
  70  2646.341
  71  2406.292
  72  2725.888
  73  2796.284
  74  2742.49
  75  2732.336
  76  2289.037
  77  2389.986
  78  2815.154
  79  2787.36
  80  2684.029
  81  2616.061
  82  2924.055
  83  2961.409
  84  2841.763
  85  2827.437
  86  3068.42
  87  3193.99
  88  2920.239
  89  2735.354
  90  2743.507
  91  2861.836
  92  2686.78
  93  2864.73
  94  2659.474
  95  2351.909
  96  2261.661
  97  2833.808
  98  3361.295
  99  3990.063
 100  4178.097
 101  4694.003
 102  4655.881
 103  4117.233
 104  3375.547
 105  2909.609
 106  3013.771
 107  2644.776
 108  3010.642
 109  3334.91
 110  3319.793
 111  3577.209
 112  3661.726
 113  3834.382
 114  3794.735
 115  4032.554
 116  4220.824
 117  4246.708
 118  3893.208
 119  3865.821
 120  3771.965
 121  4051.829
 122  4037.611
 123  3874.643
 124  3713.222
 125  3506.575
 126  3345.918
 127  3547.781
 128  3554.683
 129  3572.077
 130  3410.789
 131  3369.091
 132  3408.047
 133  3537.858
 134  3190.577
 135  2815.39
 136  2878.626
 137  2917.829
 138  2525.604
 139  2655.577
 140  3043.278
 141  2732.753
 142  2447.659
 143  2938.504
 144  2877.199
 145  3017.506
 146  2886.076
 147  2894.193
 148  2756.918
 149  2413.759
 150  2189.302
 151  2268.717
 152  2328.101
 153  2570.668
 154  2472.344
 155  2645.805
 156  2346.156
 157  1928.852
 158  1855.594
 159  2050.528
 160  1880.44
 161  1786.096
 162  1728.445
 163  1624.737
 164  2105.919
 165  2178.864
 166  2174.802
 167  1950.113
 168  1932.218
 169  1870.505
 170  1995.054
 171  2610.368
 172  2531.709
 173  2436.435
 174  2149.363
 175  1928.592
 176  2202.384
 177  2535.718
 178  2789.261
 179  2559.611
 180  2779.865
 181  2811.979
 182  2716.272
 183  3000.008
 184  2675.031
 185  2958.293
 186  3393.369
 187  2773.22
 188  3078.177
 189  3322.292
 190  3389.74
 191  3440.309
 192  3250.667
 193  3538.661
 194  3471.133
 195  3160.111
 196  3201.651
 197  3698.251
 198  3645.105
 199  3356.385
 200  3342.307
 201  3485.231
 202  3156.491
 203  3291.436
 204  3561.006
 205  3630.9
 206  3356.096
 207  3259.502
 208  3296.676
 209  2763.75
 210  2591.115
 211  2750.541
 212  2908.629
 213  2632.316
 214  2217.132
 215  2490.065
 216  2563.46
 217  2631.353
 218  2666.767
 219  2348.104
 220  2446.774
 221  2644.198
 222  2469.871
 223  2151.751
 224  1891.188
 225  2160.474
 226  2274.39
 227  2462.025
 228  2275.868
 229  2296.746
 230  2326.243
 231  2080.029
 232  1983.109
 233  2614.639
 234  2587.201
 235  2052.193
 236  1967.093
 237  2405.967
 238  2833.901
 239  2792.401
 240  2521.544
 241  2495.406
 242  2868.924
 243  3082.678
 244  3049.794
 245  2698.213
 246  2783.625
 247  2727.824
 248  2653.767
 249  2759.642
 250  2751.056
 251  2776.642
 252  3025.757
 253  3029.523
 254  3269.511
 255  3298.875
 256  3322.475
 257  3274.723
 258  3428.26
 259  3121.068
 260  3207.618
 261  3570.135
 262  3465.117
 263  2952.928
 264  2796.728
 265  3330.355
 266  3474.252
 267  3671.234
 268  3475.974
 269  3501.094
 270  3001.761
 271  3091.57
 272  3347.061
 273  3343.177
 274  3564.348
 275  3666.848
 276  3212.282
 277  2535.433
 278  2500.968
 279  3063.274
 280  3381.095
 281  3133.259
 282  2907.638
 283  2983.218
 284  3055
 285  2914.507
 286  2527.539
 287  2527.182
 288  2968.763
 289  2534.868
 290  2118.022
 291  2472.415
 292  2480.226
 293  2624.335
 294  2904.903
 295  2707.83
 296  2398.322
 297  2427.099
 298  2698.839
 299  2953.637
 300  3062.694
 301  2973.221
 302  2520.028
 303  2083.435
 304  2210.036
 305  2668.23
 306  2317.309
 307  2214.472
 308  2469.189
 309  2666.556
 310  2411.051
 311  2479.419
 312  2502.858
 313  2565.516
 314  2692.258
 315  2864.658
 316  2516.649
 317  2713.288
 318  3135.018
 319  3013.191
 320  3401.293
 321  3334.487
 322  3376.251
 323  3257.416
 324  3484.36
 325  3821.253
 326  3633.811
 327  3694.533
 328  3607.372
 329  3641.845
 330  3364.291
 331  3371.139
 332  3805.788
 333  3857.721
 334  3553.843
 335  3200.923
 336  2619.322
 337  2802.819
 338  2790.05
 339  3493.239
 340  3941.752
 341  3566.094
 342  3565.587
 343  3381.46
 344  3191.049
 345  3290.259
 346  3448.14
 347  3583.139
 348  3724.631
 349  3542.41
 350  3603.287
 351  3797.041
 352  3710.78
 353  3511.835
 354  3399.389
 355  2947.417
 356  3082.839
 357  3191.197
 358  3423.771
 359  3187.203
 360  3371.15
 361  3352.886
 362  3268.548
 363  3018.257
 364  3102.496
 365  3134.827
 366  2885.587
 367  2950.9
 368  3099.711
 369  3398.082
 370  3164.798
 371  2708.963
 372  2673.763
 373  2665.877
 374  2303.418
 375  2237.979
 376  2391.927
 377  2544.075
 378  2613.804
 379  2476.016
 380  2733.06
 381  2678.965
 382  2549.025
 383  2647.877
 384  2295.799
 385  2124.722
 386  2530.703
 387  2421.237
 388  2590.765
 389  2940.993
 390  2980.084
 391  2425.993
 392  1906.635
 393  2074.99
 394  2708.081
 395  2696.665
 396  2331.349
 397  2396.513
 398  2391.355
 399  2542.525
 400  2398.385
 401  2545.685
 402  2270.191
 403  2040.836
 404  2314.038
 405  2418.005
 406  2203.712
 407  2518.62
 408  2634.388
 409  2539.466
 410  2578.577
 411  2330.583
 412  2314.411
 413  2777.908
 414  2527.978
 415  2498.133
 416  2789.755
 417  2961.143
 418  2560.457
 419  2824.152
 420  3247.383
 421  3198.395
 422  2933.785
 423  3020.285
 424  3021.103
 425  2856.515
 426  2662.89
 427  2621.132
 428  2789.076
 429  2641.865
 430  2314.55
 431  2073.311
 432  2157.202
 433  2192.321
 434  2214.68
 435  2128.523
 436  2210.988
 437  1685.026
 438  1718.503
 439  1905.091
 440  2003.422
 441  2038.3
 442  1637.3
 443  1819.512
 444  1925.781
 445  1799.567
 446  1877.207
 447  1766.623
 448  2088.998
 449  2069.79
 450  2370.566
 451  2184.209
 452  1825.089
 453  1749.808
 454  1957.242
 455  2053.04
 456  2213.604
 457  2399.905
 458  2245.313
 459  1902.728
 460  2577.877
 461  2271.453
 462  2318.38
 463  2119.919
 464  2316.585
 465  2418.214
 466  2411.096
 467  2421.814
 468  2610.32
 469  2355.87
 470  2345.85
 471  2589.071
 472  2483.167
 473  2172.1
 474  2114.483
 475  2542.976
 476  2316.287
 477  2005.758
 478  1962.918
 479  2038.502
 480  2543.941
 481  3034.414
 482  3275.182
 483  2919.763
 484  2932.655
 485  2761.588
 486  2379.537
 487  2734.578
 488  2876.595
 489  3083.88
 490  2988.989
 491  2906.614
 492  3216.47
 493  3184.895
 494  2906.553
 495  3126.559
 496  3187.17
 497  2851.22
 498  3324.656
 499  3339.128
 500  2986.709
 501  2803.824
 502  2485.483
 503  2360.818
 504  2558.002
 505  2602.896
 506  2700.21
 507  2762.365
 508  2660.659
 509  2526.929
 510  2381.604
 511  2558.016
