# Input file       =  1208928641.108855-PSRB0329-2ms-sampling-dd.dat
# Candidate        =  PSR_0332+5434
# Telescope        =  AR
# Epoch_topo       =  58236.229862371008
# Epoch_bary       =  N/A
# T_sample         =  0.002
# Data Folded      =  7208960
# Data Avg         =  -9.36758880835054e-11
# Data StdDev      =  7.24042665976868 
# Profile Bins     =  512
# Profile Avg      =  -0.0296466684025783
# Profile StdDev   =  859.143059841657 
# Reduced chi-sqr  =  1.019
# Prob(Noise)      <  0.371   (~0.3 sigma)
# P_topo (ms)      =  714.549182904766  +/- 4.18e-05
# P'_topo (s/s)    =  -0                +/- 2.24e-11
# P''_topo (s/s^2) =  0                 +/- 1.01e-14
# P_bary (ms)      =  N/A
# P'_bary (s/s)    =  N/A
# P''_bary (s/s^2) =  N/A
# P_orb (s)        =  N/A
# asin(i)/c (s)    =  N/A
# eccentricity     =  N/A
# w (rad)          =  N/A
# T_peri           =  N/A
######################################################
   0  495.0388
   1  -563.1076
   2  -965.9835
   3  -1379.344
   4  -1650.711
   5  -99.22845
   6  552.6992
   7  776.4655
   8  838.0368
   9  566.6974
  10  127.1153
  11  -130.3869
  12  -304.5529
  13  -730.7696
  14  -774.1005
  15  -438.6551
  16  138.3833
  17  123.3222
  18  -302.1349
  19  -511.1802
  20  -961.4954
  21  -968.935
  22  -567.7559
  23  294.929
  24  666.348
  25  761.9854
  26  785.5175
  27  155.7354
  28  -588.115
  29  -574.3285
  30  -463.8781
  31  -160.5519
  32  -136.6083
  33  -310.6049
  34  -126.3742
  35  -858.504
  36  -1120.085
  37  -1589.985
  38  -782.2584
  39  -193.5243
  40  270.9898
  41  85.15789
  42  -401.9582
  43  8.546264
  44  -343.7005
  45  -339.7167
  46  -665.186
  47  -169.3418
  48  -389.2599
  49  -496.3004
  50  -767.5977
  51  -1117.122
  52  -943.4429
  53  -661.4835
  54  -522.168
  55  -518.6164
  56  329.8156
  57  290.0564
  58  -240.4205
  59  383.0098
  60  184.7766
  61  -155.0454
  62  -449.9364
  63  -316.6483
  64  130.605
  65  314.4392
  66  -237.7412
  67  -1125.599
  68  -725.4416
  69  -916.6256
  70  -664.1887
  71  -146.6511
  72  799.4734
  73  634.6983
  74  633.2974
  75  552.8069
  76  -27.1644
  77  -480.0625
  78  -459.5739
  79  -117.1585
  80  -191.6123
  81  109.2893
  82  252.6801
  83  -126.1095
  84  -673.24
  85  -800.4504
  86  -787.6556
  87  -1007.182
  88  -287.4305
  89  6.68378
  90  553.099
  91  809.0189
  92  646.1452
  93  590.0956
  94  -41.60626
  95  -226.1366
  96  -393.075
  97  -245.3456
  98  56.04597
  99  416.2481
 100  40.00491
 101  -546.3808
 102  -361.0274
 103  -596.024
 104  -356.1304
 105  399.126
 106  1007.886
 107  736.9275
 108  686.416
 109  753.2023
 110  112.2625
 111  -280.5522
 112  -123.311
 113  4.94226
 114  104.3768
 115  242.1621
 116  4.753103
 117  -263.8771
 118  -661.3383
 119  -637.1984
 120  -270.6758
 121  362.7767
 122  217.7424
 123  447.8222
 124  480.8803
 125  695.1019
 126  520.1481
 127  408.2871
 128  91.40286
 129  248.3716
 130  -232.4161
 131  -220.0131
 132  -361.6878
 133  -218.5215
 134  2.363763
 135  1.524594
 136  -196.092
 137  71.37088
 138  728.1457
 139  358.7362
 140  596.978
 141  1028.588
 142  1032.75
 143  469.3924
 144  225.6501
 145  274.9298
 146  274.5152
 147  -34.09683
 148  -0.8121775
 149  -235.9297
 150  -506.7733
 151  -351.0143
 152  -744.4704
 153  -252.5239
 154  432.539
 155  1185.321
 156  653.0297
 157  269.7137
 158  626.4654
 159  368.3817
 160  -70.23581
 161  -189.1223
 162  -223.3664
 163  -115.265
 164  428.7646
 165  142.8879
 166  -441.9492
 167  -327.0764
 168  -540.4186
 169  -282.1323
 170  -40.07277
 171  1135.622
 172  1318.516
 173  1480.109
 174  1513.359
 175  658.4205
 176  -25.7459
 177  -1044.05
 178  -988.9945
 179  -439.2964
 180  471.8456
 181  286.482
 182  291.7966
 183  -17.02251
 184  -899.6438
 185  -1099.597
 186  -1427.913
 187  23.28016
 188  537.9488
 189  882.1752
 190  844.944
 191  1011.301
 192  605.9155
 193  -150.2194
 194  -635.7516
 195  -427.9385
 196  -246.9007
 197  -53.33074
 198  -137.1569
 199  107.4583
 200  -31.06877
 201  -891.2264
 202  -922.332
 203  -529.319
 204  -329.8581
 205  277.1118
 206  554.9227
 207  950.5524
 208  986.5002
 209  560.0593
 210  -106.721
 211  -375.133
 212  -798.4785
 213  -819.575
 214  -823.0333
 215  -711.9
 216  -509.9497
 217  -269.9204
 218  -661.5076
 219  -964.1158
 220  -177.2983
 221  -36.09422
 222  73.55368
 223  188.2353
 224  538.0989
 225  404.96
 226  -72.52137
 227  -65.44127
 228  -108.8163
 229  363.3928
 230  -100.649
 231  -421.5281
 232  -159.0425
 233  -231.2437
 234  -266.7698
 235  -219.1289
 236  363.7916
 237  193.3768
 238  553.9435
 239  1140.66
 240  896.0109
 241  549.5783
 242  -124.1543
 243  -547.7593
 244  -864.6656
 245  145.0753
 246  589.619
 247  526.0967
 248  100.6148
 249  -488.6465
 250  -562.0384
 251  -784.2302
 252  -127.3566
 253  131.3128
 254  1251.231
 255  1495.033
 256  1398.588
 257  1112.318
 258  129.8149
 259  -293.0923
 260  -1158.048
 261  -859.3409
 262  -15.22499
 263  581.4847
 264  544.892
 265  438.7112
 266  219.0352
 267  -421.2005
 268  -647.4671
 269  -758.2995
 270  -45.81962
 271  683.1524
 272  1197.986
 273  1318.054
 274  895.5429
 275  506.5
 276  -134.1593
 277  -731.006
 278  -600.5819
 279  125.1269
 280  91.61337
 281  8.91662
 282  430.5255
 283  168.7923
 284  -448.1737
 285  -612.6776
 286  -438.7037
 287  232.1662
 288  1048.121
 289  720.4371
 290  921.5612
 291  514.0016
 292  -338.3504
 293  -396.9512
 294  -589.4285
 295  -548.468
 296  -224.618
 297  -84.29961
 298  -105.8203
 299  -99.46053
 300  -532.6606
 301  -518.8701
 302  -287.1125
 303  -56.24234
 304  75.62172
 305  192.9945
 306  868.3428
 307  550.8083
 308  824.6865
 309  -13.9998
 310  -307.0307
 311  38.93948
 312  226.1028
 313  104.832
 314  -368.5558
 315  291.9015
 316  -325.3662
 317  -535.9564
 318  -623.1003
 319  166.5612
 320  502.2746
 321  865.6556
 322  1419.627
 323  1299.944
 324  873.2391
 325  -471.7854
 326  -561.3005
 327  -355.0363
 328  -45.75609
 329  464.0629
 330  476.142
 331  20.34932
 332  -289.0501
 333  -339.1913
 334  -1071.386
 335  -444.8587
 336  -27.79337
 337  898.3096
 338  995.7335
 339  891.8729
 340  737.1408
 341  -68.86354
 342  -258.3189
 343  -634.4951
 344  -606.1741
 345  -313.0046
 346  381.7392
 347  288.0985
 348  328.2998
 349  153.5736
 350  -599.0449
 351  -980.9408
 352  -424.1465
 353  942.9172
 354  1046
 355  1180.945
 356  1539.539
 357  925.7382
 358  -99.29724
 359  -720.8511
 360  -1104.826
 361  -847.2672
 362  400.455
 363  759.0675
 364  703.6829
 365  -193.1634
 366  -281.6917
 367  -524.5536
 368  -755.9073
 369  9.618773
 370  817.0325
 371  1567.711
 372  1883.931
 373  2196.948
 374  2032.271
 375  1948.807
 376  1790.365
 377  1438.337
 378  463.6758
 379  -28.15012
 380  29.3903
 381  -87.15296
 382  40.52589
 383  -331.9522
 384  -246.0624
 385  -157.7609
 386  217.7223
 387  789.9691
 388  934.0659
 389  1274.524
 390  976.4248
 391  804.5018
 392  -15.79649
 393  -693.621
 394  -146.7267
 395  85.89546
 396  140.1097
 397  -575.9836
 398  -923.1533
 399  -885.0117
 400  -682.1559
 401  -1069.127
 402  -205.8543
 403  338.2807
 404  450.5415
 405  491.2644
 406  465.1627
 407  -170.5278
 408  -1177.289
 409  -747.3859
 410  -641.3365
 411  -65.96952
 412  -72.10212
 413  -337.2621
 414  -420.5953
 415  -375.2468
 416  -685.7883
 417  -1334.344
 418  -273.6741
 419  549.732
 420  855.7845
 421  941.0239
 422  877.5321
 423  531.049
 424  -345.7566
 425  -740.8155
 426  -452.5654
 427  321.5741
 428  424.4364
 429  311.7422
 430  -182.1471
 431  -582.6012
 432  -373.3286
 433  -705.6038
 434  -373.1029
 435  89.28121
 436  781.1293
 437  495.8243
 438  813.1133
 439  789.7618
 440  73.81274
 441  -140.9994
 442  -485.9556
 443  -345.7494
 444  54.83994
 445  453.2371
 446  -54.63289
 447  119.4764
 448  -334.3422
 449  -692.5912
 450  -814.0257
 451  -738.7848
 452  339.2209
 453  811.8818
 454  897.2661
 455  712.8035
 456  536.5818
 457  209.6661
 458  -297.7892
 459  -265.5208
 460  -307.3981
 461  -125.8422
 462  207.59
 463  -61.99652
 464  -356.826
 465  -370.4569
 466  -879.5142
 467  -661.5386
 468  -43.84126
 469  299.6425
 470  244.5841
 471  180.5511
 472  538.6557
 473  -174.7879
 474  -509.9342
 475  -789.524
 476  -435.5731
 477  -116.9393
 478  -5.461957
 479  -100.7067
 480  -757.1131
 481  -966.491
 482  -1370.147
 483  -662.4956
 484  -687.2877
 485  36.07334
 486  510.09
 487  472.6559
 488  558.2743
 489  96.79673
 490  -323.2564
 491  -572.7919
 492  -325.4721
 493  -239.7942
 494  130.2783
 495  -366.7782
 496  -807.3232
 497  -656.6493
 498  -449.6127
 499  -352.8595
 500  -1041.524
 501  -37.06279
 502  185.1624
 503  636.0759
 504  989.5209
 505  570.5745
 506  211.7381
 507  -753.3148
 508  -863.9019
 509  -730.2052
 510  5.791556
 511  257.8825
