# Input file       =  1208843057.118752-PSRB0329-2ms-sampling-dd.dat
# Candidate        =  PSR_0332+5434
# Telescope        =  AR
# Epoch_topo       =  58235.239306930001
# Epoch_bary       =  N/A
# T_sample         =  0.002
# Data Folded      =  7208960
# Data Avg         =  -9.62729096059682e-10
# Data StdDev      =  13.8858126617127 
# Profile Bins     =  512
# Profile Avg      =  0.164556033860734
# Profile StdDev   =  1647.6790856622  
# Reduced chi-sqr  =  0.790
# Prob(Noise)      <  1   (~0.0 sigma)
# P_topo (ms)      =  714.550043775809  +/- 7.08e-05
# P'_topo (s/s)    =  -0                +/- 3.8e-11
# P''_topo (s/s^2) =  0                 +/- 1.71e-14
# P_bary (ms)      =  N/A
# P'_bary (s/s)    =  N/A
# P''_bary (s/s^2) =  N/A
# P_orb (s)        =  N/A
# asin(i)/c (s)    =  N/A
# eccentricity     =  N/A
# w (rad)          =  N/A
# T_peri           =  N/A
######################################################
   0  -164.4807
   1  -849.5627
   2  53.10218
   3  -1323.396
   4  -1298.483
   5  -704.8064
   6  1409.068
   7  1258.245
   8  759.4251
   9  1162.254
  10  -395.3202
  11  -697.9777
  12  -1454.499
  13  -271.1748
  14  -414.2169
  15  -295.3749
  16  -1164.495
  17  -419.1866
  18  -6.170929
  19  -821.5983
  20  316.3639
  21  -44.83643
  22  398.1613
  23  -624.1228
  24  -751.9887
  25  1025.299
  26  779.0311
  27  96.85113
  28  4.544252
  29  -530.4891
  30  368.7599
  31  860.6793
  32  1468.752
  33  1446.16
  34  670.8334
  35  245.9866
  36  -400.4313
  37  -678.5355
  38  917.045
  39  1765.308
  40  1313.783
  41  2779.93
  42  382.2644
  43  379.1891
  44  517.6551
  45  876.7784
  46  2115.236
  47  1179.906
  48  310.2373
  49  49.57486
  50  1375.482
  51  859.2299
  52  1351.501
  53  1326.002
  54  1442.127
  55  1144.824
  56  1309.152
  57  1836.268
  58  742.0322
  59  1167.498
  60  1436.539
  61  1195.875
  62  1382.433
  63  2293.316
  64  819.6234
  65  131.2263
  66  -414.5709
  67  356.2536
  68  167.6442
  69  872.4833
  70  1110.674
  71  435.3514
  72  267.1851
  73  475.0355
  74  748.4911
  75  991.1868
  76  793.4413
  77  -965.1091
  78  -465.541
  79  -896.4598
  80  59.3654
  81  -286.7018
  82  -635.4836
  83  -1518.096
  84  -1840.044
  85  -901.2428
  86  -513.1158
  87  187.3543
  88  -343.2871
  89  -866.9804
  90  -1561.501
  91  -944.3654
  92  -969.2074
  93  -710.0189
  94  -873.4103
  95  -1587.242
  96  -2029.294
  97  -2596.735
  98  -2043.526
  99  -1235.395
 100  -193.3497
 101  -638.045
 102  -1752.266
 103  -2119.272
 104  -1419.48
 105  -439.2935
 106  511.4098
 107  871.1511
 108  312.2527
 109  -991.4764
 110  -2194.515
 111  -2160.219
 112  -286.5643
 113  134.494
 114  -898.3893
 115  -756.2804
 116  -1226.715
 117  496.4018
 118  47.93979
 119  1449.294
 120  1947.769
 121  -597.3349
 122  -989.3707
 123  -908.4989
 124  -610.0612
 125  430.0414
 126  554.2847
 127  -1037.382
 128  -1180.079
 129  -1868.7
 130  -717.834
 131  -206.7716
 132  -4.783456
 133  -372.4202
 134  -1669.169
 135  -1334.193
 136  -1248.231
 137  -846.053
 138  216.9044
 139  -283.6124
 140  -1088.65
 141  -543.1783
 142  -676.6064
 143  -972.1014
 144  -219.4091
 145  -891.5436
 146  -1777.76
 147  -1976.634
 148  -2000.108
 149  -715.664
 150  17.54967
 151  -236.6334
 152  -457.3872
 153  -2616.675
 154  -2079.474
 155  -1937.475
 156  -765.9263
 157  -855.5679
 158  -1492.645
 159  -1130.906
 160  -1084.72
 161  -1069.914
 162  165.3376
 163  835.2391
 164  -211.5095
 165  47.61152
 166  -756.0627
 167  -440.5409
 168  1014.702
 169  978.4198
 170  1343.067
 171  -532.206
 172  -413.4929
 173  126.2624
 174  787.8237
 175  1971.602
 176  1464.81
 177  -146.9104
 178  -154.2438
 179  625.3125
 180  -82.78642
 181  1241.183
 182  1624.341
 183  1162.02
 184  315.6033
 185  -1045.305
 186  -186.7027
 187  484.2665
 188  1473.955
 189  1983.757
 190  527.4327
 191  420.97
 192  -188.3469
 193  -166.7908
 194  786.6565
 195  756.1826
 196  -9.027786
 197  315.5648
 198  -1094.462
 199  526.2859
 200  1290.114
 201  316.1113
 202  27.2911
 203  -950.7834
 204  -501.8425
 205  -413.9022
 206  105.6289
 207  1694.072
 208  1097.166
 209  1650.925
 210  1785.943
 211  742.5374
 212  1750.876
 213  2105.915
 214  1272.858
 215  1520.939
 216  491.1578
 217  278.3868
 218  215.9851
 219  137.3423
 220  197.0365
 221  -242.6827
 222  -358.0665
 223  -103.5233
 224  260.3372
 225  449.4323
 226  194.7142
 227  -822.5287
 228  -495.8165
 229  -1218.28
 230  -810.496
 231  -50.27108
 232  84.36852
 233  15.7175
 234  -215.5257
 235  -58.86941
 236  380.0656
 237  878.3353
 238  615.5125
 239  1062.763
 240  -312.859
 241  240.0516
 242  807.8938
 243  690.304
 244  2492.374
 245  1504.08
 246  714.1662
 247  -263.431
 248  321.0352
 249  1557.249
 250  1703.355
 251  1038.368
 252  314.861
 253  1174.468
 254  540.9958
 255  762.8958
 256  1355.087
 257  3111.251
 258  2227.398
 259  276.0435
 260  193.0311
 261  665.9921
 262  1487.24
 263  2643.018
 264  2096.211
 265  1767.931
 266  559.0399
 267  876.8073
 268  134.155
 269  2150.698
 270  2349.112
 271  2417.168
 272  1729.28
 273  1097.059
 274  1712.569
 275  612.7662
 276  -105.4784
 277  53.25714
 278  1083.016
 279  249.9752
 280  -501.8549
 281  686.1919
 282  2091.075
 283  1284.464
 284  727.3173
 285  -308.9721
 286  -973.8335
 287  322.9642
 288  259.8456
 289  578.4978
 290  788.5643
 291  -400.4771
 292  -1266.283
 293  -1496.123
 294  -1368.946
 295  -570.2337
 296  -1252.046
 297  -747.5778
 298  -958.6858
 299  -1394.073
 300  -1246.522
 301  -1748.305
 302  -663.2634
 303  -399.3726
 304  -407.6725
 305  -2311.191
 306  -85.06262
 307  -129.1645
 308  554.3619
 309  -585.1706
 310  -1545.801
 311  -750.8968
 312  -1726.01
 313  -1065.446
 314  -637.5522
 315  28.50056
 316  -250.4911
 317  -1056.372
 318  -986.4868
 319  563.5703
 320  -256.6226
 321  84.30545
 322  1432.672
 323  526.9823
 324  -268.6405
 325  -801.2744
 326  -1125.608
 327  451.7552
 328  381.0556
 329  295.5456
 330  171.196
 331  -138.9307
 332  961.3421
 333  -779.7657
 334  -405.8507
 335  211.7636
 336  882.871
 337  -213.1971
 338  428.6136
 339  -686.8231
 340  -164.2971
 341  129.7764
 342  -1638.527
 343  -839.0561
 344  -872.1231
 345  -172.8825
 346  -502.3054
 347  -754.5763
 348  -501.8503
 349  -1967.999
 350  -1691.777
 351  -814.2645
 352  -993.1746
 353  -337.9286
 354  -723.6624
 355  -2027.135
 356  -543.1433
 357  381.6597
 358  -764.3899
 359  165.4944
 360  629.5947
 361  -76.20451
 362  -565.0338
 363  -270.2455
 364  1673.35
 365  1640.728
 366  1506.557
 367  129.7265
 368  -1224.829
 369  -329.7056
 370  276.5508
 371  1414.029
 372  2730.276
 373  1913.383
 374  -65.33829
 375  362.1439
 376  460.239
 377  1173.268
 378  1581.376
 379  -155.8736
 380  119.0615
 381  -197.3739
 382  1384.134
 383  900.6013
 384  124.5177
 385  -176.4325
 386  -878.2274
 387  -758.0581
 388  789.2473
 389  1935.511
 390  1553.901
 391  584.7159
 392  -1270.496
 393  -224.3064
 394  687.6227
 395  919.1865
 396  1867.57
 397  -152.5793
 398  -193.5347
 399  -980.6596
 400  -719.8361
 401  551.1812
 402  1354.428
 403  937.1647
 404  -114.1207
 405  -495.7115
 406  -516.6502
 407  -355.1924
 408  -563.3315
 409  -869.0496
 410  -1172.084
 411  -1952.473
 412  -1836.359
 413  -914.6933
 414  343.4919
 415  834.7545
 416  -653.6058
 417  -198.1218
 418  -1917.829
 419  -63.75666
 420  1404.599
 421  2169.16
 422  1647.203
 423  520.1066
 424  170.4261
 425  -506.2425
 426  134.5292
 427  650.6535
 428  752.4213
 429  -996.5168
 430  -284.5086
 431  -184.8573
 432  282.0675
 433  -586.5936
 434  -649.4457
 435  -277.8773
 436  -1692.176
 437  -827.1964
 438  1139.088
 439  1903.514
 440  1682.56
 441  1245
 442  -1227.622
 443  -900.7906
 444  -395.0376
 445  32.57558
 446  369.4607
 447  -124.02
 448  -1591.543
 449  -1486.427
 450  -1592.446
 451  775.8459
 452  1157.716
 453  494.5338
 454  680.6313
 455  -1919.607
 456  -948.2266
 457  -1636.051
 458  -459.2271
 459  655.4022
 460  740.7771
 461  -527.3746
 462  -891.8934
 463  -426.085
 464  -183.4276
 465  383.0868
 466  -354.0372
 467  -978.8575
 468  -1838.422
 469  -487.1438
 470  -312.6045
 471  663.0899
 472  194.676
 473  -1411.821
 474  -2306.989
 475  -1783.624
 476  -764.788
 477  -248.7575
 478  -1315.093
 479  -2311.836
 480  -2576.077
 481  -1686.208
 482  -1477.663
 483  -1147.698
 484  92.60626
 485  -491.2604
 486  97.24277
 487  -463.9567
 488  663.8579
 489  -249.3257
 490  -351.6938
 491  -1420.209
 492  -1803.894
 493  -688.0012
 494  -1266.888
 495  -417.4318
 496  216.8448
 497  777.2397
 498  -348.4183
 499  -205.6349
 500  933.4203
 501  1679.529
 502  2259.648
 503  1745.536
 504  700.1516
 505  323.8091
 506  -403.0373
 507  -273.1815
 508  93.79883
 509  854.4264
 510  426.0034
 511  -103.6167
