# Input file       =  1208512984.109768_cleaned.dat
# Candidate        =  PSR_0332+5434
# Telescope        =  AR
# Epoch_topo       =  58231.419017474167
# Epoch_bary       =  N/A
# T_sample         =  0.002
# Data Folded      =  7340032
# Data Avg         =  -0.0439037200080091
# Data StdDev      =  6.66882495052383 
# Profile Bins     =  256
# Profile Avg      =  -1258.65712316228
# Profile StdDev   =  1129.21935079096 
# Reduced chi-sqr  =  0.728
# Prob(Noise)      <  1   (~0.0 sigma)
# P_topo (ms)      =  714.553354803247  +/- 0.00079
# P'_topo (s/s)    =  -0                +/- 4.17e-10
# P''_topo (s/s^2) =  0                 +/- 1.84e-13
# P_bary (ms)      =  N/A
# P'_bary (s/s)    =  N/A
# P''_bary (s/s^2) =  N/A
# P_orb (s)        =  N/A
# asin(i)/c (s)    =  N/A
# eccentricity     =  N/A
# w (rad)          =  N/A
# T_peri           =  N/A
######################################################
   0  -1048.674
   1  -2010.847
   2  -1822.532
   3  -2523.564
   4  -1475.575
   5  -431.1388
   6  -777.4613
   7  -487.9456
   8  -566.913
   9  -339.2345
  10  -438.1886
  11  105.6253
  12  -1526.102
  13  -1200.566
  14  -1356.204
  15  -1486.511
  16  -1810.359
  17  -1694.374
  18  -1491.508
  19  -1201.28
  20  -868.5737
  21  -943.5614
  22  -1708.465
  23  -1903.009
  24  -2167.103
  25  -1679.741
  26  -1736.939
  27  -2250.527
  28  -2250.485
  29  -2706.678
  30  -2323.043
  31  -1803.196
  32  -1973.485
  33  -1592.239
  34  -1117.598
  35  -1519.665
  36  -1291.704
  37  -2058.637
  38  -1805.904
  39  -2601.125
  40  -2057.492
  41  -2287.282
  42  -1872.452
  43  -2012.674
  44  -1475.147
  45  -951.5556
  46  -1234.523
  47  -1497.477
  48  -1111.971
  49  -1428.55
  50  -1186.474
  51  -2181.695
  52  -1727.885
  53  -2258.16
  54  -1886.876
  55  -1897.508
  56  -1608.687
  57  -1698.008
  58  -1870.259
  59  -1214.051
  60  -1727.513
  61  -1808.807
  62  -2169.065
  63  -875.8689
  64  -319.6362
  65  -191.7301
  66  685.8683
  67  807.812
  68  909.2467
  69  86.64737
  70  806.7181
  71  262.7286
  72  435.9271
  73  -550.0722
  74  -839.758
  75  -670.5341
  76  -1304.915
  77  -1742.625
  78  -2345.053
  79  -1747.556
  80  -1011.959
  81  -957.3687
  82  -533.4324
  83  -399.9617
  84  -440.8871
  85  -604.1626
  86  -632.0896
  87  -453.2051
  88  -488.8714
  89  -531.5391
  90  -921.0895
  91  -1140.249
  92  -389.8742
  93  -728.6856
  94  -1494.722
  95  -1074.62
  96  -617.5964
  97  -830.9236
  98  -966.1888
  99  -502.3626
 100  -279.5211
 101  -1335.493
 102  -1422.385
 103  -991.4969
 104  -733.4849
 105  -1008.133
 106  -391.0843
 107  30.68415
 108  326.434
 109  -346.9143
 110  -677.0793
 111  -340.355
 112  -376.2922
 113  -522.1023
 114  -887.0538
 115  -742.0944
 116  -303.2569
 117  -1660.686
 118  -1645.84
 119  -1020.748
 120  -869.2052
 121  -327.5273
 122  -719.8821
 123  -615.9575
 124  -1209.662
 125  -1194.264
 126  -1067.025
 127  -367.8732
 128  -1281.115
 129  -1586.189
 130  -1665.364
 131  -1254.516
 132  -1506.44
 133  -1379.928
 134  -2270.275
 135  -1612.336
 136  -2111.846
 137  -2856.453
 138  -3108.058
 139  -2264.9
 140  -2229.507
 141  -1808.394
 142  -1927.8
 143  -1787.865
 144  -1727.167
 145  -729.2958
 146  -1554.594
 147  -820.9431
 148  -537.8381
 149  654.6171
 150  2034.075
 151  2250.947
 152  -108.1457
 153  -837.1744
 154  -431.9638
 155  -913.8245
 156  -207.6443
 157  -554.8486
 158  -742.6193
 159  -823.369
 160  -342.9472
 161  -154.3089
 162  -230.1514
 163  -137.5363
 164  105.136
 165  -65.29778
 166  26.73528
 167  139.9727
 168  497.9644
 169  142.1783
 170  -806.8912
 171  -700.247
 172  -935.5945
 173  -1001.372
 174  -770.9336
 175  -139.0614
 176  -1230.812
 177  -998.2428
 178  -1658.372
 179  -1534.009
 180  -931.6338
 181  -1367.292
 182  -1638.918
 183  -2044.589
 184  -2175.623
 185  -1643.502
 186  -1315.327
 187  -1193.079
 188  -946.858
 189  -1323.697
 190  -1481.28
 191  -1875.881
 192  -1537.307
 193  -2342.188
 194  -2466.927
 195  -1315.555
 196  -1177.138
 197  -2209.811
 198  -1595.194
 199  -1556.551
 200  -1922.52
 201  -2400.848
 202  -2723.446
 203  -2285.858
 204  -2380.206
 205  -1706.533
 206  -2431.029
 207  -2377.695
 208  -1758.55
 209  -1665.423
 210  -1309.449
 211  -1178.644
 212  -1624.071
 213  -1789.562
 214  -1086.478
 215  -1458.982
 216  -1289.561
 217  -1041.966
 218  -1032.331
 219  -1238.779
 220  -1490.614
 221  -1543.692
 222  -1772.251
 223  -1663.919
 224  -1719.494
 225  -2368.054
 226  -2169.984
 227  -1864.858
 228  -1775.759
 229  -1868.102
 230  -1605.942
 231  -1805.075
 232  -2041.693
 233  -2563.025
 234  -2151.144
 235  -2688.387
 236  -1642.831
 237  -1557.242
 238  -1528.135
 239  -1238.221
 240  -1699.085
 241  -1571.855
 242  -1928.077
 243  -1594.127
 244  -2187.977
 245  -2581.044
 246  -1900.97
 247  -2247.438
 248  -2763.044
 249  -2517.448
 250  -2257.147
 251  -2349.396
 252  -2446.314
 253  -1593.145
 254  -1069.545
 255  -1056.315
