# Input file       =  1208325940.125452_cleaned.dat
# Candidate        =  PSR_0332+5434
# Telescope        =  AR
# Epoch_topo       =  58229.254156544586
# Epoch_bary       =  N/A
# T_sample         =  0.002
# Data Folded      =  7208960
# Data Avg         =  0.140275432885921
# Data StdDev      =  4.87597427266863 
# Profile Bins     =  512
# Profile Avg      =  1974.95116775294 
# Profile StdDev   =  578.579088385319 
# Reduced chi-sqr  =  2.247
# Prob(Noise)      <  5.58e-51   (~15.0 sigma)
# P_topo (ms)      =  714.555147137579  +/- 1.8e-05
# P'_topo (s/s)    =  -0                +/- 9.64e-12
# P''_topo (s/s^2) =  0                 +/- 4.33e-15
# P_bary (ms)      =  N/A
# P'_bary (s/s)    =  N/A
# P''_bary (s/s^2) =  N/A
# P_orb (s)        =  N/A
# asin(i)/c (s)    =  N/A
# eccentricity     =  N/A
# w (rad)          =  N/A
# T_peri           =  N/A
######################################################
   0  2338.602
   1  1884.969
   2  2596.792
   3  2611.897
   4  1595.41
   5  1690.538
   6  1393.735
   7  1692.218
   8  2262.003
   9  2768.679
  10  2945.972
  11  2907.316
  12  2164.84
  13  1734.369
  14  1864.987
  15  2173.341
  16  2393.384
  17  2328.908
  18  2420.572
  19  2380.281
  20  1914.61
  21  1671.958
  22  1913.068
  23  1804.177
  24  1980.066
  25  2629.257
  26  2880.658
  27  2827.418
  28  2473.766
  29  2047.277
  30  1712.129
  31  1753.324
  32  2232.442
  33  2604.447
  34  1950.342
  35  2071.526
  36  1932.356
  37  1382.106
  38  999.8555
  39  995.9058
  40  1707.83
  41  2412.463
  42  2775.606
  43  2653.04
  44  1932.471
  45  1351.231
  46  872.3548
  47  1412.811
  48  2102.502
  49  2493.722
  50  2520.063
  51  2185.275
  52  1569.066
  53  646.6255
  54  445.8128
  55  690.0951
  56  943.2377
  57  1671.091
  58  2347.742
  59  2684.744
  60  2055.511
  61  1436.279
  62  1142.137
  63  693.2546
  64  1039.095
  65  1678.434
  66  2054.415
  67  2341.08
  68  2140.374
  69  1861.759
  70  1098.053
  71  665.0503
  72  462.9036
  73  950.4305
  74  1871.001
  75  2247.726
  76  2455.054
  77  2197.348
  78  1804.953
  79  1191.465
  80  1192.717
  81  1882.536
  82  2369.802
  83  2011.874
  84  2235.823
  85  2609.476
  86  1973.999
  87  1630.13
  88  931.2883
  89  1143.764
  90  1470.095
  91  1832.372
  92  2633.873
  93  2763.107
  94  2282.271
  95  1584.074
  96  1713.781
  97  1866.23
  98  2051.927
  99  2115.855
 100  2566.07
 101  2510.957
 102  2278.612
 103  1516.218
 104  768.6537
 105  1139.641
 106  1426.68
 107  2028.743
 108  2323.729
 109  2170.07
 110  1992.447
 111  1588.201
 112  1662.037
 113  1741.144
 114  2168.635
 115  2383.28
 116  2528.529
 117  2049.095
 118  1770.856
 119  1313.942
 120  853.6619
 121  1420.186
 122  1995.64
 123  2274.029
 124  2333.977
 125  2578.6
 126  2227.63
 127  1367.753
 128  1388.803
 129  1802.724
 130  2286.983
 131  2953.075
 132  2881.221
 133  2730.442
 134  2215.147
 135  1721.801
 136  930.3348
 137  516.6593
 138  829.2278
 139  1639.903
 140  2461.51
 141  2610.906
 142  2388.425
 143  2214.99
 144  1820.335
 145  1629.185
 146  1589.456
 147  1691.975
 148  2064.949
 149  2295.962
 150  2237.66
 151  2379.033
 152  2034.655
 153  1382.515
 154  866.812
 155  686.57
 156  1675.671
 157  2434.194
 158  2721.716
 159  3297.894
 160  2425.224
 161  1826.18
 162  1006.055
 163  1427.745
 164  2043.802
 165  2578.608
 166  2581.032
 167  2300.675
 168  2143.736
 169  1689.761
 170  1200.084
 171  1173.032
 172  1603.097
 173  2028.519
 174  2516.006
 175  3406.993
 176  3146.219
 177  2288.148
 178  1343.296
 179  1564.562
 180  1929.261
 181  2422.718
 182  2633.326
 183  2656.255
 184  2702.458
 185  2175.397
 186  1514.241
 187  1532.344
 188  1656.645
 189  1770.121
 190  2254.615
 191  2722.167
 192  2320.482
 193  2256.924
 194  2171.948
 195  2066.039
 196  1821.682
 197  2634.09
 198  2742.999
 199  2458.183
 200  2217.977
 201  1878.268
 202  1597.901
 203  1676.436
 204  1767.458
 205  2282.573
 206  2603.608
 207  2683.194
 208  2145.187
 209  2027.363
 210  1782.763
 211  1530.358
 212  1662.737
 213  2161.739
 214  2847.683
 215  2893.341
 216  2756.57
 217  2249.503
 218  1118.367
 219  704.228
 220  1003.072
 221  1701.785
 222  2192.504
 223  2997.698
 224  2577.923
 225  2671.693
 226  2622.327
 227  1957.647
 228  1532.077
 229  1568.523
 230  2188.774
 231  3181.448
 232  3113.578
 233  2549.753
 234  2035.87
 235  1559.421
 236  1592.039
 237  1427.442
 238  1442.874
 239  2351.11
 240  2826.009
 241  2819.684
 242  2921.711
 243  2506.286
 244  1311.538
 245  1081.497
 246  1610.195
 247  1974.01
 248  2309.564
 249  2794.189
 250  2779.833
 251  2515.912
 252  1513.192
 253  1163.465
 254  1233.334
 255  1971.8
 256  2469.228
 257  2761.863
 258  2913.345
 259  2404.891
 260  1939.609
 261  1454.597
 262  1611.539
 263  2055.293
 264  2563.119
 265  2731.877
 266  2253.874
 267  2131.868
 268  1342.965
 269  1221.788
 270  1287.639
 271  1535.643
 272  2118.22
 273  2018.312
 274  1908.532
 275  2023.788
 276  2118.442
 277  1687.845
 278  1905.257
 279  2075.331
 280  2458.084
 281  2463.586
 282  2118.969
 283  1947.583
 284  1373.53
 285  1192.08
 286  1114.264
 287  1351.522
 288  1874.486
 289  1977.164
 290  2013.426
 291  1447.058
 292  1664.093
 293  1488.354
 294  1632.971
 295  2200.857
 296  2644.751
 297  3197.741
 298  3334.899
 299  3768.396
 300  4152.173
 301  3836.603
 302  3144.53
 303  2865.43
 304  2874.607
 305  2668.456
 306  2727.167
 307  2552.775
 308  2321.237
 309  1673.958
 310  714.934
 311  951.0506
 312  1449.722
 313  2914.174
 314  3120.708
 315  3385.983
 316  3113.678
 317  1858.459
 318  1385.034
 319  601.8151
 320  971.6174
 321  1707.435
 322  2827.423
 323  3055.604
 324  2670.009
 325  2059.115
 326  1213.074
 327  1254.219
 328  1130.937
 329  1807.723
 330  2467.557
 331  2873.217
 332  3043.195
 333  2203.264
 334  1693.894
 335  1022.732
 336  1146.6
 337  1581.687
 338  2212.113
 339  2591.32
 340  2593.259
 341  2596.406
 342  1832.668
 343  1537.655
 344  1632.324
 345  1880.239
 346  2216.58
 347  2556.908
 348  2490.579
 349  2096.29
 350  1908.797
 351  1132.824
 352  1621.619
 353  1899.405
 354  2009.07
 355  2169.338
 356  2527.209
 357  2819.079
 358  2220.403
 359  1796.37
 360  1749.138
 361  1926.166
 362  2115.7
 363  2379.746
 364  2087.39
 365  1526.745
 366  2038.192
 367  1226.452
 368  963.8616
 369  1171.291
 370  1546.978
 371  2059.485
 372  2519.838
 373  2381.709
 374  2261.462
 375  2103.335
 376  1423.909
 377  1165.673
 378  1498.384
 379  2209.238
 380  2170.404
 381  2110.565
 382  2047.454
 383  1585.31
 384  1059.275
 385  844.2507
 386  1181.559
 387  1868.446
 388  2084.905
 389  2600.511
 390  2511.94
 391  1962.651
 392  1433.606
 393  1056.951
 394  1018.415
 395  1095.702
 396  2003.797
 397  2489.584
 398  2053.146
 399  1570.098
 400  816.2543
 401  400.3383
 402  578.7191
 403  1211.033
 404  1971.219
 405  2880.958
 406  2477.641
 407  1784.613
 408  1682.881
 409  1341.671
 410  1137.621
 411  1353.472
 412  2125.578
 413  2119.663
 414  2243.857
 415  2012.192
 416  1448.965
 417  810.3922
 418  250.1879
 419  826.8287
 420  1378.02
 421  2082.759
 422  2614.088
 423  2378.634
 424  2320.404
 425  1498.739
 426  1153.683
 427  1536.21
 428  1862.727
 429  2006.795
 430  2110.732
 431  2524.499
 432  2218.518
 433  1921.654
 434  1549.379
 435  1291.661
 436  1345.242
 437  1728.015
 438  2354.165
 439  2339.976
 440  2400.695
 441  1876.469
 442  1572.676
 443  1795.274
 444  2093.278
 445  2322.932
 446  2292.093
 447  2172.013
 448  2167.742
 449  2126.872
 450  1454.657
 451  1492.935
 452  2037.763
 453  2393.074
 454  2257.775
 455  2413.276
 456  2597.663
 457  2283.938
 458  2303.49
 459  1809.368
 460  2090.956
 461  2547.224
 462  2836.173
 463  2616.565
 464  2677.097
 465  2763.37
 466  2049.712
 467  1413.467
 468  1270.492
 469  1424.569
 470  2572.737
 471  3014.159
 472  2958.127
 473  2288.031
 474  1907.112
 475  1624.76
 476  1617.3
 477  1706.413
 478  2214.995
 479  2885.152
 480  2775.564
 481  2429.736
 482  1689.68
 483  909.8565
 484  775.272
 485  1166.578
 486  1726.614
 487  2186.534
 488  2745.295
 489  2408.432
 490  1814.944
 491  1532.821
 492  1152.721
 493  1354.16
 494  2176.969
 495  2980.051
 496  3095.155
 497  2612.549
 498  2060.314
 499  1440.744
 500  849.5938
 501  500.3895
 502  1224.396
 503  2059.979
 504  2714.963
 505  3166.893
 506  3029.79
 507  2411.529
 508  1528.519
 509  1398.464
 510  1390.544
 511  2243.324
