# Input file       =  1208340608.107277-PSRB0329-2ms-sampling-dd.dat
# Candidate        =  PSR_0332+5434
# Telescope        =  AR
# Epoch_topo       =  58229.423924852745
# Epoch_bary       =  N/A
# T_sample         =  0.002
# Data Folded      =  7340032
# Data Avg         =  -1.16402151024479e-10
# Data StdDev      =  7.46620796527831 
# Profile Bins     =  512
# Profile Avg      =  1.58710567433116 
# Profile StdDev   =  893.951749903169 
# Reduced chi-sqr  =  0.594
# Prob(Noise)      <  1   (~0.0 sigma)
# P_topo (ms)      =  714.555028656848  +/- 0.000327
# P'_topo (s/s)    =  -0                +/- 1.72e-10
# P''_topo (s/s^2) =  0                 +/- 7.61e-14
# P_bary (ms)      =  N/A
# P'_bary (s/s)    =  N/A
# P''_bary (s/s^2) =  N/A
# P_orb (s)        =  N/A
# asin(i)/c (s)    =  N/A
# eccentricity     =  N/A
# w (rad)          =  N/A
# T_peri           =  N/A
######################################################
   0  120.2648
   1  140.8511
   2  -43.03934
   3  312.6273
   4  864.656
   5  559.7126
   6  591.2841
   7  157.8771
   8  172.6221
   9  70.23097
  10  -153.7188
  11  44.25789
  12  65.26143
  13  -155.8775
  14  106.8788
  15  -73.64653
  16  -682.4911
  17  -545.7878
  18  -174.0996
  19  -187.474
  20  -391.1292
  21  -385.2792
  22  -215.4726
  23  145.5761
  24  -207.9545
  25  -658.7806
  26  -199.4172
  27  -183.5144
  28  -590.6712
  29  -368.5071
  30  -472.3857
  31  -668.7054
  32  -741.9438
  33  -468.7852
  34  -541.2358
  35  -632.6452
  36  -549.1401
  37  -286.753
  38  -326.7507
  39  -377.5587
  40  -405.6997
  41  -279.1984
  42  -452.1887
  43  -586.2369
  44  -470.7748
  45  -483.816
  46  -691.2355
  47  -760.527
  48  -1086.153
  49  -667.9845
  50  -442.4551
  51  -103.1546
  52  15.32007
  53  193.0767
  54  346.6432
  55  372.1451
  56  605.1284
  57  508.0647
  58  117.175
  59  -105.7792
  60  276.2194
  61  46.79589
  62  -218.4097
  63  -494.5968
  64  -830.1163
  65  -753.8521
  66  -502.509
  67  -389.8745
  68  -321.748
  69  -106.4274
  70  -64.13149
  71  330.4058
  72  144.6069
  73  47.07687
  74  -55.50045
  75  -62.03489
  76  -133.9895
  77  108.3199
  78  119.5069
  79  78.51616
  80  -161.8351
  81  163.5722
  82  113.8689
  83  259.8492
  84  190.7018
  85  -85.72738
  86  33.55723
  87  65.7134
  88  -214.1088
  89  17.18083
  90  -411.4619
  91  -846.5784
  92  -884.1465
  93  -957.484
  94  -962.7669
  95  -927.2066
  96  -767.4449
  97  -301.7516
  98  -238.7107
  99  -510.9257
 100  -500.1019
 101  -394.806
 102  -195.2183
 103  -601.1116
 104  -109.0447
 105  -516.1746
 106  -572.1998
 107  -636.5328
 108  -484.7318
 109  -855.5065
 110  -844.7009
 111  -944.3378
 112  -862.9879
 113  -690.4241
 114  -195.5396
 115  -324.2519
 116  -178.8399
 117  -220.9513
 118  -199.6991
 119  -460.6819
 120  -316.9328
 121  -165.1655
 122  -285.7129
 123  -354.053
 124  -524.7769
 125  257.1854
 126  555.4229
 127  -108.5026
 128  -466.8993
 129  -256.3599
 130  -181.8524
 131  -186.9085
 132  -203.3607
 133  -82.25479
 134  -433.9481
 135  -202.9706
 136  -75.13883
 137  -532.1716
 138  -427.9274
 139  -636.6887
 140  -359.541
 141  -336.6845
 142  -561.1308
 143  -473.9343
 144  -399.8105
 145  -675.196
 146  -520.4658
 147  -455.3602
 148  -660.1822
 149  -77.65598
 150  -325.3209
 151  -689.1775
 152  -732.2642
 153  -766.9843
 154  -548.0059
 155  -352.4007
 156  -177.2868
 157  -72.79567
 158  -79.06294
 159  90.39955
 160  525.7147
 161  455.7142
 162  197.7077
 163  3.992662
 164  327.8602
 165  976.5188
 166  1018.847
 167  468.771
 168  194.4996
 169  109.1964
 170  140.8422
 171  145.9274
 172  224.3151
 173  186.6652
 174  382.3839
 175  426.2841
 176  18.48394
 177  -35.93946
 178  -52.64565
 179  472.4753
 180  294.7195
 181  -8.731571
 182  74.48409
 183  230.2918
 184  -43.7138
 185  -163.6385
 186  -8.611175
 187  -56.64805
 188  -149.0863
 189  75.7509
 190  116.2913
 191  -140.9184
 192  -165.5372
 193  143.8854
 194  -218.6779
 195  2.693617
 196  77.76772
 197  67.82597
 198  238.5904
 199  42.21401
 200  131.0261
 201  8.798853
 202  -119.4513
 203  -42.84808
 204  -73.82059
 205  -50.44345
 206  194.3389
 207  95.90766
 208  50.9444
 209  -76.71252
 210  -420.1876
 211  -528.1716
 212  -376.7846
 213  -740.6204
 214  -515.8693
 215  -744.5676
 216  -611.746
 217  -1146.835
 218  -1158.014
 219  -1023.868
 220  -787.7758
 221  -392.387
 222  -163.0894
 223  -601.8317
 224  -941.6336
 225  -688.4655
 226  -552.2031
 227  -451.6107
 228  -267.2132
 229  -434.4928
 230  -188.3309
 231  -378.1449
 232  -508.4492
 233  -189.5592
 234  -262.9959
 235  -163.5147
 236  -191.156
 237  124.9581
 238  70.13931
 239  309.2294
 240  160.1465
 241  274.6463
 242  63.30788
 243  235.737
 244  597.762
 245  618.5329
 246  501.9519
 247  317.5047
 248  612.0744
 249  668.093
 250  310.5942
 251  612.0121
 252  883.7053
 253  602.9073
 254  588.1249
 255  756.0397
 256  1000.411
 257  1073.159
 258  1069.555
 259  852.4578
 260  842.4905
 261  969.2431
 262  480.0859
 263  409.1466
 264  636.0229
 265  705.2386
 266  340.6352
 267  739.8008
 268  274.7194
 269  503.2921
 270  882.6218
 271  912.2884
 272  916.7318
 273  774.6313
 274  588.8585
 275  570.6772
 276  348.0724
 277  309.2268
 278  180.1939
 279  254.9757
 280  234.9485
 281  223.7485
 282  240.2153
 283  418.9537
 284  73.49809
 285  -14.4634
 286  74.71444
 287  -7.171566
 288  170.8137
 289  882.5182
 290  682.0906
 291  596.2616
 292  272.7951
 293  281.9331
 294  142.5002
 295  -94.92793
 296  551.4187
 297  680.1878
 298  1172.953
 299  654.3342
 300  560.4523
 301  445.9505
 302  417.2991
 303  370.1013
 304  165.1376
 305  83.91681
 306  208.5661
 307  10.33781
 308  -200.0667
 309  -183.6853
 310  -56.52365
 311  118.9182
 312  -271.2029
 313  -415.9631
 314  -165.717
 315  384.6885
 316  407.7136
 317  528.9493
 318  1012.412
 319  1697.699
 320  2145.218
 321  2412.995
 322  2215.708
 323  1735.092
 324  998.448
 325  41.82735
 326  -169.1421
 327  99.01408
 328  173.6291
 329  76.35857
 330  105.9929
 331  625.7756
 332  459.3377
 333  538.3913
 334  912.6398
 335  962.3375
 336  880.3705
 337  1135.298
 338  1373.962
 339  898.8665
 340  703.175
 341  511.38
 342  376.291
 343  576.6884
 344  444.1686
 345  644.2728
 346  389.2073
 347  498.0869
 348  -38.66052
 349  45.88134
 350  400.854
 351  -28.95643
 352  387.7278
 353  523.236
 354  315.6254
 355  48.69135
 356  270.2317
 357  114.8643
 358  232.2757
 359  139.4482
 360  276.6308
 361  319.4142
 362  686.9195
 363  458.7341
 364  312.8061
 365  333.3521
 366  371.8039
 367  271.2436
 368  354.3175
 369  488.6202
 370  304.0949
 371  -121.0558
 372  -101.8564
 373  53.20185
 374  252.9803
 375  -255.011
 376  -238.186
 377  136.693
 378  -50.99736
 379  104.3576
 380  428.8304
 381  478.8008
 382  656.1646
 383  789.816
 384  383.7579
 385  -156.2137
 386  -461.4377
 387  -504.4071
 388  -597.1442
 389  -291.3364
 390  116.8091
 391  -50.95835
 392  -276.8226
 393  -280.5018
 394  -607.3365
 395  -525.9346
 396  -571.8586
 397  -233.5839
 398  224.0371
 399  144.1529
 400  -245.4634
 401  -994.4188
 402  -677.2239
 403  -692.3705
 404  -468.9539
 405  -455.4821
 406  -508.8108
 407  -59.15434
 408  262.0497
 409  128.3367
 410  -233.1206
 411  -72.78091
 412  168.172
 413  149.8687
 414  43.40822
 415  189.4759
 416  -121.365
 417  -418.4899
 418  -242.4447
 419  79.05176
 420  132.6194
 421  167.1939
 422  115.2613
 423  227.4777
 424  207.8551
 425  515.701
 426  513.1725
 427  430.1945
 428  385.6038
 429  652.0265
 430  488.5508
 431  510.044
 432  483.7868
 433  122.0356
 434  -228.5439
 435  -323.673
 436  -343.5787
 437  -25.39227
 438  -99.81503
 439  -90.35583
 440  -264.4992
 441  -101.9059
 442  -349.0922
 443  -241.5301
 444  -19.46339
 445  -65.19576
 446  -426.5103
 447  -180.7541
 448  -231.4189
 449  -130.1015
 450  -654.1302
 451  -792.5096
 452  -578.7396
 453  -452.4839
 454  -536.2424
 455  -495.5366
 456  -536.9139
 457  -393.4512
 458  -756.9752
 459  -562.4816
 460  -189.9033
 461  -481.2474
 462  -496.7144
 463  -550.4567
 464  -592.4512
 465  -510.8763
 466  -727.957
 467  -539.0781
 468  -400.598
 469  -294.4397
 470  -187.5063
 471  -498.58
 472  -315.7708
 473  -71.23607
 474  -232.1031
 475  -73.12435
 476  -39.02931
 477  -361.4124
 478  -290.6404
 479  -490.1466
 480  -494.9862
 481  -382.8993
 482  -300.6866
 483  -189.556
 484  -320.9809
 485  -192.802
 486  -30.04582
 487  26.57073
 488  -52.49918
 489  -18.5476
 490  -160.2572
 491  -426.3124
 492  -201.3954
 493  -63.79221
 494  -133.0619
 495  -311.9995
 496  -279.6326
 497  -53.00058
 498  293.3614
 499  136.8434
 500  360.5125
 501  304.9981
 502  442.3581
 503  827.3047
 504  750.1357
 505  785.91
 506  819.2954
 507  686.2746
 508  654.2458
 509  597.2072
 510  625.9679
 511  279.7069
