# Input file       =  1208082048.119238_cleaned.dat
# Candidate        =  PSR_0332+5434
# Telescope        =  AR
# Epoch_topo       =  58226.431332398584
# Epoch_bary       =  N/A
# T_sample         =  0.002
# Data Folded      =  7340032
# Data Avg         =  0.245984287178933
# Data StdDev      =  5.60547067113564 
# Profile Bins     =  512
# Profile Avg      =  3526.65611982034 
# Profile StdDev   =  671.160023775979 
# Reduced chi-sqr  =  1.814
# Prob(Noise)      <  1.67e-26   (~10.6 sigma)
# P_topo (ms)      =  714.557475931464  +/- 0.000184
# P'_topo (s/s)    =  -0                +/- 9.72e-11
# P''_topo (s/s^2) =  0                 +/- 4.29e-14
# P_bary (ms)      =  N/A
# P'_bary (s/s)    =  N/A
# P''_bary (s/s^2) =  N/A
# P_orb (s)        =  N/A
# asin(i)/c (s)    =  N/A
# eccentricity     =  N/A
# w (rad)          =  N/A
# T_peri           =  N/A
######################################################
   0  4112.56
   1  3986.339
   2  3445.476
   3  3702.519
   4  4134.829
   5  3750.322
   6  3695.83
   7  3860.309
   8  3562.938
   9  3043.092
  10  2737.963
  11  3066.282
  12  3220.078
  13  3099.234
  14  3027.55
  15  3003.432
  16  3130.584
  17  2893.731
  18  2929.879
  19  3208.236
  20  3370.637
  21  2738.338
  22  2443.999
  23  2709.05
  24  2938.979
  25  2866.108
  26  2789.962
  27  2890.821
  28  3114.982
  29  2845.656
  30  2674.371
  31  2640.193
  32  2704.146
  33  3052.778
  34  3492.475
  35  3611.914
  36  3774.874
  37  4077.593
  38  3906.086
  39  3760.985
  40  3933.292
  41  3845.127
  42  4228.093
  43  4085.88
  44  4223.499
  45  4201.062
  46  3904.434
  47  4138.056
  48  4571.576
  49  4176.306
  50  4207.426
  51  4164.285
  52  4000.026
  53  3948.112
  54  3776.592
  55  3721.167
  56  3378.962
  57  3620.266
  58  3820.137
  59  3438.443
  60  3075.15
  61  2901.839
  62  3010.675
  63  3096.622
  64  3010.458
  65  3304.895
  66  3310.832
  67  3230.122
  68  3097.793
  69  2984.906
  70  2916.17
  71  2783.751
  72  3077.464
  73  3033.087
  74  2720.406
  75  3070.49
  76  3250.144
  77  3238.023
  78  2882.98
  79  2537.936
  80  2576.791
  81  2699.415
  82  2643.331
  83  3108.998
  84  3247.288
  85  2743.888
  86  2604.354
  87  2560.101
  88  2692.879
  89  2523.26
  90  2555.047
  91  2919.219
  92  2749.585
  93  2970.812
  94  2938.567
  95  2862.599
  96  2629.123
  97  3091.677
  98  3275.889
  99  3042.845
 100  2937.609
 101  3210.03
 102  3524.241
 103  3914.086
 104  3621.237
 105  3841.626
 106  3829.738
 107  3735.426
 108  3952.271
 109  4120.518
 110  4095.465
 111  4165.525
 112  4253.893
 113  3941.946
 114  4133.753
 115  4290.166
 116  4470.752
 117  4389.636
 118  4158.088
 119  3927.426
 120  3690.985
 121  3816.709
 122  3968.118
 123  4095.689
 124  3972.697
 125  3670.409
 126  3782.373
 127  3548.494
 128  3139.353
 129  3196.534
 130  3420.278
 131  3513.32
 132  3630.897
 133  3918.018
 134  3449.356
 135  3212.635
 136  3455.349
 137  3768.041
 138  3343.617
 139  3104.927
 140  3066.561
 141  2975.609
 142  2539.165
 143  2627.836
 144  2476.171
 145  2586.618
 146  2191.628
 147  2299.701
 148  2451.758
 149  2211.33
 150  2194.519
 151  2204.147
 152  2191.286
 153  2446.57
 154  2400.891
 155  2358.376
 156  2127.419
 157  2179.519
 158  2205.82
 159  2452.346
 160  2331.947
 161  2370.626
 162  2267.846
 163  2417.875
 164  2271.795
 165  2096.968
 166  2427.143
 167  2811.953
 168  2664.074
 169  2873.35
 170  2671.31
 171  2809.305
 172  3122.469
 173  2984.286
 174  2673.354
 175  2678.14
 176  2761.719
 177  2559.747
 178  2709.215
 179  3192.038
 180  3393.348
 181  3581.841
 182  3423.68
 183  3582.464
 184  3469.664
 185  3312.059
 186  3435.079
 187  3722.309
 188  3947.378
 189  3950.207
 190  3977.566
 191  3666.577
 192  3756.064
 193  3664.308
 194  3813.163
 195  3953.024
 196  4143.227
 197  4121.185
 198  4099.439
 199  4072.709
 200  4352.994
 201  4335.816
 202  4233.859
 203  4178.048
 204  4351.387
 205  4207.239
 206  4951.666
 207  5359.241
 208  5794.221
 209  5363.576
 210  4566.044
 211  4202.461
 212  4181.49
 213  4064.342
 214  3768.695
 215  3609.665
 216  3801.193
 217  3556.555
 218  3629.636
 219  4003.958
 220  3530.048
 221  3579.615
 222  3491.794
 223  3436.354
 224  3203.678
 225  3199.635
 226  3279.799
 227  2741.645
 228  2814.388
 229  2873.507
 230  2857.949
 231  2648.59
 232  2324.57
 233  2317.636
 234  2606.555
 235  2280.255
 236  2427.86
 237  2031.975
 238  2362.459
 239  2293.277
 240  2424.054
 241  2676.013
 242  2108.516
 243  2367.537
 244  2708.516
 245  2734.114
 246  2707.14
 247  3155.438
 248  3279.909
 249  3225.248
 250  3194.984
 251  3219.586
 252  3115.616
 253  2830.67
 254  3171.823
 255  3480.209
 256  3707.592
 257  3650.007
 258  3582.125
 259  3836.586
 260  4416.367
 261  4364.452
 262  4161.964
 263  4217.535
 264  4301.208
 265  4178.882
 266  4030.021
 267  4393.799
 268  4480.28
 269  4464.67
 270  4505
 271  4507.87
 272  4435.14
 273  4080.791
 274  4345.351
 275  4728.669
 276  4380.687
 277  4309.345
 278  4334.688
 279  3675.816
 280  3901.981
 281  3856.298
 282  4011.727
 283  4076.21
 284  3715.251
 285  3672.36
 286  3319.103
 287  3375.781
 288  3415.084
 289  3862.997
 290  4164.064
 291  3785.742
 292  3675.213
 293  3808.981
 294  3567.044
 295  3467.731
 296  3540.862
 297  3332.556
 298  3374.017
 299  3365.799
 300  3231.59
 301  3051.723
 302  3088.099
 303  2832.875
 304  2978.625
 305  3215.519
 306  3119.923
 307  3420.125
 308  3396.939
 309  3527.624
 310  3313.502
 311  3215.884
 312  2995.6
 313  2734.247
 314  2986.685
 315  2945.556
 316  3114.344
 317  3130.75
 318  2803.454
 319  2428.235
 320  2636.607
 321  3068.06
 322  3216.238
 323  3228.775
 324  3232.554
 325  3535.984
 326  3467.088
 327  3612.076
 328  3552.18
 329  3566.588
 330  3515.124
 331  3706.027
 332  3847.034
 333  3996.573
 334  3933.474
 335  3895.428
 336  4050.47
 337  3822.742
 338  4315.292
 339  4345.904
 340  4273.413
 341  4332.654
 342  3926.634
 343  3920.305
 344  4227.562
 345  4031.135
 346  3965.137
 347  3917.672
 348  3693.677
 349  3558.779
 350  3641.682
 351  3737.053
 352  3261.175
 353  3301.813
 354  3560.703
 355  3574.606
 356  3361.474
 357  3100.026
 358  3149.773
 359  3121.515
 360  3187.376
 361  3004.353
 362  2939.079
 363  3133.615
 364  3186.676
 365  2760.206
 366  3091.936
 367  3149.833
 368  3283.26
 369  3142.961
 370  3140.196
 371  3265.665
 372  3271.209
 373  3067.788
 374  2725.519
 375  2824.302
 376  3354.833
 377  3180.748
 378  3302.113
 379  3387.289
 380  2976.487
 381  2868.767
 382  3271.678
 383  3419.182
 384  3214.45
 385  3202.827
 386  3067.878
 387  3261.948
 388  3458.587
 389  3435.528
 390  3493.836
 391  3458.236
 392  3494.875
 393  3694.468
 394  3787.737
 395  3907.46
 396  4324.708
 397  4204.538
 398  3825.652
 399  3873.18
 400  4045.865
 401  4629.757
 402  4514.653
 403  4600.641
 404  4472.091
 405  4069.927
 406  4092.593
 407  4398.048
 408  4446.378
 409  4558.799
 410  4775.491
 411  4563.044
 412  4494.461
 413  4594.614
 414  4721.039
 415  4122.875
 416  4037.135
 417  4363.699
 418  4088.526
 419  3699.667
 420  3771.223
 421  3461.656
 422  3453.283
 423  3851.95
 424  3662.307
 425  3917.373
 426  4160.227
 427  4114.755
 428  3846.582
 429  3996.905
 430  3968.162
 431  3570.537
 432  3454.154
 433  3616.996
 434  3864.609
 435  4012.942
 436  3871.424
 437  3752.875
 438  3657.761
 439  3550.489
 440  3642.903
 441  3566.1
 442  3550.96
 443  3714.985
 444  3530.977
 445  3384.95
 446  3636.239
 447  3385.188
 448  3406.115
 449  3352.32
 450  3335.354
 451  3004.408
 452  2806.315
 453  2733.909
 454  3234.467
 455  3442.655
 456  3270.228
 457  3167.514
 458  3139.53
 459  3280.116
 460  3721.599
 461  3965.367
 462  4006.373
 463  3757.633
 464  3721.125
 465  3709.469
 466  3510.317
 467  3696.984
 468  3703.604
 469  3518.802
 470  3566.657
 471  3818.801
 472  4095.105
 473  4215.021
 474  4302.134
 475  4237.297
 476  4413.662
 477  3993.601
 478  4321.302
 479  4902.283
 480  4904.02
 481  5050.801
 482  4915.889
 483  5045.033
 484  5070.025
 485  4799.272
 486  4846.095
 487  4829.368
 488  4934.644
 489  4736.54
 490  4795.405
 491  4492.136
 492  4498.659
 493  4201.026
 494  4342.376
 495  4771.845
 496  4456.16
 497  4251.71
 498  4300.908
 499  3882.489
 500  3816.329
 501  3771.517
 502  4140.469
 503  4225.767
 504  3996.303
 505  3914.067
 506  3787.805
 507  3797.085
 508  3951.844
 509  3733.291
 510  3986.949
 511  4284.009
