# Input file       =  1208441724.10273_cleaned.dat
# Candidate        =  PSR_0332+5434
# Telescope        =  AR
# Epoch_topo       =  58230.594248874193
# Epoch_bary       =  N/A
# T_sample         =  0.002
# Data Folded      =  7340032
# Data Avg         =  0.0304728074247913
# Data StdDev      =  1.0000727992353  
# Profile Bins     =  512
# Profile Avg      =  436.870923467496 
# Profile StdDev   =  119.741752850254 
# Reduced chi-sqr  =  1.562
# Prob(Noise)      <  5.78e-15   (~7.7 sigma)
# P_topo (ms)      =  714.554389359222  +/- 0.0003
# P'_topo (s/s)    =  -0                +/- 1.59e-10
# P''_topo (s/s^2) =  0                 +/- 7e-14
# P_bary (ms)      =  N/A
# P'_bary (s/s)    =  N/A
# P''_bary (s/s^2) =  N/A
# P_orb (s)        =  N/A
# asin(i)/c (s)    =  N/A
# eccentricity     =  N/A
# w (rad)          =  N/A
# T_peri           =  N/A
######################################################
   0  1056.563
   1  1082.466
   2  891.9332
   3  576.2935
   4  385.9496
   5  361.0104
   6  412.6302
   7  416.0234
   8  385.5707
   9  439.3202
  10  299.5687
  11  266.9377
  12  333.0556
  13  329.3279
  14  328.225
  15  224.0734
  16  294.1951
  17  274.2669
  18  234.0081
  19  203.4182
  20  261.1306
  21  240.5296
  22  268.0596
  23  368.9332
  24  338.0648
  25  352.2242
  26  216.6502
  27  300.9796
  28  467.8895
  29  383.7703
  30  517.765
  31  502.6613
  32  513.9484
  33  534.9916
  34  306.9537
  35  356.842
  36  270.4684
  37  308.9854
  38  464.4255
  39  465.9526
  40  491.6302
  41  473.4743
  42  419.3278
  43  488.553
  44  548.6307
  45  538.407
  46  447.6289
  47  421.3521
  48  454.1438
  49  518.7
  50  551.2717
  51  500.7204
  52  479.3982
  53  541.4996
  54  451.3776
  55  472.5956
  56  542.1406
  57  479.0591
  58  499.0363
  59  433.308
  60  435.5055
  61  414.6378
  62  500.8243
  63  523.6276
  64  445.9147
  65  350.9724
  66  335.6138
  67  346.7094
  68  372.4478
  69  348.0656
  70  311.0773
  71  209.7266
  72  274.9805
  73  241.7878
  74  161.5813
  75  376.83
  76  398.3752
  77  480.7898
  78  448.5228
  79  452.593
  80  366.3476
  81  363.955
  82  414.1299
  83  464.4915
  84  351.9276
  85  238.4745
  86  268.6048
  87  277.4245
  88  342.1787
  89  331.5966
  90  326.4998
  91  317.0997
  92  301.8261
  93  361.5504
  94  367.5427
  95  321.5227
  96  373.9032
  97  386.8737
  98  446.6301
  99  511.1859
 100  509.0231
 101  501.2697
 102  484.8777
 103  417.7112
 104  483.1181
 105  545.3785
 106  455.5512
 107  456.2676
 108  485.169
 109  541.7228
 110  542.431
 111  484.8303
 112  494.0862
 113  515.155
 114  521.9874
 115  578.0831
 116  559.5469
 117  461.1096
 118  464.8775
 119  517.4063
 120  558.5106
 121  446.8542
 122  467.1389
 123  560.5731
 124  531.1429
 125  569.3403
 126  565.3151
 127  457.2095
 128  400.9543
 129  423.731
 130  474.9932
 131  542.6035
 132  531.6076
 133  471.7984
 134  470.6285
 135  512.9736
 136  362.5534
 137  361.3563
 138  357.6969
 139  398.0103
 140  532.7024
 141  556.3158
 142  457.0113
 143  526.9835
 144  410.3643
 145  422.331
 146  413.0009
 147  347.7101
 148  491.4775
 149  460.176
 150  470.1416
 151  452.5293
 152  328.277
 153  427.7911
 154  473.2222
 155  397.8053
 156  407.1497
 157  386.2452
 158  503.9647
 159  533.9824
 160  406.8166
 161  286.0496
 162  252.1652
 163  368.1703
 164  368.1142
 165  402.1121
 166  476.6071
 167  602.8722
 168  608.1158
 169  524.7623
 170  618.6874
 171  462.6073
 172  383.3702
 173  378.4704
 174  330.059
 175  274.2197
 176  361.8168
 177  498.9535
 178  486.6718
 179  506.7259
 180  490.6506
 181  507.2946
 182  535.5687
 183  385.265
 184  407.0667
 185  443.4725
 186  440.0934
 187  366.4106
 188  425.3206
 189  392.3684
 190  507.6783
 191  402.3124
 192  399.4299
 193  497.7306
 194  481.2945
 195  517.1887
 196  511.3893
 197  424.364
 198  471.8869
 199  487.7013
 200  616.1089
 201  565.621
 202  419.7677
 203  439.0331
 204  521.1808
 205  528.0255
 206  419.0258
 207  291.0149
 208  297.723
 209  321.5792
 210  435.0808
 211  462.1488
 212  485.2119
 213  471.8717
 214  347.6076
 215  355.0513
 216  378.2912
 217  493.0736
 218  544.4009
 219  430.0032
 220  515.8436
 221  489.7478
 222  304.3964
 223  330.9832
 224  380.9795
 225  321.6494
 226  233.9565
 227  314.816
 228  400.3965
 229  292.7209
 230  254.6474
 231  318.4638
 232  395.8031
 233  451.1422
 234  401.6262
 235  397.4671
 236  305.5247
 237  381.0882
 238  360.6303
 239  307.9811
 240  506.6271
 241  499.9382
 242  522.5232
 243  444.0027
 244  360.3234
 245  471.8889
 246  498.3395
 247  404.5352
 248  441.6161
 249  490.6923
 250  468.3557
 251  495.0606
 252  459.2469
 253  464.5507
 254  415.6234
 255  418.8838
 256  326.5331
 257  409.9254
 258  472.603
 259  554.3104
 260  549.4248
 261  513.4015
 262  466.1702
 263  557.6506
 264  410.5936
 265  398.6759
 266  393.9286
 267  355.8138
 268  396.5578
 269  442.0338
 270  389.6909
 271  441.6137
 272  386.0699
 273  487.832
 274  530.7212
 275  425.9578
 276  464.9975
 277  537.4344
 278  604.4296
 279  496.6888
 280  457.1292
 281  551.4119
 282  468.9119
 283  461.7872
 284  491.0433
 285  504.4196
 286  491.1183
 287  477.8389
 288  497.2082
 289  402.9977
 290  359.5815
 291  454.7173
 292  519.9829
 293  500.2297
 294  471.2639
 295  389.9283
 296  517.4453
 297  621.6022
 298  548.861
 299  449.4735
 300  485.9148
 301  529.9726
 302  342.5928
 303  368.463
 304  336.6295
 305  477.1334
 306  439.5875
 307  336.2295
 308  302.7387
 309  332.6927
 310  413.4565
 311  388.8939
 312  402.0963
 313  457.2096
 314  359.139
 315  338.0093
 316  410.8121
 317  414.6384
 318  549.2469
 319  508.4303
 320  427.3644
 321  486.142
 322  425.5575
 323  477.7129
 324  549.0632
 325  530.5679
 326  505.1399
 327  474.8058
 328  539.6614
 329  524.8583
 330  561.8129
 331  580.8058
 332  471.9688
 333  440.6626
 334  524.0496
 335  537.8747
 336  633.4756
 337  573.9154
 338  538.0162
 339  486.0176
 340  503.512
 341  568.0136
 342  456.9708
 343  571.0706
 344  518.6551
 345  504.8499
 346  594.41
 347  610.2498
 348  614.8381
 349  560.9981
 350  461.5179
 351  484.707
 352  380.706
 353  533.7393
 354  545.5881
 355  562.9533
 356  536.8108
 357  391.3002
 358  281.1524
 359  459.9779
 360  541.8467
 361  478.1941
 362  382.3728
 363  459.187
 364  496.8613
 365  468.3203
 366  414.9341
 367  470.3212
 368  494.7121
 369  408.1942
 370  434.1286
 371  558.8884
 372  406.4254
 373  354.2618
 374  302.4702
 375  413.6823
 376  387.2759
 377  339.2066
 378  347.8095
 379  367.2747
 380  372.4577
 381  321.3351
 382  362.6834
 383  349.0897
 384  336.6193
 385  244.5211
 386  431.9837
 387  411.4073
 388  408.3727
 389  513.8665
 390  507.1012
 391  443.1133
 392  402.584
 393  357.9643
 394  386.968
 395  414.1563
 396  536.1832
 397  467.1056
 398  631.4199
 399  548.2625
 400  484.1725
 401  504.1223
 402  589.7989
 403  526.435
 404  484.4776
 405  418.4364
 406  448.9996
 407  624.8498
 408  532.6458
 409  452.603
 410  562.3657
 411  593.3665
 412  500.5291
 413  487.1675
 414  488.5536
 415  521.0721
 416  523.817
 417  569.9453
 418  464.719
 419  340.8423
 420  451.1053
 421  313.9332
 422  360.8774
 423  597.2877
 424  470.5482
 425  428.3652
 426  349.9496
 427  435.3898
 428  459.3386
 429  418.2787
 430  504.8843
 431  355.1174
 432  379.5381
 433  396.6591
 434  271.9256
 435  296.3845
 436  416.9746
 437  439.8194
 438  293.147
 439  312.7886
 440  400.1751
 441  376.7622
 442  302.7804
 443  353.1487
 444  308.6109
 445  269.3614
 446  321.7192
 447  352.6404
 448  355.8137
 449  234.1304
 450  288.1985
 451  401.8985
 452  351.5343
 453  330.5538
 454  221.4462
 455  304.0196
 456  318.5678
 457  300.271
 458  305.5987
 459  287.6225
 460  358.5008
 461  332.4262
 462  290.0738
 463  325.321
 464  378.1846
 465  461.4474
 466  325.8564
 467  220.7912
 468  316.2545
 469  427.1994
 470  436.5018
 471  465.0596
 472  468.7107
 473  306.6221
 474  283.8694
 475  343.4827
 476  401.9843
 477  264.7146
 478  402.6815
 479  486.3517
 480  350.866
 481  438.7927
 482  459.9538
 483  323.6817
 484  361.6736
 485  298.0724
 486  362.4018
 487  267.3263
 488  399.062
 489  436.2668
 490  378.269
 491  491.4767
 492  482.4289
 493  505.2516
 494  512.7978
 495  476.0879
 496  472.9193
 497  524.8998
 498  464.4533
 499  392.5196
 500  352.8741
 501  392.7646
 502  485.8968
 503  415.6193
 504  537.5273
 505  466.7826
 506  548.6592
 507  513.2419
 508  636.2806
 509  838.0525
 510  1007.103
 511  1010.651
