# Input file       =  1208872645.123394_cleaned.dat
# Candidate        =  PSR_0332+5434
# Telescope        =  AR
# Epoch_topo       =  58235.581760687433
# Epoch_bary       =  N/A
# T_sample         =  0.002
# Data Folded      =  7340032
# Data Avg         =  0.225557327977315
# Data StdDev      =  5.6674318297619  
# Profile Bins     =  512
# Profile Avg      =  3233.66277821743 
# Profile StdDev   =  678.578821435724 
# Reduced chi-sqr  =  1.411
# Prob(Noise)      <  2.27e-09   (~5.9 sigma)
# P_topo (ms)      =  714.550111070386  +/- 0.000244
# P'_topo (s/s)    =  -0                +/- 1.29e-10
# P''_topo (s/s^2) =  0                 +/- 5.68e-14
# P_bary (ms)      =  N/A
# P'_bary (s/s)    =  N/A
# P''_bary (s/s^2) =  N/A
# P_orb (s)        =  N/A
# asin(i)/c (s)    =  N/A
# eccentricity     =  N/A
# w (rad)          =  N/A
# T_peri           =  N/A
######################################################
   0  3543.038
   1  3322.124
   2  3729.224
   3  3481.071
   4  3346.562
   5  3656.106
   6  3724.064
   7  3644.009
   8  3762.542
   9  3437.266
  10  3489.237
  11  3188.154
  12  2928.959
  13  3178.262
  14  3369.6
  15  3405.033
  16  3191.517
  17  3107.957
  18  3140.213
  19  2492.965
  20  2857.395
  21  2882.257
  22  2669.117
  23  2822.115
  24  2549.581
  25  2498.499
  26  2250.62
  27  2458.352
  28  2788.674
  29  2504.66
  30  2568.5
  31  2764.507
  32  3072.888
  33  3124.351
  34  2977.903
  35  2884.725
  36  2431.224
  37  2525.338
  38  2848.896
  39  3041.453
  40  2986.469
  41  3231.266
  42  3256.966
  43  3527.498
  44  3247.353
  45  3000.117
  46  3259.049
  47  3019.146
  48  3222.472
  49  3218.091
  50  2833.885
  51  2858.582
  52  2877.07
  53  3293.662
  54  3334.952
  55  3117.609
  56  3249.699
  57  3897.342
  58  3871.038
  59  3952.854
  60  4073.161
  61  4567.327
  62  4938.375
  63  5301.951
  64  5910.561
  65  6298.463
  66  6251.316
  67  5360.147
  68  4462.299
  69  4150.815
  70  4226.184
  71  4304.675
  72  4407.415
  73  4243.875
  74  4320.96
  75  3908.452
  76  3721.817
  77  3984.522
  78  4164.987
  79  3784.442
  80  3649.125
  81  3904.393
  82  3938.366
  83  3643.079
  84  3785.017
  85  3689.912
  86  3532.978
  87  3684.035
  88  3192.615
  89  3427.616
  90  3406.779
  91  3360.952
  92  3290.729
  93  3515.169
  94  3501.628
  95  3660.299
  96  3541.546
  97  3259.132
  98  3313.924
  99  3382.132
 100  3360.381
 101  3409.577
 102  3376.779
 103  3424.621
 104  3033.816
 105  3070.677
 106  3025.622
 107  3175.068
 108  3342.035
 109  3418.085
 110  3287.752
 111  3337.272
 112  3173.828
 113  3238.312
 114  3281.063
 115  3190.176
 116  3379.81
 117  3252.77
 118  3442.644
 119  3454.702
 120  3802.96
 121  3913.485
 122  3830.634
 123  3445.179
 124  3377.32
 125  2801.123
 126  2931.963
 127  3340.98
 128  3030.414
 129  3304.284
 130  3214.646
 131  3272.645
 132  3150.115
 133  3417.173
 134  3966.958
 135  4036.241
 136  3851.195
 137  3486.202
 138  3617.979
 139  3568.493
 140  3921.358
 141  3789.127
 142  3807.41
 143  3856.629
 144  3858.636
 145  3756.876
 146  4427.642
 147  4346.337
 148  4333.237
 149  4448.584
 150  4688.961
 151  4553.302
 152  4328.603
 153  4183.829
 154  4074.871
 155  4046.233
 156  3798.768
 157  3938.666
 158  3802.091
 159  3477.578
 160  3505.336
 161  3790.352
 162  3834.035
 163  3869.072
 164  3688.585
 165  3306.619
 166  2925.026
 167  3047.094
 168  3022.101
 169  2735.532
 170  2810.409
 171  2516.639
 172  2789.602
 173  3242.925
 174  2702.422
 175  2830.478
 176  2933.734
 177  3168.158
 178  2815.334
 179  2348.139
 180  2523.065
 181  2663.579
 182  2588.524
 183  2729.601
 184  2763.925
 185  2628.208
 186  2319.345
 187  2435.859
 188  2503.314
 189  2398.081
 190  2696.026
 191  2876.741
 192  2703.778
 193  3034.038
 194  3049.872
 195  3039.643
 196  2624.448
 197  2699.42
 198  2585.425
 199  2503.54
 200  3002.021
 201  3204.131
 202  3140.119
 203  2989.44
 204  2654.828
 205  2876.817
 206  3406.942
 207  3311.499
 208  3409.031
 209  3535.664
 210  3470.237
 211  3346.012
 212  3390.243
 213  3574.281
 214  3747.791
 215  3621.009
 216  3846.097
 217  4073.042
 218  3892.383
 219  3904.405
 220  3947.94
 221  3830.66
 222  4071.934
 223  3939.226
 224  4295.389
 225  3865.317
 226  3333.949
 227  3548.169
 228  3992.259
 229  4041.451
 230  3877.767
 231  3558.529
 232  3554.768
 233  3357.79
 234  3681.52
 235  3502.599
 236  3767.207
 237  3644.635
 238  3083.151
 239  2710.171
 240  2791.053
 241  3094.858
 242  3238.56
 243  2945.032
 244  2790.615
 245  2712.043
 246  2964.555
 247  2946.652
 248  2520.495
 249  2714.937
 250  2240.254
 251  2164.01
 252  2369.136
 253  2380.127
 254  2409.738
 255  2580.537
 256  2455.375
 257  2126.573
 258  2194.459
 259  2286.804
 260  2155.633
 261  2316.228
 262  2433.305
 263  2277.443
 264  2554.291
 265  2529.754
 266  2417.872
 267  2341.184
 268  2646.845
 269  2719.162
 270  2599.688
 271  2993.895
 272  2819.189
 273  2353.909
 274  2300.046
 275  2674.519
 276  2842.235
 277  3030.476
 278  2823.796
 279  2871.83
 280  2794.191
 281  2555.198
 282  2684.181
 283  2891.48
 284  2965.059
 285  3242.716
 286  3062.682
 287  2891.983
 288  2996.112
 289  3065.337
 290  2933.933
 291  2850.36
 292  2992.56
 293  3476.025
 294  3462.272
 295  3345.648
 296  3350.664
 297  3496.25
 298  3479.856
 299  3178.944
 300  3286.523
 301  3098.474
 302  3140.651
 303  3158.299
 304  3022.2
 305  2803.36
 306  2684.081
 307  3007.353
 308  2792.929
 309  3072.972
 310  3137.51
 311  3371.062
 312  2832.017
 313  2737.899
 314  2448.775
 315  2406.389
 316  2319.854
 317  2418.531
 318  2467.948
 319  2474.837
 320  2624.75
 321  2445.76
 322  2387.071
 323  2292.061
 324  2445.685
 325  2349.335
 326  2442.999
 327  2869.784
 328  2903.497
 329  2927.543
 330  3189.646
 331  3079.318
 332  2934.34
 333  2878.667
 334  3206.204
 335  3050.301
 336  2676.038
 337  3012.21
 338  3278.345
 339  2895.26
 340  3080.814
 341  3263.846
 342  3040.37
 343  3211.998
 344  3165.812
 345  3329.818
 346  3555.159
 347  3444.456
 348  3418.284
 349  3438.314
 350  3555.999
 351  3598.942
 352  3778.139
 353  3865.609
 354  3871.432
 355  4081.302
 356  4082.569
 357  3845.733
 358  3963.962
 359  4159.882
 360  3896.86
 361  3779.947
 362  3763.566
 363  3841.489
 364  3693.14
 365  3590.119
 366  3194.344
 367  3414.635
 368  3727.35
 369  3405.935
 370  3228.705
 371  3025.777
 372  3427.274
 373  3320.908
 374  3240.697
 375  2996.676
 376  2947.113
 377  2707.794
 378  2707.329
 379  2890.12
 380  2691.696
 381  2794.598
 382  2614.149
 383  2411.946
 384  2242.369
 385  2697.994
 386  2625.07
 387  2602.546
 388  2194.483
 389  2386.271
 390  2402.332
 391  2637.046
 392  2996.362
 393  3197.659
 394  3037.631
 395  2877.981
 396  2675.322
 397  2848.805
 398  2992.971
 399  3287.045
 400  2965.6
 401  3381.657
 402  3399.987
 403  3282.601
 404  3279.627
 405  2846.795
 406  2866.946
 407  3014.855
 408  3158.368
 409  3410.079
 410  3659.892
 411  3441.666
 412  3287.457
 413  3383.234
 414  3820.859
 415  3445.971
 416  3553.833
 417  3571.209
 418  3898.603
 419  3747.664
 420  3389.383
 421  3692.671
 422  3684.089
 423  3751.357
 424  3809.21
 425  4038.591
 426  4132.086
 427  3852.476
 428  3594.898
 429  3513.043
 430  3146.208
 431  3232.102
 432  3518.33
 433  4016.251
 434  4126.866
 435  3820.349
 436  3347.496
 437  3498.674
 438  3879.18
 439  3828.128
 440  3825.675
 441  3678.375
 442  3872.872
 443  3657.662
 444  3545.375
 445  3553.332
 446  3685.178
 447  3564.454
 448  3002.558
 449  3052.678
 450  2891.269
 451  3124.83
 452  3142.645
 453  3248.814
 454  2917.169
 455  2359.346
 456  2514.24
 457  2654.719
 458  2547.412
 459  2479.636
 460  2788.007
 461  2746.34
 462  2554.615
 463  2900.076
 464  2636.38
 465  2187.175
 466  2504.143
 467  2541.16
 468  2474.23
 469  2238.168
 470  2563.644
 471  2409.457
 472  2650.481
 473  2944.839
 474  2811.77
 475  3025.525
 476  2924.416
 477  2882.778
 478  2957.627
 479  2667.628
 480  2657.246
 481  2672.351
 482  2871.231
 483  3077.994
 484  2777.542
 485  2904.201
 486  2948.787
 487  2597.101
 488  2940.444
 489  3107.012
 490  3287.512
 491  3046.331
 492  2965.166
 493  3029.605
 494  3411.757
 495  3300.985
 496  3648.678
 497  3118.687
 498  2989.961
 499  2944.291
 500  3209.665
 501  3505.396
 502  3581.209
 503  3670.976
 504  3768.878
 505  3885.2
 506  3543.83
 507  3497.374
 508  3471.508
 509  3519.493
 510  3798.921
 511  3494.07
