# Input file       =  1208943319.116623_cleaned.dat
# Candidate        =  PSR_0332+5434
# Telescope        =  AR
# Epoch_topo       =  58236.399746720170
# Epoch_bary       =  N/A
# T_sample         =  0.002
# Data Folded      =  7340032
# Data Avg         =  0.25245507908195 
# Data StdDev      =  5.74384918076479 
# Profile Bins     =  512
# Profile Avg      =  3619.2229093498  
# Profile StdDev   =  687.728502903169 
# Reduced chi-sqr  =  0.948
# Prob(Noise)      <  0.794   (~0.0 sigma)
# P_topo (ms)      =  714.549044149538  +/- 0.000417
# P'_topo (s/s)    =  -0                +/- 2.2e-10
# P''_topo (s/s^2) =  0                 +/- 9.71e-14
# P_bary (ms)      =  N/A
# P'_bary (s/s)    =  N/A
# P''_bary (s/s^2) =  N/A
# P_orb (s)        =  N/A
# asin(i)/c (s)    =  N/A
# eccentricity     =  N/A
# w (rad)          =  N/A
# T_peri           =  N/A
######################################################
   0  3611.806
   1  3437.849
   2  3426.046
   3  3054.913
   4  3343.923
   5  3470.343
   6  3540.937
   7  3843.457
   8  4013.282
   9  3770.223
  10  3854.636
  11  3782.068
  12  3639.728
  13  3937.937
  14  3996.554
  15  3756.993
  16  3330.228
  17  3709.592
  18  4092.368
  19  4151.574
  20  4308.558
  21  4127.803
  22  3645.96
  23  3845.87
  24  3830.469
  25  3562.788
  26  3562.044
  27  3460.711
  28  3313.662
  29  3687.659
  30  3191.061
  31  2909.789
  32  2925.624
  33  3363.558
  34  3256.146
  35  3412.13
  36  3672.731
  37  3342.489
  38  2989.961
  39  3324.645
  40  3595.791
  41  3216.172
  42  3428.27
  43  3445.776
  44  3680.799
  45  3318.894
  46  3460.66
  47  3300.778
  48  3047.914
  49  3096.508
  50  2650.355
  51  2948.69
  52  3129.755
  53  3056.176
  54  2890.581
  55  3489.554
  56  3743.126
  57  3777.301
  58  3673.087
  59  3470.067
  60  3335.71
  61  3522.497
  62  3535.97
  63  3612.05
  64  3782.932
  65  3651.032
  66  3808.098
  67  3933.705
  68  3948.26
  69  3730.194
  70  3656.225
  71  3757.763
  72  4060.243
  73  3790.931
  74  3951.113
  75  3683.189
  76  3683.768
  77  4139.13
  78  4089.116
  79  3302.844
  80  3003.16
  81  3261.518
  82  3307.432
  83  3097.362
  84  3257.792
  85  3346.112
  86  3081.319
  87  3012.799
  88  3201.6
  89  3174.891
  90  2982.486
  91  3371.716
  92  3521.622
  93  3371.539
  94  3290.692
  95  3242.362
  96  3198.199
  97  3474.761
  98  3644.333
  99  3523.5
 100  3534.183
 101  3318.078
 102  3244.725
 103  3215.076
 104  2601.846
 105  3081.397
 106  3631.148
 107  3358.9
 108  3242.338
 109  3466.013
 110  3852.709
 111  3340.262
 112  2652.314
 113  3079.889
 114  3025.785
 115  3460.76
 116  3758.645
 117  3580.689
 118  4081.979
 119  3932.785
 120  3790.181
 121  3820.363
 122  3475.574
 123  3974.32
 124  3740.613
 125  3919.43
 126  3750.52
 127  3596.195
 128  3864.57
 129  3969.23
 130  4018.854
 131  3989.72
 132  3724.599
 133  3840.035
 134  4028.636
 135  4030.758
 136  4157.783
 137  3965.752
 138  4068.431
 139  4135.404
 140  4081.26
 141  4083.55
 142  3973.579
 143  4329.499
 144  4501.571
 145  4251.043
 146  3930.862
 147  3725.674
 148  3969.986
 149  4135.814
 150  3934.926
 151  3781.278
 152  3762.394
 153  3830.367
 154  3525.637
 155  3835.263
 156  4244.784
 157  3958.612
 158  3890.3
 159  3925.875
 160  4046.257
 161  4377.491
 162  4068.804
 163  3777.787
 164  4060.167
 165  4293.233
 166  3736.266
 167  3649.03
 168  3358.784
 169  3297.838
 170  3117.784
 171  3445.502
 172  3561.47
 173  3587.853
 174  3615.038
 175  3265.191
 176  3590.119
 177  3978.227
 178  3815.639
 179  3689.31
 180  3849.073
 181  3718.693
 182  3882.64
 183  3814.003
 184  3383.716
 185  3195.028
 186  3499.095
 187  3404.103
 188  3452.12
 189  3407.114
 190  3349.364
 191  3113.803
 192  3443.001
 193  3274.278
 194  3104.201
 195  3537.788
 196  3745.255
 197  3944.13
 198  3687.343
 199  3684.437
 200  3880.875
 201  3760.952
 202  3953.268
 203  3845.596
 204  3799.716
 205  3930.131
 206  3862.62
 207  4149.295
 208  4286.69
 209  4062.378
 210  3701.034
 211  3534.988
 212  3747.373
 213  3935.376
 214  3561.926
 215  3709.105
 216  3516.765
 217  3434.769
 218  3268.793
 219  3316.556
 220  3787.902
 221  3889.122
 222  3878.895
 223  3639.928
 224  3811.216
 225  3620.832
 226  4007.076
 227  4138.556
 228  3643.171
 229  3229.009
 230  3326.583
 231  3646.939
 232  3644.999
 233  3720.51
 234  3609.155
 235  3092.077
 236  3162.011
 237  3484.809
 238  3074.718
 239  3107.428
 240  3433.151
 241  3711.878
 242  3478.116
 243  3161.581
 244  3160.15
 245  3173.054
 246  3079.679
 247  3043.677
 248  3087.406
 249  2950.734
 250  3088.048
 251  3100.893
 252  3040.336
 253  3176.876
 254  3406.836
 255  3506.235
 256  3634.135
 257  3764.407
 258  3599.69
 259  3571.729
 260  3281.618
 261  3211.678
 262  3476.077
 263  3578.441
 264  3827.326
 265  3402.967
 266  3571.02
 267  3409.915
 268  3546.013
 269  3783.429
 270  3706.296
 271  3903.057
 272  3882.698
 273  3872.747
 274  3509.235
 275  3921.625
 276  4114.414
 277  4139.415
 278  4028.408
 279  3881.925
 280  3961.203
 281  3716.726
 282  3639.341
 283  4017.333
 284  4115.589
 285  3733.287
 286  3493.273
 287  3515.092
 288  3808.177
 289  3778.173
 290  3535.945
 291  3663.115
 292  3722.478
 293  3979.748
 294  4085.433
 295  4261.037
 296  4003.943
 297  4363.899
 298  4685.521
 299  4989.007
 300  5693.592
 301  6134.012
 302  6076.933
 303  5362.579
 304  4338.855
 305  3933.229
 306  3702.635
 307  3629.252
 308  3618.429
 309  4111.1
 310  4071.013
 311  3617.092
 312  3394.78
 313  3379.267
 314  3515.288
 315  3523.142
 316  3851.745
 317  4190.117
 318  3650.141
 319  3328.451
 320  3106.287
 321  3213.509
 322  3635.95
 323  3749.868
 324  3703.054
 325  3710.276
 326  3355.98
 327  3786.47
 328  3521.239
 329  3369.961
 330  3716.57
 331  3606.033
 332  3745.363
 333  4027.268
 334  3894.722
 335  3867.871
 336  3654.55
 337  3808.415
 338  4419.268
 339  3972.718
 340  3875.32
 341  3891.234
 342  3962.702
 343  4210.562
 344  3994.348
 345  4080.582
 346  3814.764
 347  4152.801
 348  3961.437
 349  4031.962
 350  3756.883
 351  3918.593
 352  3779.284
 353  3573.271
 354  3859.918
 355  3684.234
 356  4054.175
 357  4066.367
 358  4291.976
 359  4485.584
 360  4105.582
 361  4088.93
 362  4188.22
 363  4079.917
 364  4015.306
 365  4393.29
 366  4433.189
 367  4453.63
 368  4623.802
 369  4924.751
 370  4501.415
 371  4385.289
 372  4441.611
 373  4282.369
 374  4230.806
 375  4608.812
 376  4452.304
 377  4542.596
 378  4303.408
 379  4196.208
 380  4202.142
 381  4000.74
 382  3539.681
 383  3336.683
 384  3269.827
 385  3507.603
 386  3681.473
 387  4125.697
 388  3626.7
 389  3650.429
 390  3783.399
 391  3723.881
 392  3400.389
 393  3783.409
 394  4205.662
 395  4231.438
 396  4030.731
 397  3849.312
 398  3523.586
 399  3427.125
 400  3566.93
 401  3322.142
 402  2889.742
 403  2791.333
 404  3064.392
 405  3278.48
 406  2990.482
 407  3023.965
 408  3363.502
 409  3296.264
 410  2595.805
 411  2579.914
 412  3110.345
 413  3335.942
 414  3520.931
 415  3375.001
 416  3470.871
 417  3526.412
 418  3091.519
 419  2886.044
 420  2903.928
 421  3105.477
 422  3249.579
 423  3267.948
 424  3443.078
 425  3514.577
 426  3345.78
 427  3573.35
 428  3907.205
 429  3567.936
 430  3699.113
 431  3850.83
 432  3399.079
 433  3721.444
 434  3790.438
 435  4249.845
 436  4119.514
 437  4181.494
 438  4168.25
 439  4272.516
 440  4534.172
 441  4373.398
 442  4300.226
 443  4394.476
 444  3847.112
 445  3820.331
 446  4081.025
 447  3823.103
 448  3602.232
 449  4122.696
 450  4104.286
 451  3605.505
 452  3761.599
 453  3830.642
 454  3950.589
 455  4171.039
 456  3846.35
 457  3716.789
 458  3550.873
 459  3323.173
 460  3100.126
 461  3310.892
 462  3356.795
 463  3106.133
 464  3026.717
 465  3157.814
 466  3121.773
 467  2899.092
 468  2992.053
 469  2992.78
 470  2998.456
 471  2718.078
 472  2835.039
 473  3144.96
 474  3086.317
 475  3132.196
 476  2894.725
 477  2519.415
 478  2874.33
 479  3250.821
 480  3135.172
 481  2535.679
 482  2679.935
 483  2300.375
 484  2182.906
 485  2321.745
 486  2403.934
 487  2640.88
 488  2955.015
 489  3058.418
 490  3014.233
 491  2835.648
 492  2555.39
 493  2856.042
 494  2624.784
 495  2903.72
 496  2681.044
 497  2840.595
 498  2874.677
 499  2751.571
 500  2749.539
 501  2856.793
 502  3259.968
 503  3178.383
 504  3265.767
 505  3288.615
 506  3302.773
 507  3374.427
 508  3246.112
 509  3392.76
 510  3349.357
 511  3221.534
