# Input file       =  1208153608.10872_cleaned.dat
# Candidate        =  PSR_0332+5434
# Telescope        =  AR
# Epoch_topo       =  58227.259573017596
# Epoch_bary       =  N/A
# T_sample         =  0.002
# Data Folded      =  7143424
# Data Avg         =  0.0296413955194001
# Data StdDev      =  1.00003198522971 
# Profile Bins     =  512
# Profile Avg      =  413.55632875944  
# Profile StdDev   =  118.122362531925 
# Reduced chi-sqr  =  1.833
# Prob(Noise)      <  1.94e-27   (~10.8 sigma)
# P_topo (ms)      =  714.556785103577  +/- 4.44e-05
# P'_topo (s/s)    =  -0                +/- 2.41e-11
# P''_topo (s/s^2) =  0                 +/- 1.09e-14
# P_bary (ms)      =  N/A
# P'_bary (s/s)    =  N/A
# P''_bary (s/s^2) =  N/A
# P_orb (s)        =  N/A
# asin(i)/c (s)    =  N/A
# eccentricity     =  N/A
# w (rad)          =  N/A
# T_peri           =  N/A
######################################################
   0  463.851
   1  492.521
   2  507.6562
   3  475.47
   4  418.7989
   5  374.326
   6  412.2667
   7  443.3617
   8  492.2987
   9  505.412
  10  413.4775
  11  370.4298
  12  285.278
  13  265.4147
  14  355.9792
  15  535.9044
  16  601.845
  17  546.2879
  18  478.0309
  19  383.7654
  20  295.4142
  21  385.6969
  22  371.037
  23  403.8369
  24  375.067
  25  417.4448
  26  404.8806
  27  352.757
  28  324.3206
  29  322.5479
  30  334.0169
  31  317.6646
  32  417.3923
  33  558.4096
  34  463.4428
  35  381.4865
  36  304.9589
  37  193.2554
  38  259.054
  39  340.9871
  40  388.83
  41  472.0695
  42  478.2968
  43  285.3246
  44  154.4555
  45  243.0811
  46  160.6079
  47  154.7872
  48  283.1143
  49  261.7496
  50  403.001
  51  299.9037
  52  310.7684
  53  306.4713
  54  394.0898
  55  342.9215
  56  288.1349
  57  355.9174
  58  502.367
  59  450.1013
  60  406.2117
  61  302.3148
  62  283.9751
  63  409.759
  64  387.8811
  65  401.0827
  66  439.0638
  67  344.0411
  68  366.5703
  69  393.3945
  70  300.4969
  71  361.4161
  72  482.2404
  73  503.6717
  74  431.0106
  75  499.9175
  76  570.2076
  77  554.0209
  78  374.614
  79  302.4752
  80  325.0919
  81  291.711
  82  392.8663
  83  498.305
  84  524.5255
  85  475.5754
  86  336.283
  87  299.5602
  88  285.4175
  89  370.5764
  90  325.2275
  91  429.3784
  92  466.9184
  93  449.5495
  94  330.1735
  95  296.5997
  96  320.2904
  97  453.8354
  98  424.7918
  99  498.9726
 100  565.3489
 101  474.9126
 102  429.0927
 103  388.6138
 104  415.3816
 105  456.1938
 106  511.4567
 107  522.8875
 108  454.222
 109  505.5283
 110  352.4869
 111  376.1217
 112  387.1871
 113  289.7303
 114  290.8837
 115  380.1879
 116  526.2831
 117  478.2783
 118  400.4582
 119  296.5326
 120  344.3876
 121  447.5025
 122  440.0936
 123  419.7451
 124  420.9102
 125  345.76
 126  326.2506
 127  303.4592
 128  460.4978
 129  433.7687
 130  519.9347
 131  472.2436
 132  405.5943
 133  614.3782
 134  606.8799
 135  449.4907
 136  405.0818
 137  436.4464
 138  342.9423
 139  304.9759
 140  216.6186
 141  349.6214
 142  420.4442
 143  377.5247
 144  374.1381
 145  281.6367
 146  395.1474
 147  340.8759
 148  402.6176
 149  579.6241
 150  382.5621
 151  395.1292
 152  513.9244
 153  432.9833
 154  402.072
 155  360.4366
 156  412.2441
 157  517.1437
 158  553.0277
 159  498.991
 160  315.005
 161  287.5873
 162  382.3741
 163  491.9444
 164  341.4941
 165  482.9755
 166  542.2754
 167  423.6855
 168  218.4249
 169  297.6462
 170  339.9936
 171  356.3775
 172  495.2144
 173  594.0903
 174  428.7297
 175  371.351
 176  438.7264
 177  449.3578
 178  302.3687
 179  290.0889
 180  169.7045
 181  292.4632
 182  512.75
 183  589.8832
 184  505.08
 185  335.2136
 186  278.9101
 187  282.6278
 188  324.4973
 189  328.0522
 190  335.1385
 191  498.1157
 192  497.7979
 193  282.2007
 194  350.4748
 195  395.3132
 196  367.1532
 197  439.4865
 198  490.7155
 199  494.5774
 200  437.809
 201  545.7203
 202  484.3431
 203  391.5013
 204  301.883
 205  407.1115
 206  388.1183
 207  459.967
 208  469.4684
 209  281.3134
 210  270.5828
 211  296.3593
 212  320.2057
 213  366.6338
 214  315.3729
 215  317.7303
 216  406.0632
 217  494.243
 218  485.9313
 219  264.0601
 220  325.4274
 221  400.6138
 222  419.8352
 223  346.938
 224  373.5366
 225  481.7709
 226  373.357
 227  321.903
 228  334.793
 229  345.4471
 230  363.7034
 231  475.0017
 232  568.8107
 233  506.7254
 234  417.9369
 235  365.4832
 236  271.9332
 237  446.02
 238  479.1071
 239  367.7401
 240  267.6927
 241  371.357
 242  478.8135
 243  511.3943
 244  269.7298
 245  333.1878
 246  474.2408
 247  459.5699
 248  426.3783
 249  444.8786
 250  465.3873
 251  273.7433
 252  315.5109
 253  288.5359
 254  441.7311
 255  417.7662
 256  345.4242
 257  383.1662
 258  505.2261
 259  482.9988
 260  361.0312
 261  315.4238
 262  203.2978
 263  242.6183
 264  428.0955
 265  532.0452
 266  766.2253
 267  844.9159
 268  859.092
 269  946.3109
 270  1019.007
 271  1041.316
 272  1097.417
 273  959.2692
 274  745.2445
 275  515.1586
 276  456.7951
 277  424.9589
 278  333.5646
 279  363.0592
 280  552.1777
 281  549.5049
 282  521.4132
 283  565.9758
 284  526.1199
 285  410.0428
 286  490.775
 287  519.8821
 288  579.5172
 289  315.4782
 290  176.958
 291  266.1572
 292  466.0276
 293  359.7213
 294  364.8611
 295  388.3355
 296  503.3558
 297  572.516
 298  648.3261
 299  575.6702
 300  521.3763
 301  384.4568
 302  343.81
 303  257.1912
 304  347.3249
 305  522.8998
 306  487.5543
 307  464.7663
 308  520.7938
 309  448.1735
 310  351.5286
 311  413.6005
 312  398.8959
 313  504.5656
 314  665.2963
 315  699.9562
 316  608.063
 317  531.6241
 318  460.3438
 319  412.8164
 320  329.948
 321  379.5198
 322  450.0185
 323  477.3554
 324  443.1217
 325  489.5583
 326  406.2483
 327  403.7683
 328  358.3341
 329  469.7519
 330  455.5376
 331  492.8885
 332  398.7973
 333  449.2184
 334  521.4378
 335  378.5006
 336  347.1549
 337  375.2422
 338  472.1283
 339  568.0261
 340  556.7041
 341  526.6461
 342  494.2576
 343  316.1794
 344  317.1128
 345  428.425
 346  441.0647
 347  471.4729
 348  533.133
 349  666.1494
 350  607.6503
 351  269.3885
 352  212.4446
 353  305.6852
 354  220.0235
 355  427.3643
 356  552.8809
 357  469.5115
 358  385.0039
 359  331.4879
 360  380.5155
 361  348.8062
 362  301.3406
 363  410.739
 364  440.8439
 365  473.2487
 366  380.9096
 367  384.1901
 368  411.5196
 369  396.2465
 370  294.1241
 371  428.0663
 372  495.1681
 373  510.0851
 374  521.1002
 375  361.1074
 376  402.3386
 377  227.7539
 378  330.2799
 379  418.2056
 380  487.9125
 381  518.2603
 382  382.1829
 383  429.6351
 384  363.4595
 385  314.8012
 386  392.345
 387  323.4696
 388  394.6389
 389  513.1064
 390  512.2451
 391  387.0739
 392  346.2975
 393  415.8531
 394  501.2523
 395  489.4845
 396  415.1401
 397  397.9566
 398  539.2079
 399  399.1004
 400  402.9728
 401  406.3318
 402  367.5153
 403  369.7241
 404  432.7107
 405  491.665
 406  447.5895
 407  306.9403
 408  375.966
 409  373.0123
 410  374.6903
 411  366.7332
 412  385.3269
 413  536.2925
 414  595.5588
 415  477.6912
 416  532.9728
 417  416.6491
 418  417.5818
 419  402.5942
 420  287.4585
 421  309.9017
 422  444.5876
 423  424.3487
 424  301.6735
 425  239.7639
 426  296.8994
 427  371.1491
 428  444.7537
 429  476.038
 430  532.8585
 431  536.8018
 432  477.5483
 433  415.3136
 434  402.151
 435  407.3822
 436  335.8534
 437  388.5387
 438  437.5948
 439  486.6738
 440  377.7198
 441  329.4933
 442  333.1119
 443  390.5453
 444  343.1721
 445  388.1552
 446  372.7907
 447  443.7837
 448  484.3593
 449  329.7328
 450  426.7189
 451  365.6417
 452  452.4931
 453  397.7353
 454  492.0498
 455  485.4252
 456  461.4554
 457  473.4563
 458  431.3715
 459  336.0204
 460  308.2068
 461  269.4649
 462  353.8167
 463  541.3049
 464  408.5474
 465  296.6922
 466  376.4951
 467  314.841
 468  289.9138
 469  318.2885
 470  267.9724
 471  206.5404
 472  153.7895
 473  266.4178
 474  298.7881
 475  335.8812
 476  323.9161
 477  272.7008
 478  513.3869
 479  565.9867
 480  494.9049
 481  393.9731
 482  391.8923
 483  343.985
 484  272.0956
 485  187.6852
 486  376.2156
 487  499.8759
 488  436.0461
 489  396.2709
 490  405.7228
 491  351.9123
 492  336.2357
 493  303.2681
 494  374.7785
 495  564.049
 496  650.498
 497  526.9875
 498  372.1068
 499  448.8184
 500  373.7686
 501  295.5806
 502  362.9199
 503  313.1613
 504  480.4574
 505  495.1589
 506  442.5038
 507  230.0706
 508  272.9653
 509  384.8307
 510  406.378
 511  499.834
