# Input file       =  1208082048.119238_cleaned.dat
# Candidate        =  PSR_0332+5434
# Telescope        =  AR
# Epoch_topo       =  58226.431332398584
# Epoch_bary       =  N/A
# T_sample         =  0.002
# Data Folded      =  7340032
# Data Avg         =  0.245984287178933
# Data StdDev      =  5.60547067113564 
# Profile Bins     =  512
# Profile Avg      =  3526.65611982086 
# Profile StdDev   =  671.160023775979 
# Reduced chi-sqr  =  1.815
# Prob(Noise)      <  1.6e-26   (~10.6 sigma)
# P_topo (ms)      =  714.557475962818  +/- 0.000184
# P'_topo (s/s)    =  -0                +/- 9.72e-11
# P''_topo (s/s^2) =  0                 +/- 4.29e-14
# P_bary (ms)      =  N/A
# P'_bary (s/s)    =  N/A
# P''_bary (s/s^2) =  N/A
# P_orb (s)        =  N/A
# asin(i)/c (s)    =  N/A
# eccentricity     =  N/A
# w (rad)          =  N/A
# T_peri           =  N/A
######################################################
   0  3893.788
   1  3751.768
   2  3693.526
   3  3382.666
   4  3619.489
   5  3824.685
   6  3666.757
   7  4042.668
   8  4168.962
   9  4006.106
  10  3843.173
  11  4089.395
  12  3812.442
  13  3460.579
  14  3533.284
  15  3682.558
  16  3929.465
  17  4000.729
  18  3808.145
  19  3720.745
  20  3636.433
  21  3555.986
  22  3638.056
  23  3523.464
  24  3629.72
  25  3686.026
  26  3437.031
  27  3475.571
  28  3604.285
  29  3349.741
  30  3388.976
  31  3401.615
  32  3119.194
  33  2995.338
  34  2665.557
  35  2943.526
  36  3386.096
  37  3384.459
  38  3230.359
  39  3158.405
  40  3163.029
  41  3378.258
  42  3902.565
  43  3967.23
  44  3959.825
  45  3675.469
  46  3737.613
  47  3631.603
  48  3547.932
  49  3801.444
  50  3601.098
  51  3481.379
  52  3627.82
  53  3941.9
  54  4162.797
  55  4260.649
  56  4245.038
  57  4308.517
  58  4306.263
  59  4001.529
  60  4523.227
  61  4947.239
  62  4922.323
  63  5090.204
  64  4863.718
  65  5115.553
  66  4989.791
  67  4812.587
  68  4866.987
  69  4827.746
  70  4921.624
  71  4719.465
  72  4690.185
  73  4493.304
  74  4436.212
  75  4154.862
  76  4537.508
  77  4684.564
  78  4363.247
  79  4257.884
  80  4249.753
  81  3755.122
  82  3859.738
  83  3766.643
  84  4348.453
  85  4051.161
  86  3991.408
  87  3875.185
  88  3753.292
  89  3871.583
  90  3886.405
  91  3740.371
  92  4189.441
  93  4210.375
  94  4153.104
  95  3726.519
  96  3446.109
  97  3932.654
  98  4037.419
  99  3685.915
 100  3752.458
 101  3808.794
 102  3399.068
 103  2849.737
 104  2826.423
 105  3167.005
 106  3191.448
 107  3040.388
 108  3006.202
 109  3091.412
 110  3073.28
 111  2832.531
 112  3016.747
 113  3329.076
 114  3220.722
 115  2527.354
 116  2492.302
 117  2862.274
 118  2899.398
 119  2858.104
 120  2735.979
 121  3050.292
 122  3006.477
 123  2813.09
 124  2617.033
 125  2648.683
 126  2797.321
 127  3203.75
 128  3559.667
 129  3632.094
 130  3930.11
 131  4066.53
 132  3793.933
 133  3865.489
 134  3879.956
 135  3970.468
 136  4211.573
 137  4068.49
 138  4320.18
 139  4106.654
 140  3854.729
 141  4378.162
 142  4404.473
 143  4182.895
 144  4227.385
 145  4110.924
 146  3970.229
 147  3876.727
 148  3782.081
 149  3595.243
 150  3406.669
 151  3743.275
 152  3756.168
 153  3243.859
 154  3029.885
 155  2913.476
 156  3073.28
 157  3032.623
 158  3093.412
 159  3323.18
 160  3291.546
 161  3177.761
 162  3035.039
 163  2964.28
 164  2863.912
 165  2897.635
 166  3114.664
 167  2868.02
 168  2790.667
 169  3213.987
 170  3244.74
 171  3154.237
 172  2743.514
 173  2487.158
 174  2674.381
 175  2649.57
 176  2745.479
 177  3247.023
 178  3077.289
 179  2656.615
 180  2556.541
 181  2629.92
 182  2691.346
 183  2438.38
 184  2746.138
 185  2844.671
 186  2847.189
 187  2978.577
 188  2983.887
 189  2670.85
 190  2762.519
 191  3181.176
 192  3200.901
 193  3013.432
 194  2979.294
 195  3336.159
 196  3660.856
 197  3886.018
 198  3605.439
 199  3881.875
 200  3832.503
 201  3743.669
 202  4079.172
 203  4067.788
 204  4143.731
 205  4188.247
 206  4147.874
 207  3970.119
 208  4241.337
 209  4334.701
 210  4490.363
 211  4228.529
 212  4201.389
 213  3738.855
 214  3791.731
 215  3811.029
 216  4043.467
 217  4081.428
 218  3826.585
 219  3703.412
 220  3768.566
 221  3380.257
 222  3075.876
 223  3287.524
 224  3470.672
 225  3565.018
 226  3730.09
 227  3809.549
 228  3306.276
 229  3266.798
 230  3606.439
 231  3665.115
 232  3252.914
 233  3034.254
 234  3108.053
 235  2783.188
 236  2556.454
 237  2581.488
 238  2529.177
 239  2447.032
 240  2180.513
 241  2412.928
 242  2374.564
 243  2142.823
 244  2263.94
 245  2091.648
 246  2345.937
 247  2410.795
 248  2440.027
 249  2209.153
 250  2117.82
 251  2210.875
 252  2305.645
 253  2467.83
 254  2305.82
 255  2346.996
 256  2308.821
 257  2397.907
 258  2176.333
 259  2107.527
 260  2689.612
 261  2762.015
 262  2742.741
 263  2789.659
 264  2699.187
 265  2897.006
 266  3174.382
 267  2839.096
 268  2578.79
 269  2780.576
 270  2722.263
 271  2548.916
 272  2875.74
 273  3253.576
 274  3506.067
 275  3513.772
 276  3489.048
 277  3523.979
 278  3448.561
 279  3250.413
 280  3615.611
 281  3822.02
 282  3962.485
 283  3936.715
 284  3899.584
 285  3627.821
 286  3811.811
 287  3634.956
 288  3910.174
 289  3990.718
 290  4155.448
 291  4109.803
 292  4063.793
 293  4166.683
 294  4373.005
 295  4323.884
 296  4134.173
 297  4307.435
 298  4212.975
 299  4444.636
 300  5129.541
 301  5588.861
 302  5765.492
 303  5040.317
 304  4344.087
 305  4193.564
 306  4133.611
 307  4015.877
 308  3653.309
 309  3701.367
 310  3781.015
 311  3445.52
 312  3847.678
 313  3817.735
 314  3520.138
 315  3609.37
 316  3418.165
 317  3417.05
 318  3121.675
 319  3261.576
 320  3162.578
 321  2649.097
 322  2891.856
 323  2867.888
 324  2814.884
 325  2551.278
 326  2176.876
 327  2535.577
 328  2449.449
 329  2378.003
 330  2274.605
 331  2044.916
 332  2417.423
 333  2281.219
 334  2588.041
 335  2550.999
 336  2031.037
 337  2568.916
 338  2721.968
 339  2685.129
 340  2852.738
 341  3241.646
 342  3282.215
 343  3160.287
 344  3236.938
 345  3214.098
 346  2974.235
 347  2897.689
 348  3292.676
 349  3605.773
 350  3703.531
 351  3661.636
 352  3543.192
 353  4101.141
 354  4416.067
 355  4296.625
 356  4164.979
 357  4253.762
 358  4343.592
 359  4029.666
 360  4178.433
 361  4428.703
 362  4457.493
 363  4489.933
 364  4518.327
 365  4514.933
 366  4302.379
 367  4047.388
 368  4557.827
 369  4658.656
 370  4277.872
 371  4440.704
 372  4068.101
 373  3654.896
 374  3915.679
 375  3922.072
 376  4064.585
 377  3966.006
 378  3698.554
 379  3562.809
 380  3286.705
 381  3392.99
 382  3523.887
 383  4023.388
 384  4093.052
 385  3613
 386  3808.932
 387  3743.455
 388  3523.294
 389  3447.407
 390  3548.695
 391  3246.886
 392  3443.413
 393  3307.661
 394  3164.777
 395  3046.893
 396  3019.127
 397  2779.747
 398  3145.636
 399  3150.464
 400  3250.315
 401  3392.525
 402  3470.955
 403  3443.845
 404  3252.791
 405  3192.88
 406  2815.974
 407  2883.125
 408  2961.586
 409  2982.838
 410  3163.081
 411  3078.461
 412  2621.74
 413  2462.396
 414  2750.448
 415  3181.913
 416  3194.561
 417  3237.799
 418  3346.883
 419  3534.699
 420  3475.787
 421  3630.215
 422  3532.73
 423  3563.54
 424  3539.855
 425  3797.854
 426  3868.887
 427  4018.032
 428  3866.083
 429  3995.39
 430  3934.251
 431  3973.504
 432  4404.32
 433  4284.623
 434  4284.702
 435  4246.395
 436  3828.017
 437  4051.177
 438  4234.81
 439  3942.776
 440  4010.505
 441  3794.657
 442  3648.35
 443  3542.11
 444  3760.052
 445  3558.95
 446  3221.627
 447  3392.108
 448  3616.637
 449  3539.97
 450  3172.831
 451  3136.658
 452  3126.628
 453  3128.455
 454  3184.356
 455  2977.037
 456  2937.632
 457  3279.377
 458  2949.012
 459  2882.806
 460  3077.825
 461  3205.227
 462  3285.352
 463  3080.847
 464  3232.842
 465  3212.947
 466  3307.717
 467  2885.2
 468  2745.307
 469  2998.805
 470  3400.216
 471  3086.014
 472  3397.892
 473  3266.696
 474  2863.602
 475  3048.959
 476  3343.311
 477  3397.079
 478  3129.611
 479  3175.062
 480  3053.676
 481  3397.398
 482  3469.599
 483  3461.126
 484  3488.13
 485  3445.252
 486  3543.401
 487  3754.029
 488  3800.443
 489  4104.771
 490  4321.285
 491  4085.352
 492  3759.485
 493  3911.391
 494  4209.887
 495  4724.044
 496  4473.632
 497  4607.394
 498  4339.656
 499  3981.059
 500  4236.604
 501  4421.567
 502  4448.716
 503  4673.352
 504  4694.354
 505  4536.149
 506  4509.986
 507  4716.117
 508  4550.967
 509  4005.432
 510  4105.419
 511  4368.145
