# Input file       =  1208153608.10872_cleaned.dat
# Candidate        =  PSR_0332+5434
# Telescope        =  AR
# Epoch_topo       =  58227.259573017596
# Epoch_bary       =  N/A
# T_sample         =  0.002
# Data Folded      =  7143424
# Data Avg         =  0.0296413955194001
# Data StdDev      =  1.00003198522971 
# Profile Bins     =  512
# Profile Avg      =  413.556324461363 
# Profile StdDev   =  118.122362531925 
# Reduced chi-sqr  =  1.821
# Prob(Noise)      <  7.7e-27   (~10.7 sigma)
# P_topo (ms)      =  714.556784480734  +/- 4.44e-05
# P'_topo (s/s)    =  -0                +/- 2.4e-11
# P''_topo (s/s^2) =  0                 +/- 1.09e-14
# P_bary (ms)      =  N/A
# P'_bary (s/s)    =  N/A
# P''_bary (s/s^2) =  N/A
# P_orb (s)        =  N/A
# asin(i)/c (s)    =  N/A
# eccentricity     =  N/A
# w (rad)          =  N/A
# T_peri           =  N/A
######################################################
   0  1002.172
   1  1094.812
   2  1038.443
   3  861.3219
   4  610.5504
   5  463.2675
   6  456.0325
   7  372.233
   8  316.6469
   9  480.7317
  10  563.7745
  11  529.0873
  12  531.5979
  13  577.8002
  14  442.1717
  15  443.6085
  16  495.3266
  17  571.539
  18  484.1023
  19  190.863
  20  195.9876
  21  406.7037
  22  422.239
  23  363.4883
  24  361.0934
  25  447.9295
  26  556.437
  27  592.1458
  28  631.4366
  29  523.7852
  30  475.0505
  31  356.8004
  32  294.265
  33  284.9217
  34  440.5981
  35  533.6393
  36  444.1424
  37  509.9153
  38  501.25
  39  383.4986
  40  368.5964
  41  422.4324
  42  423.6018
  43  598.8268
  44  706.7607
  45  655.3051
  46  561.2111
  47  490.9862
  48  420.2827
  49  392.3851
  50  329.0374
  51  449.3274
  52  466.9066
  53  446.1186
  54  461.6768
  55  459.7365
  56  392.5148
  57  381.3915
  58  399.6003
  59  466.487
  60  485.8904
  61  456.768
  62  390.1951
  63  513.3007
  64  456.2785
  65  333.8488
  66  375.0031
  67  394.3438
  68  550.3172
  69  565.1561
  70  546.6515
  71  524.3012
  72  397.3676
  73  275.3848
  74  391.942
  75  446.5257
  76  448.936
  77  504.8845
  78  594.844
  79  690.0318
  80  412.2748
  81  195.2587
  82  287.1297
  83  251.9539
  84  290.9696
  85  535.7578
  86  523.5173
  87  418.5973
  88  344.6078
  89  351.4897
  90  385.0841
  91  315.78
  92  344.7513
  93  437.2975
  94  453.2251
  95  442.3516
  96  367.0386
  97  401.191
  98  426.5434
  99  310.3221
 100  358.1481
 101  477.4382
 102  491.9076
 103  539.8425
 104  430.0449
 105  392.3087
 106  311.7884
 107  240.1462
 108  398.2539
 109  443.4251
 110  538.6597
 111  436.8504
 112  405.1763
 113  418.9303
 114  302.075
 115  355.2463
 116  355.8435
 117  356.4156
 118  458.7889
 119  531.5982
 120  447.4864
 121  336.9002
 122  389.577
 123  453.7712
 124  517.9568
 125  461.2527
 126  363.8736
 127  500.5232
 128  470.5097
 129  385.6848
 130  420.9164
 131  382.2783
 132  368.1068
 133  386.5164
 134  459.8528
 135  488.7175
 136  355.6326
 137  338.6303
 138  376.3198
 139  385.0648
 140  366.3185
 141  379.9231
 142  445.6777
 143  605.1093
 144  522.9715
 145  498.1014
 146  480.675
 147  404.2366
 148  429.5109
 149  349.4026
 150  254.473
 151  398.1334
 152  453.5614
 153  378.0103
 154  236.9529
 155  262.9455
 156  331.9087
 157  419.4171
 158  466.631
 159  504.6328
 160  550.0076
 161  514.8167
 162  424.2877
 163  407.8148
 164  415.2217
 165  374.9582
 166  333.8315
 167  438.0804
 168  456.2422
 169  449.106
 170  329.3829
 171  316.2965
 172  381.3123
 173  351.2291
 174  370.6003
 175  384.7924
 176  401.0335
 177  490.2082
 178  386.3901
 179  366.2893
 180  419.1272
 181  406.1961
 182  435.0362
 183  419.4399
 184  510.5967
 185  469.8348
 186  459.5219
 187  470.0804
 188  360.5523
 189  322.1296
 190  286.6409
 191  292.0874
 192  474.8371
 193  521.4442
 194  306.8482
 195  346.723
 196  341.0567
 197  297.6181
 198  302.1694
 199  294.6763
 200  241.3918
 201  158.2688
 202  219.9863
 203  294.2409
 204  301.6782
 205  352.4691
 206  267.0159
 207  390.8812
 208  579.397
 209  522.3563
 210  455.0522
 211  373.4671
 212  390.4224
 213  309.4445
 214  201.1476
 215  266.4401
 216  455.1197
 217  493.6447
 218  384.0971
 219  417.0884
 220  370.2849
 221  349.078
 222  320.5533
 223  314.1576
 224  474.1655
 225  634.0862
 226  620.0466
 227  419.7325
 228  397.0016
 229  440.0285
 230  293.323
 231  344.0575
 232  320.4966
 233  403.9584
 234  495.7689
 235  497.8345
 236  324.3756
 237  220.3874
 238  349.5147
 239  376.8461
 240  462.2477
 241  485.7569
 242  467.8323
 243  511.8598
 244  494.7802
 245  448.5301
 246  387.5556
 247  391.4354
 248  419.6224
 249  479.2097
 250  490.2441
 251  478.9202
 252  384.63
 253  330.9254
 254  276.3878
 255  291.4603
 256  461.0851
 257  588.7314
 258  570.8203
 259  504.2872
 260  435.1208
 261  325.9205
 262  338.5804
 263  381.7982
 264  382.8248
 265  387.0457
 266  395.2581
 267  422.2229
 268  379.5596
 269  321.4211
 270  327.7989
 271  326.7514
 272  331.5294
 273  356.0086
 274  513.1552
 275  530.1131
 276  401.569
 277  346.1903
 278  234.8104
 279  207.5887
 280  320.9861
 281  356.5464
 282  435.035
 283  495.2308
 284  406.5319
 285  160.5482
 286  226.64
 287  196.265
 288  129.1978
 289  235.8675
 290  263.4098
 291  344.4348
 292  360.6344
 293  300.4482
 294  296.0046
 295  360.9149
 296  377.2606
 297  319.8808
 298  287.5765
 299  462.0313
 300  467.2306
 301  448.2574
 302  345.987
 303  262.5681
 304  359.8155
 305  404.7118
 306  388.553
 307  429.1279
 308  404.6436
 309  333.6668
 310  394.6248
 311  340.2548
 312  307.81
 313  433.044
 314  522.7735
 315  440.0623
 316  466.9097
 317  535.1774
 318  588.5693
 319  475.7954
 320  303.9308
 321  314.9818
 322  304.2803
 323  325.9482
 324  472.4982
 325  512.3386
 326  510.893
 327  389.9938
 328  314.2086
 329  284.9631
 330  348.0953
 331  345.4127
 332  355.5981
 333  475.2411
 334  452.9371
 335  399.1921
 336  285.1235
 337  295.9741
 338  407.2581
 339  442.823
 340  452.4534
 341  556.2734
 342  521.7647
 343  439.2635
 344  403.1345
 345  386.786
 346  459.742
 347  462.2075
 348  545.6346
 349  469.9734
 350  496.3402
 351  448.7269
 352  327.756
 353  404.7238
 354  324.4672
 355  278.9912
 356  318.3105
 357  474.3792
 358  524.0179
 359  429.2649
 360  346.356
 361  285.2852
 362  425.795
 363  456.9983
 364  419.5316
 365  431.4658
 366  376.3773
 367  337.7356
 368  290.3987
 369  383.855
 370  466.1621
 371  450.1463
 372  539.7872
 373  379.0179
 374  530.5216
 375  646.4016
 376  530.1526
 377  409.4765
 378  422.9689
 379  398.1898
 380  297.1881
 381  276.4825
 382  238.0864
 383  437.5422
 384  373.3128
 385  407.5437
 386  290.8539
 387  341.8694
 388  382.6485
 389  351.117
 390  530.3065
 391  501.5458
 392  340.287
 393  464.321
 394  492.0899
 395  386.1569
 396  404.82
 397  366.0807
 398  481.1651
 399  536.4341
 400  548.1116
 401  385.3235
 402  286.1924
 403  313.6895
 404  482.6918
 405  399.8518
 406  401.1713
 407  514.8093
 408  514.2061
 409  280.4969
 410  256.726
 411  342.3181
 412  337.194
 413  419.7305
 414  567.2893
 415  529.7754
 416  362.1435
 417  391.9536
 418  489.8585
 419  356.3072
 420  317.3036
 421  210.222
 422  191.1583
 423  421.2234
 424  570.2943
 425  569.7598
 426  398.9381
 427  300.5915
 428  280.3133
 429  295.9394
 430  349.4602
 431  293.5566
 432  421.4235
 433  545.5676
 434  372.4574
 435  297.7787
 436  380.0585
 437  390.3507
 438  384.7511
 439  489.5471
 440  497.7438
 441  451.6413
 442  494.3075
 443  524.8907
 444  438.6858
 445  320.5811
 446  342.9066
 447  428.8847
 448  403.7404
 449  508.7669
 450  361.2006
 451  241.5829
 452  302.7922
 453  278.3312
 454  367.9346
 455  343.3243
 456  307.4982
 457  357.3008
 458  445.2294
 459  518.0381
 460  366.8982
 461  259.0867
 462  394.4713
 463  414.4093
 464  405.7227
 465  310.8791
 466  472.0515
 467  425.7033
 468  336.4517
 469  316.6372
 470  346.0793
 471  328.5627
 472  435.6883
 473  525.9409
 474  563.8649
 475  443.0174
 476  406.3099
 477  290.5481
 478  346.5306
 479  494.0988
 480  441.3758
 481  286.9766
 482  307.6962
 483  431.5765
 484  522.8744
 485  397.9191
 486  245.5151
 487  449.6301
 488  447.1033
 489  459.1327
 490  398.0117
 491  517.5161
 492  354.7121
 493  288.1894
 494  274.857
 495  365.708
 496  447.5063
 497  388.0461
 498  348.7134
 499  443.0026
 500  515.5144
 501  395.3588
 502  348.6372
 503  273.3349
 504  187.2676
 505  362.5876
 506  442.9345
 507  671.325
 508  828.2037
 509  866.2875
 510  878.3609
 511  1006.52
