# Input file       =  1208412144.103333_cleaned.dat
# Candidate        =  PSR_0332+5434
# Telescope        =  AR
# Epoch_topo       =  58230.251887770057
# Epoch_bary       =  N/A
# T_sample         =  0.002
# Data Folded      =  7208960
# Data Avg         =  0.0314354007122698
# Data StdDev      =  1.00007993276574 
# Profile Bins     =  512
# Profile Avg      =  442.632517786793 
# Profile StdDev   =  118.668660549632 
# Reduced chi-sqr  =  2.141
# Prob(Noise)      <  1.66e-44   (~13.9 sigma)
# P_topo (ms)      =  714.554314435855  +/- 0.00015
# P'_topo (s/s)    =  -0                +/- 8.04e-11
# P''_topo (s/s^2) =  0                 +/- 3.61e-14
# P_bary (ms)      =  N/A
# P'_bary (s/s)    =  N/A
# P''_bary (s/s^2) =  N/A
# P_orb (s)        =  N/A
# asin(i)/c (s)    =  N/A
# eccentricity     =  N/A
# w (rad)          =  N/A
# T_peri           =  N/A
######################################################
   0  643.959
   1  642.144
   2  541.1972
   3  477.4338
   4  583.5987
   5  579.0168
   6  624.7941
   7  512.4387
   8  497.0803
   9  383.6509
  10  364.31
  11  501.8353
  12  509.7676
  13  515.0356
  14  483.4259
  15  436.4686
  16  401.267
  17  323.3699
  18  280.6656
  19  378.8655
  20  277.9774
  21  401.4837
  22  553.1342
  23  512.1725
  24  394.5053
  25  360.6358
  26  431.62
  27  468.9553
  28  436.5184
  29  418.3272
  30  424.6955
  31  460.7506
  32  526.4508
  33  570.2728
  34  602.5727
  35  521.3361
  36  490.8204
  37  417.1639
  38  543.4958
  39  398.0416
  40  288.6687
  41  230.4352
  42  304.7745
  43  389.2007
  44  480.3524
  45  429.225
  46  563.4203
  47  510.7676
  48  467.5735
  49  472.2975
  50  285.8029
  51  346.1808
  52  474.3501
  53  380.1229
  54  350.6741
  55  422.2025
  56  368.3567
  57  400.0335
  58  282.1274
  59  303.71
  60  406.1409
  61  484.09
  62  413.8229
  63  415.7589
  64  624.4222
  65  600.0233
  66  484.4818
  67  399.5742
  68  318.416
  69  442.7639
  70  418.8842
  71  390.0806
  72  406.4439
  73  316.7305
  74  396.8308
  75  321.0856
  76  247.6275
  77  381.5165
  78  377.1637
  79  520.2524
  80  518.8759
  81  298.8288
  82  315.2534
  83  422.9187
  84  345.8451
  85  323.2274
  86  442.6685
  87  551.3812
  88  581.8383
  89  432.1783
  90  390.593
  91  454.7735
  92  498.3586
  93  328.1218
  94  431.3357
  95  514.1116
  96  502.3176
  97  395.8471
  98  378.989
  99  378.2684
 100  299.2834
 101  353.4064
 102  439.5506
 103  588.9766
 104  553.9639
 105  387.1746
 106  339.8768
 107  398.492
 108  350.1724
 109  369.7307
 110  454.0678
 111  367.6919
 112  444.4133
 113  528.2629
 114  400.6696
 115  440.7653
 116  519.3168
 117  433.2015
 118  432.7785
 119  385.5458
 120  508.6906
 121  468.7978
 122  385.9604
 123  494.1315
 124  411.4184
 125  409.3185
 126  425.9574
 127  394.4298
 128  439.4379
 129  483.4337
 130  518.2228
 131  422.7213
 132  420.588
 133  348.2543
 134  308.7466
 135  437.191
 136  439.2942
 137  455.781
 138  379.4642
 139  300.7839
 140  303.4061
 141  384.3352
 142  354.1012
 143  463.6531
 144  374.7972
 145  541.4415
 146  410.2744
 147  343.2634
 148  486.7361
 149  559.8372
 150  434.4464
 151  414.299
 152  400.4412
 153  334.445
 154  447.8174
 155  535.7001
 156  422.506
 157  206.4828
 158  227.2847
 159  325.7483
 160  320.017
 161  406.4105
 162  471.7755
 163  486.7243
 164  465.6817
 165  311.3468
 166  342.348
 167  372.9607
 168  391.8126
 169  388.2361
 170  467.2402
 171  578.6172
 172  484.4912
 173  309.6595
 174  258.1538
 175  390.741
 176  487.9909
 177  315.9175
 178  426.4464
 179  496.0761
 180  417.5956
 181  306.2055
 182  298.2406
 183  374.3327
 184  398.9002
 185  430.7944
 186  484.16
 187  496.5619
 188  509.2162
 189  351.1201
 190  312.0508
 191  405.2396
 192  298.0829
 193  299.9561
 194  383.5146
 195  483.6548
 196  592.5088
 197  473.6739
 198  281.1342
 199  294.9977
 200  334.996
 201  146.5934
 202  119.3727
 203  356.8865
 204  357.8604
 205  300.3826
 206  374.2427
 207  353.8006
 208  390.6939
 209  424.5215
 210  314.4681
 211  358.748
 212  404.7701
 213  383.3413
 214  362.9163
 215  351.1178
 216  383.2962
 217  440.7852
 218  368.0322
 219  482.2238
 220  406.1668
 221  434.1816
 222  379.8927
 223  321.3781
 224  330.3525
 225  446.634
 226  371.071
 227  443.7901
 228  517.3384
 229  573.3144
 230  607.5055
 231  433.0641
 232  442.3329
 233  548.4298
 234  445.0457
 235  393.6668
 236  314.1533
 237  354.9258
 238  378.3296
 239  445.0829
 240  403.8173
 241  335.414
 242  316.8589
 243  284.6425
 244  473.8747
 245  512.6168
 246  609.2737
 247  502.2339
 248  409.8431
 249  492.4792
 250  467.146
 251  529.9315
 252  470.8262
 253  475.246
 254  446.1934
 255  352.5871
 256  276.6127
 257  377.0135
 258  403.1281
 259  381.7596
 260  445.8683
 261  376.7238
 262  363.0009
 263  347.3972
 264  387.9568
 265  470.5118
 266  385.8096
 267  378.4579
 268  476.7408
 269  333.0476
 270  377.8821
 271  439.5683
 272  408.413
 273  278.5111
 274  344.3448
 275  429.8337
 276  398.801
 277  412.1517
 278  405.9295
 279  398.1096
 280  280.1588
 281  354.915
 282  479.2408
 283  444.9526
 284  293.7119
 285  387.7393
 286  353.7448
 287  179.3401
 288  127.4308
 289  163.1398
 290  416.7844
 291  490.0341
 292  311.9762
 293  388.4542
 294  479.0087
 295  498.5579
 296  432.1978
 297  300.1653
 298  323.806
 299  320.2678
 300  379.5887
 301  332.2141
 302  331.8268
 303  374.4377
 304  424.1902
 305  405.6508
 306  408.5617
 307  336.9571
 308  369.5789
 309  467.765
 310  373.435
 311  442.7389
 312  317.1485
 313  368.9427
 314  448.9391
 315  482.2676
 316  434.0835
 317  380.7863
 318  444.2267
 319  555.9565
 320  406.5539
 321  374.8452
 322  346.905
 323  405.3752
 324  371.9716
 325  383.1804
 326  461.6093
 327  531.6557
 328  472.9755
 329  478.1214
 330  360.7789
 331  339.9769
 332  391.2663
 333  476.2621
 334  464.4182
 335  487.2094
 336  537.5459
 337  579.0038
 338  380.1146
 339  388.8174
 340  515.3108
 341  503.0773
 342  425.3488
 343  358.1165
 344  235.036
 345  221.0898
 346  286.0366
 347  265.9043
 348  327.8546
 349  261.0036
 350  356.669
 351  245.5852
 352  333.9232
 353  332.7883
 354  280.1294
 355  337.4433
 356  403.3788
 357  372.3583
 358  368.4226
 359  434.8534
 360  415.8578
 361  398.2025
 362  447.704
 363  369.4938
 364  343.3955
 365  388.44
 366  375.3219
 367  382.0519
 368  343.1498
 369  337.6373
 370  315.5566
 371  320.9084
 372  367.3138
 373  370.1921
 374  331.3541
 375  339.8439
 376  503.3115
 377  409.4529
 378  531.0145
 379  582.5956
 380  579.3527
 381  540.36
 382  418.6083
 383  387.4059
 384  459.1393
 385  530.5268
 386  499.1513
 387  447.0475
 388  451.4842
 389  351.6142
 390  329.9167
 391  438.5493
 392  481.7776
 393  563.5718
 394  583.2254
 395  588.4585
 396  446.7003
 397  423.726
 398  389.3927
 399  457.9419
 400  455.4396
 401  498.6547
 402  646.675
 403  605.4363
 404  604.0167
 405  469.7774
 406  485.5719
 407  638.6551
 408  588.4692
 409  578.2869
 410  515.3691
 411  576.7575
 412  511.0061
 413  629.5068
 414  667.986
 415  691.0789
 416  617.6124
 417  627.2919
 418  602.3274
 419  526.7913
 420  492.0894
 421  599.858
 422  605.3763
 423  446.5692
 424  446.1551
 425  478.614
 426  596.9799
 427  595.8631
 428  688.3522
 429  618.1611
 430  600.4594
 431  523.335
 432  483.4201
 433  485.8077
 434  586.4223
 435  504.5207
 436  490.1858
 437  379.2462
 438  536.4976
 439  580.2776
 440  556.6175
 441  366.9721
 442  600.5403
 443  721.9896
 444  604.1674
 445  584.3916
 446  638.2234
 447  562.6495
 448  507.221
 449  509.9818
 450  523.5448
 451  410.8553
 452  479.9276
 453  492.0162
 454  309.6295
 455  435.7012
 456  427.4054
 457  369.9147
 458  339.8826
 459  439.1449
 460  480.6104
 461  517.1688
 462  489.4497
 463  487.5869
 464  490.6611
 465  474.7471
 466  472.049
 467  455.9456
 468  561.7012
 469  588.916
 470  500.838
 471  430.0685
 472  472.424
 473  570.2641
 474  652.5087
 475  625.1467
 476  562.0196
 477  413.7159
 478  312.8717
 479  424.5472
 480  425.3484
 481  455.7776
 482  606.217
 483  627.9172
 484  527.1282
 485  557.0173
 486  517.0436
 487  345.8466
 488  422.4101
 489  420.5801
 490  303.4227
 491  424.1995
 492  470.3187
 493  460.9947
 494  463.952
 495  547.0994
 496  509.5354
 497  516.5986
 498  640.7375
 499  736.3621
 500  813.7827
 501  1139.379
 502  1448.549
 503  1338.274
 504  1096.51
 505  907.4442
 506  708.1628
 507  536.0731
 508  541.7575
 509  558.7997
 510  566.0539
 511  541.8484
