# Input file       =  1208441724.10273_cleaned.dat
# Candidate        =  PSR_0332+5434
# Telescope        =  AR
# Epoch_topo       =  58230.594248874193
# Epoch_bary       =  N/A
# T_sample         =  0.002
# Data Folded      =  7340032
# Data Avg         =  0.182748956389592
# Data StdDev      =  4.68098738784448 
# Profile Bins     =  512
# Profile Avg      =  2619.91461078023 
# Profile StdDev   =  560.468833187967 
# Reduced chi-sqr  =  1.427
# Prob(Noise)      <  6.51e-10   (~6.1 sigma)
# P_topo (ms)      =  714.554390085525  +/- 0.000238
# P'_topo (s/s)    =  -0                +/- 1.26e-10
# P''_topo (s/s^2) =  0                 +/- 5.55e-14
# P_bary (ms)      =  N/A
# P'_bary (s/s)    =  N/A
# P''_bary (s/s^2) =  N/A
# P_orb (s)        =  N/A
# asin(i)/c (s)    =  N/A
# eccentricity     =  N/A
# w (rad)          =  N/A
# T_peri           =  N/A
######################################################
   0  2913.973
   1  2894.715
   2  2855.99
   3  2729.482
   4  2380.907
   5  2406.224
   6  2534.931
   7  2893.885
   8  2669.679
   9  2485.4
  10  2758.167
  11  2362.644
  12  1904.886
  13  2049.766
  14  2020.475
  15  2007.15
  16  1915.474
  17  2187.555
  18  1968.187
  19  1720.011
  20  1904.494
  21  2181.747
  22  2379.106
  23  2318.102
  24  2191.64
  25  2200.761
  26  2175.143
  27  2485.558
  28  2097.28
  29  2456.889
  30  2839.347
  31  2996.966
  32  2901.591
  33  2499.618
  34  2593.493
  35  2862.809
  36  2773.404
  37  2835.202
  38  2952.007
  39  2868.38
  40  2789.923
  41  2755.469
  42  2654.302
  43  2538.212
  44  2725.536
  45  2523.389
  46  2586.039
  47  2781.047
  48  2941.739
  49  3128.601
  50  2983.739
  51  2760.749
  52  2939.437
  53  3103.251
  54  2616.402
  55  2617.402
  56  2442.204
  57  2504.566
  58  2742.076
  59  2821.062
  60  2728.9
  61  2759.707
  62  2758.098
  63  3187.484
  64  3076.847
  65  3032.816
  66  3191.354
  67  3478.796
  68  3601.267
  69  3299.014
  70  3291.398
  71  3447.339
  72  3326.14
  73  3272.959
  74  3236.025
  75  3049.521
  76  2980.325
  77  3170.74
  78  3079.238
  79  2606.879
  80  2733.954
  81  3056.573
  82  3049.574
  83  2874.875
  84  2630.285
  85  2757.873
  86  3074.306
  87  3427.035
  88  2831.873
  89  2621.376
  90  2663.087
  91  2446.078
  92  2099.707
  93  2285.772
  94  2381.194
  95  2494.323
  96  2154.849
  97  1860.361
  98  1827.538
  99  2037.439
 100  2181.855
 101  2078.711
 102  2136.983
 103  2243.843
 104  2213.188
 105  2568.421
 106  2534.556
 107  2705.37
 108  2990.92
 109  2681.684
 110  2600.486
 111  2700.117
 112  2704.985
 113  3008.509
 114  3088.517
 115  2945.075
 116  2771.756
 117  2806.22
 118  3035.107
 119  3037.33
 120  2961.979
 121  2996.074
 122  2568.483
 123  2911.513
 124  2845.249
 125  3099.001
 126  3214.658
 127  2904.843
 128  3081.438
 129  3018.294
 130  3110.717
 131  2943.517
 132  2936.174
 133  3459.116
 134  3050.484
 135  3376.438
 136  3596.552
 137  3595.415
 138  3537.254
 139  3210.834
 140  3299.551
 141  3060.699
 142  3043.191
 143  3304.908
 144  3234.143
 145  3319.516
 146  3185.624
 147  2606.898
 148  2524.227
 149  3059.757
 150  3328.56
 151  2906.904
 152  2892.818
 153  2930.408
 154  3047.592
 155  2803.4
 156  2547.919
 157  2699.144
 158  2632.078
 159  2389.838
 160  2759.384
 161  2934.715
 162  2309.736
 163  2141.219
 164  2221.722
 165  2322.368
 166  2118.404
 167  2013.031
 168  2317.904
 169  2210.134
 170  2096.929
 171  2193.333
 172  2203.869
 173  2080.419
 174  2058.26
 175  2057.965
 176  2509.406
 177  2157.242
 178  2405.258
 179  2661.751
 180  2644.019
 181  2428.618
 182  2235.099
 183  2236.692
 184  2268.941
 185  2591.44
 186  2670.142
 187  2656.513
 188  3028.731
 189  2695.638
 190  2696.725
 191  2915.087
 192  2981.561
 193  2659.222
 194  2865.839
 195  2546.367
 196  2889.08
 197  3227.552
 198  2916.105
 199  2983.586
 200  3203.671
 201  2904.891
 202  2675.972
 203  2833.261
 204  2720.072
 205  3041.341
 206  3006.403
 207  3151.976
 208  2524.208
 209  2535.558
 210  2779.182
 211  2274.455
 212  2863.302
 213  3283.96
 214  2933.305
 215  2838.34
 216  2538.901
 217  2818.477
 218  2865.688
 219  2890.565
 220  3051.064
 221  2519.436
 222  2825.052
 223  2417.368
 224  2105.019
 225  2047.682
 226  2512.989
 227  2455.889
 228  2046.745
 229  2255.533
 230  2155.792
 231  2066.477
 232  1655.031
 233  1859.852
 234  1699.838
 235  1870.06
 236  2081.847
 237  2070.795
 238  2139.797
 239  1739.264
 240  1954.584
 241  1959.76
 242  2024.667
 243  1850.425
 244  1723.314
 245  1876.531
 246  1758.651
 247  1891.39
 248  1811.885
 249  1800.624
 250  2025.047
 251  1972.716
 252  2055.126
 253  2101.532
 254  2384.096
 255  2176.702
 256  1541.694
 257  1480.189
 258  1965.075
 259  2197.672
 260  2405.693
 261  2478.931
 262  2214.37
 263  1904.41
 264  1616.932
 265  1992.511
 266  2092.035
 267  2032.491
 268  2709.749
 269  2605.822
 270  2206.24
 271  2622.421
 272  2266.094
 273  2213.564
 274  2279.7
 275  2282.956
 276  2176.142
 277  2229.869
 278  2634.281
 279  2376.844
 280  2316.04
 281  2549.317
 282  2840.873
 283  2825.959
 284  2930.035
 285  2792.436
 286  3094.769
 287  3014.44
 288  2720.32
 289  2574.055
 290  2431.963
 291  2815.943
 292  2800.964
 293  2747.585
 294  3076.152
 295  2902.969
 296  3132.104
 297  3077.415
 298  3573.314
 299  4059.005
 300  4467.855
 301  4440.454
 302  4382.049
 303  4247.746
 304  3354.382
 305  2368.603
 306  2064.448
 307  2209.312
 308  2398.518
 309  1959.847
 310  2062.967
 311  1915.236
 312  1645.083
 313  1765.049
 314  1811.689
 315  1855.546
 316  1680.606
 317  1585.249
 318  1750.191
 319  1599.301
 320  1480.593
 321  1471.906
 322  1753.575
 323  1637.826
 324  1820.142
 325  2039.051
 326  1836.213
 327  1768.111
 328  1534.243
 329  2247.726
 330  2221.302
 331  2087.584
 332  2507.087
 333  2508.184
 334  2855.847
 335  2571.878
 336  2205.448
 337  2276.128
 338  2163.386
 339  2416.418
 340  2849.024
 341  2883.993
 342  3105.413
 343  2847.004
 344  2942.707
 345  2916.407
 346  3221.792
 347  3140.584
 348  2945.622
 349  2631.275
 350  2847.991
 351  3068.963
 352  3209.445
 353  3305.556
 354  3486.728
 355  3450.692
 356  3114.617
 357  3267.355
 358  3165.433
 359  3433.132
 360  3527.933
 361  3356.06
 362  3259.614
 363  3116.711
 364  3273.822
 365  3276.209
 366  2971.928
 367  2919.859
 368  2895.221
 369  2923.604
 370  2752.479
 371  2693.13
 372  2345.318
 373  2031.914
 374  2310.392
 375  1830.147
 376  2071.116
 377  2544.407
 378  2568.763
 379  2499.258
 380  2442.559
 381  2315.018
 382  1948.444
 383  2097.584
 384  2290.029
 385  2333.678
 386  1727.456
 387  1728.7
 388  1899.548
 389  1884.509
 390  2060.925
 391  1930.102
 392  2046.016
 393  2063.862
 394  2042.097
 395  2144.584
 396  2115.694
 397  2128.145
 398  2367.614
 399  2472.521
 400  2572.362
 401  2839.801
 402  2621.567
 403  2891.669
 404  2626.239
 405  2535.134
 406  2683.359
 407  2764.813
 408  2648.857
 409  2732.505
 410  2717.347
 411  2912.219
 412  3012.362
 413  2687.831
 414  2770.689
 415  2781.459
 416  2857.923
 417  3161.923
 418  3030.778
 419  2778.962
 420  3071.81
 421  3141.669
 422  3037.625
 423  2580.46
 424  2861.71
 425  3036.359
 426  3005.076
 427  3248.15
 428  3256.503
 429  2882.861
 430  2863.349
 431  2782.933
 432  3245.428
 433  3336.799
 434  3263.468
 435  3185.813
 436  3221.75
 437  3082.663
 438  2721.431
 439  2772.415
 440  2720.754
 441  2844.584
 442  3354.235
 443  3169.178
 444  3123.533
 445  3081.464
 446  2768.996
 447  2874.92
 448  2664.048
 449  2687.147
 450  2842.632
 451  2638.704
 452  2899.123
 453  2531.937
 454  2407.791
 455  2868.581
 456  2519.081
 457  2533.732
 458  2274.378
 459  2293.775
 460  2535.142
 461  2473.948
 462  2088.236
 463  1832.432
 464  1909.971
 465  2262.387
 466  2172.186
 467  2411.428
 468  2641.762
 469  2867.79
 470  2602.186
 471  2807.973
 472  2817.805
 473  2366.267
 474  2287.166
 475  2320.976
 476  2022.327
 477  2079.5
 478  2572.306
 479  2852.066
 480  2614.132
 481  2742.563
 482  2673.519
 483  3080.346
 484  2688.571
 485  2395.735
 486  2662.323
 487  2522.817
 488  2460.955
 489  2513.842
 490  2555.258
 491  2721.207
 492  2928.347
 493  2498.538
 494  2842.297
 495  2800.774
 496  2770.468
 497  2729.679
 498  2909.238
 499  2624.328
 500  2723.381
 501  3073.385
 502  3369.544
 503  3044.621
 504  2809.81
 505  2933.654
 506  3218.198
 507  3055.958
 508  2753.921
 509  2483.813
 510  2562.815
 511  2758.841
