# Input file       =  1208239734.114344-PSRB0329-2ms-sampling-dd.dat
# Candidate        =  PSR_0332+5434
# Telescope        =  AR
# Epoch_topo       =  58228.256401786384
# Epoch_bary       =  N/A
# T_sample         =  0.002
# Data Folded      =  7208960
# Data Avg         =  7.15602843025469e-10
# Data StdDev      =  7.43100594835952 
# Profile Bins     =  512
# Profile Avg      =  -0.0717880433461561
# Profile StdDev   =  881.757041149163 
# Reduced chi-sqr  =  1.041
# Prob(Noise)      <  0.252   (~0.7 sigma)
# P_topo (ms)      =  714.555971495361  +/- 4.52e-05
# P'_topo (s/s)    =  -0                +/- 2.43e-11
# P''_topo (s/s^2) =  0                 +/- 1.09e-14
# P_bary (ms)      =  N/A
# P'_bary (s/s)    =  N/A
# P''_bary (s/s^2) =  N/A
# P_orb (s)        =  N/A
# asin(i)/c (s)    =  N/A
# eccentricity     =  N/A
# w (rad)          =  N/A
# T_peri           =  N/A
######################################################
   0  -296.3818
   1  -308.0129
   2  -285.9867
   3  -88.34931
   4  97.61925
   5  -96.44549
   6  -538.0182
   7  -1061.142
   8  -1046.805
   9  -841.2542
  10  -1083.36
  11  -841.1293
  12  -486.8318
  13  273.3286
  14  408.5782
  15  377.8842
  16  576.0894
  17  643.2338
  18  710.1038
  19  388.5551
  20  -185.616
  21  -85.73892
  22  673.7877
  23  1069.075
  24  1556.365
  25  1067.844
  26  441.8102
  27  -169.4218
  28  140.5471
  29  381.6582
  30  39.56242
  31  435.3922
  32  735.829
  33  -32.90867
  34  -145.47
  35  -552.4805
  36  -652.6333
  37  -517.3497
  38  -456.4694
  39  -359.4533
  40  -565.0261
  41  -1053.909
  42  -1286.202
  43  -724.092
  44  -311.1767
  45  66.67224
  46  274.67
  47  255.2583
  48  105.9808
  49  1.519478
  50  339.7923
  51  356.4548
  52  205.7705
  53  88.55142
  54  -78.40508
  55  60.58345
  56  -67.3225
  57  -319.9346
  58  -422.7369
  59  -387.6509
  60  182.517
  61  713.6654
  62  584.1359
  63  527.2096
  64  220.5201
  65  -101.8007
  66  -210.2817
  67  -576.2899
  68  -515.4329
  69  -494.3974
  70  -316.3123
  71  255.305
  72  -508.3301
  73  -820.7
  74  -1171.633
  75  -1083.164
  76  -786.1936
  77  -381.2461
  78  657.9581
  79  1130.022
  80  661.5562
  81  -202.0064
  82  -568.1776
  83  -408.4365
  84  -241.4071
  85  1.436572
  86  219.8242
  87  98.57972
  88  -60.38014
  89  -30.98853
  90  -171.8837
  91  -149.9303
  92  112.8998
  93  184.5596
  94  313.9034
  95  712.5925
  96  660.0565
  97  427.882
  98  582.2184
  99  985.7955
 100  927.2567
 101  937.5874
 102  720.7332
 103  -0.6532315
 104  293.1467
 105  266.9135
 106  -63.5581
 107  -62.0606
 108  -180.4138
 109  -474.7823
 110  -40.91835
 111  -42.35582
 112  1213.726
 113  1351.917
 114  1230.077
 115  975.375
 116  -67.44525
 117  -368.6744
 118  -341.5049
 119  165.7334
 120  62.35572
 121  -410.8821
 122  -589.0146
 123  -807.133
 124  -804.984
 125  -691.8224
 126  -255.708
 127  -166.1632
 128  -15.67613
 129  413.6686
 130  760.6843
 131  -2.297243
 132  30.13547
 133  170.7513
 134  11.76091
 135  -432.9329
 136  -420.3083
 137  139.5938
 138  -164.6911
 139  -629.6964
 140  -888.1186
 141  -990.7399
 142  -742.3497
 143  -273.2545
 144  410.3192
 145  842.655
 146  349.6912
 147  -44.48382
 148  -2.558337
 149  -245.5063
 150  -137.4153
 151  21.68185
 152  346.7021
 153  336.1022
 154  39.93291
 155  -142.3182
 156  -296.1191
 157  -693.7378
 158  -654.8022
 159  -205.6891
 160  532.5511
 161  726.4726
 162  472.0802
 163  -60.36247
 164  -309.7746
 165  -615.001
 166  -378.4012
 167  -380.8275
 168  -203.2469
 169  -113.6364
 170  -368.178
 171  -197.5099
 172  -771.158
 173  -1189.925
 174  -951.9227
 175  -1008.14
 176  -851.6506
 177  -104.2691
 178  202.3604
 179  606.5865
 180  506.573
 181  70.38239
 182  -197.7979
 183  -579.4692
 184  -603.152
 185  -504.2115
 186  105.2249
 187  107.1774
 188  194.2764
 189  123.623
 190  -531.2207
 191  -576.9376
 192  -307.0023
 193  284.0034
 194  190.439
 195  314.6141
 196  345.293
 197  262.7237
 198  109.0125
 199  -401.4541
 200  -357.4102
 201  -97.36434
 202  -197.3577
 203  181.9251
 204  -62.04069
 205  -980.0679
 206  -1032.529
 207  -974.7935
 208  -845.701
 209  -366.4182
 210  -27.93311
 211  304.386
 212  376.3896
 213  263.9955
 214  105.466
 215  321.0353
 216  219.8306
 217  -139.9395
 218  -52.76348
 219  911.4557
 220  1132.457
 221  695.7375
 222  318.1254
 223  -117.2032
 224  -546.3919
 225  -699.1353
 226  123.3207
 227  566.7264
 228  549.873
 229  393.4934
 230  212.0749
 231  -310.9265
 232  -466.6429
 233  -85.44568
 234  -68.03907
 235  -16.91389
 236  116.9717
 237  -185.9585
 238  -717.3056
 239  -869.9529
 240  -625.7573
 241  -521.3079
 242  -101.4265
 243  -108.3636
 244  698.7654
 245  826.8631
 246  544.8593
 247  287.515
 248  352.7267
 249  175.9465
 250  330.851
 251  1176.776
 252  2076.234
 253  2298.329
 254  1388.329
 255  444.8974
 256  -437.3102
 257  -566.8941
 258  -491.6983
 259  -92.56798
 260  1035.689
 261  1376.747
 262  1303.605
 263  630.9183
 264  -575.856
 265  -874.7636
 266  -1270.982
 267  -850.4589
 268  -362.1182
 269  87.16817
 270  -95.77828
 271  -593.3857
 272  -1206.568
 273  -1351.793
 274  -1085.363
 275  -955.09
 276  -697.5897
 277  -268.4787
 278  346.123
 279  -173.3936
 280  -63.61168
 281  -333.3001
 282  -585.7097
 283  -830.4862
 284  -814.5596
 285  -438.1686
 286  -624.4391
 287  -712.5267
 288  -799.1404
 289  -1118.927
 290  -1201.78
 291  -1198.313
 292  -975.0752
 293  -360.7851
 294  -13.03341
 295  68.31573
 296  -11.16717
 297  -82.21358
 298  -665.7482
 299  -1106.645
 300  -929.7685
 301  -150.029
 302  728.0737
 303  739.1544
 304  -39.45333
 305  -577.5664
 306  -612.3315
 307  -604.6626
 308  -73.62007
 309  360.3215
 310  567.9387
 311  723.5806
 312  111.2953
 313  56.86307
 314  -43.41697
 315  -126.7289
 316  -537.1976
 317  -186.5786
 318  0.08244444
 319  -135.6915
 320  -816.6896
 321  -1115.585
 322  -967.8519
 323  -1113.372
 324  -1006.976
 325  -211.706
 326  224.3885
 327  454.4019
 328  251.7599
 329  -46.06307
 330  -293.3425
 331  -594.7328
 332  -750.874
 333  -584.3068
 334  -291.1667
 335  434.0297
 336  964.6595
 337  403.6289
 338  -322.8091
 339  -1023.176
 340  -1141.058
 341  -621.1875
 342  -395.2049
 343  231.2001
 344  851.3845
 345  896.9624
 346  204.0706
 347  -84.51384
 348  -566.4467
 349  -888.7292
 350  -515.5048
 351  112.0289
 352  218.0876
 353  56.57894
 354  -21.47187
 355  -463.5818
 356  -793.2379
 357  -537.6219
 358  -522.4669
 359  365.1699
 360  451.5204
 361  675.6717
 362  529.7822
 363  354.5682
 364  -137.2696
 365  -654.4026
 366  -529.8441
 367  -506.7723
 368  -336.9081
 369  -177.1616
 370  -55.96536
 371  -132.2885
 372  -741.3636
 373  -350.0299
 374  -416.2586
 375  62.47361
 376  109.7687
 377  229.445
 378  70.21378
 379  -142.7729
 380  -148.4334
 381  -235.5757
 382  -454.7189
 383  -469.774
 384  353.0828
 385  161.6149
 386  -547.4211
 387  -677.3457
 388  -606.0742
 389  -477.9241
 390  -259.6505
 391  67.28146
 392  315.2894
 393  172.9443
 394  -171.3323
 395  -220.6395
 396  -316.9325
 397  58.04042
 398  -323.2242
 399  111.1764
 400  43.82262
 401  -336.0816
 402  -465.1207
 403  -761.8532
 404  -982.0108
 405  -822.1044
 406  -1240.958
 407  -692.1407
 408  -237.7436
 409  190.1829
 410  649.0261
 411  161.109
 412  -423.6479
 413  -538.9222
 414  -343.9247
 415  -237.2924
 416  -170.1075
 417  552.1714
 418  679.5157
 419  230.3551
 420  -316.4359
 421  -419.5278
 422  -779.0321
 423  -989.649
 424  -476.111
 425  699.063
 426  1770
 427  1166.306
 428  817.358
 429  739.1797
 430  334.4902
 431  290.6787
 432  606.1622
 433  1363.272
 434  1929.953
 435  1987.58
 436  974.4175
 437  -9.759807
 438  -691.4467
 439  -737.987
 440  236.5042
 441  134.9152
 442  801.2892
 443  1057.238
 444  1158.077
 445  640.8633
 446  240.5114
 447  435.0377
 448  49.72871
 449  475.6566
 450  554.6198
 451  411.111
 452  54.64461
 453  -135.8468
 454  110.3015
 455  157.2272
 456  526.0422
 457  519.3286
 458  667.6438
 459  742.3677
 460  757.8062
 461  488.8132
 462  428.4165
 463  171.9001
 464  -290.3387
 465  -277.1353
 466  560.2104
 467  467.8408
 468  -83.76355
 469  211.0565
 470  43.76547
 471  116.7854
 472  42.7287
 473  814.0225
 474  1176.749
 475  948.305
 476  1005.845
 477  361.8759
 478  195.4643
 479  320.1345
 480  644.5146
 481  850.0464
 482  1097.798
 483  1284.746
 484  2020.167
 485  1592.145
 486  815.1973
 487  132.5008
 488  -177.2635
 489  1024.893
 490  1948.312
 491  3033.527
 492  2737.401
 493  1322.458
 494  796.9672
 495  -158.0686
 496  -609.9361
 497  -980.1351
 498  -668.1522
 499  -78.36828
 500  366.8286
 501  -257.3336
 502  -204.5526
 503  -649.3494
 504  -750.09
 505  -786.7541
 506  -494.0929
 507  591.941
 508  1022.676
 509  1350.73
 510  958.6208
 511  236.175
