# Input file       =  1208269331.106611_cleaned.dat
# Candidate        =  PSR_0332+5434
# Telescope        =  AR
# Epoch_topo       =  58228.598959567258
# Epoch_bary       =  N/A
# T_sample         =  0.002
# Data Folded      =  7340032
# Data Avg         =  0.228121008127345
# Data StdDev      =  5.85411771923122 
# Profile Bins     =  512
# Profile Avg      =  3270.19443662995 
# Profile StdDev   =  700.931289830582 
# Reduced chi-sqr  =  1.611
# Prob(Noise)      <  5.24e-17   (~8.3 sigma)
# P_topo (ms)      =  714.556049992216  +/- 0.000197
# P'_topo (s/s)    =  -0                +/- 1.04e-10
# P''_topo (s/s^2) =  0                 +/- 4.59e-14
# P_bary (ms)      =  N/A
# P'_bary (s/s)    =  N/A
# P''_bary (s/s^2) =  N/A
# P_orb (s)        =  N/A
# asin(i)/c (s)    =  N/A
# eccentricity     =  N/A
# w (rad)          =  N/A
# T_peri           =  N/A
######################################################
   0  3760.456
   1  3524.948
   2  2879.609
   3  2722.61
   4  3032.662
   5  3052.541
   6  2937.342
   7  2556.596
   8  2801.664
   9  2573.639
  10  2584.16
  11  2984.628
  12  2722.252
  13  2610.914
  14  2531.545
  15  2857.586
  16  2801.995
  17  2908.527
  18  2919.478
  19  2551.667
  20  2893.94
  21  3276.955
  22  3125.09
  23  2993.839
  24  2958.473
  25  2458.198
  26  1974.789
  27  2286.344
  28  2819.216
  29  2924.257
  30  2997.105
  31  3315.212
  32  2762.23
  33  2066.072
  34  1917.183
  35  2239.599
  36  2362.922
  37  2563.18
  38  2811.153
  39  2812.372
  40  2595.67
  41  2828.846
  42  2965.018
  43  2821.749
  44  3137.412
  45  2950.616
  46  3179.291
  47  3376.698
  48  3549.836
  49  3766.435
  50  3757.846
  51  3972.318
  52  3994.965
  53  4368.232
  54  4208.229
  55  3966.971
  56  4227.057
  57  4465.186
  58  4311.117
  59  4637.358
  60  4836.128
  61  4374.04
  62  3774.215
  63  3749.433
  64  4213.686
  65  4148.449
  66  4358.24
  67  3952.897
  68  3629.573
  69  3832.626
  70  3206.055
  71  3150.753
  72  3268.792
  73  3258.946
  74  2844.706
  75  2528.628
  76  2518.524
  77  2713.284
  78  2722.01
  79  2668.759
  80  2362.563
  81  2510.951
  82  2420.102
  83  2435.602
  84  2683.779
  85  2522.83
  86  2645.945
  87  2762.625
  88  2673.024
  89  2750.446
  90  2877.761
  91  3266.171
  92  3506.007
  93  3303.527
  94  3278.188
  95  3038.769
  96  3319.995
  97  3192.432
  98  3112.067
  99  3097.309
 100  3186.778
 101  2961.79
 102  2569.273
 103  2871.346
 104  3281.772
 105  2689.877
 106  2675.951
 107  2917.442
 108  3051.987
 109  2827.444
 110  3052.67
 111  3205.635
 112  3035.555
 113  2914.184
 114  2994.412
 115  3307.567
 116  3110.348
 117  3031.073
 118  3365.976
 119  3423.951
 120  3412.402
 121  3881.346
 122  3996.961
 123  3685.931
 124  3714.784
 125  3616.091
 126  3966.377
 127  4186.738
 128  4125.219
 129  3811.437
 130  4078.731
 131  4468.647
 132  4471.77
 133  4307.817
 134  4325.058
 135  4257.646
 136  4094.301
 137  4104.322
 138  4258.775
 139  3940.064
 140  4215.276
 141  4014.646
 142  3561.399
 143  3241.244
 144  3321.882
 145  3296.122
 146  3295.484
 147  3052.312
 148  2968.346
 149  2683.507
 150  2589.648
 151  3181.06
 152  3177.841
 153  2982.286
 154  2430.683
 155  2356.143
 156  2691.836
 157  2718.528
 158  2706.205
 159  2720.783
 160  3240.081
 161  2808.178
 162  2656.059
 163  2530.329
 164  3219.76
 165  3201.007
 166  3236.093
 167  3197.03
 168  3241.306
 169  3623.811
 170  3832.505
 171  3605.251
 172  3810.413
 173  3721.782
 174  3636.619
 175  3710.434
 176  3559.021
 177  3239.489
 178  3203.516
 179  3093.466
 180  2943.974
 181  2987.037
 182  3315.049
 183  3548.211
 184  3429.327
 185  3387.076
 186  3132.936
 187  2916.564
 188  3320.712
 189  3490.397
 190  3303.353
 191  2887.646
 192  3099.082
 193  3081.042
 194  3085.976
 195  3453.263
 196  3569.193
 197  3203.86
 198  3573.104
 199  3386.152
 200  3448.286
 201  4027.013
 202  3875.921
 203  3924.426
 204  3625.168
 205  3989.077
 206  4146.131
 207  4205.825
 208  4016.504
 209  3771.375
 210  3845.089
 211  3436.482
 212  3378.17
 213  3023.875
 214  2818.402
 215  2508.197
 216  2628.344
 217  2549.461
 218  2416.89
 219  2179.981
 220  1986.246
 221  2163.214
 222  2182.398
 223  2166.762
 224  2110.159
 225  2155.003
 226  2083.076
 227  1805.724
 228  1818.675
 229  1769.121
 230  1831.297
 231  1369.876
 232  1803.931
 233  1788.922
 234  2002.36
 235  1897.273
 236  2333.984
 237  2355.632
 238  2530.219
 239  2551.997
 240  2329.344
 241  2540.778
 242  2805.06
 243  2788.563
 244  2383.457
 245  2246.106
 246  2107.406
 247  2457.817
 248  2431.374
 249  2731.614
 250  2756.974
 251  2005.999
 252  2227.165
 253  2260.721
 254  2780.691
 255  3105.784
 256  2916.339
 257  2818.452
 258  2596.099
 259  3000.723
 260  2804.965
 261  3476.982
 262  3475.131
 263  3248.676
 264  3339.257
 265  3087.591
 266  3401.611
 267  3537.519
 268  3440.632
 269  3760.186
 270  3957.395
 271  3933.654
 272  3918.724
 273  4171.777
 274  3718.815
 275  3683.3
 276  4056.902
 277  4187.25
 278  4133.821
 279  4327.49
 280  4010.692
 281  3996.994
 282  4028.217
 283  3929.412
 284  3751.044
 285  3592.465
 286  3279.555
 287  3174.167
 288  3164.362
 289  2996.831
 290  2754.844
 291  3040.017
 292  2875.513
 293  2816.898
 294  2824.779
 295  2079.616
 296  2042.879
 297  2457.651
 298  2783.664
 299  2862.288
 300  2343.907
 301  2520.157
 302  2808.086
 303  3118.285
 304  2760.338
 305  2879.198
 306  2891.88
 307  3068.496
 308  2736.9
 309  3057.072
 310  2901.962
 311  3056.588
 312  3090.723
 313  2914.321
 314  3396.333
 315  3572.768
 316  3175.301
 317  3190.42
 318  3053.076
 319  2972.307
 320  2921.814
 321  2917.953
 322  3493.013
 323  3975.734
 324  3904.107
 325  3320.947
 326  3117.737
 327  3177.25
 328  3551.46
 329  3959.838
 330  3920.269
 331  3541.147
 332  3160.573
 333  3067.954
 334  3222.838
 335  3190.075
 336  3475.156
 337  3291.952
 338  3749.12
 339  3402.301
 340  3162.764
 341  3512.046
 342  3593.735
 343  3844.228
 344  4033.919
 345  4452.304
 346  4605.291
 347  4290.853
 348  4068.191
 349  4446.753
 350  4497.983
 351  4264.981
 352  4221.659
 353  4282.489
 354  4425.453
 355  4255.192
 356  4018.642
 357  3920.056
 358  3633.09
 359  3542.394
 360  4105.967
 361  3917.543
 362  3649.872
 363  3266.612
 364  3396.484
 365  3461.165
 366  3448.676
 367  3252.447
 368  3819.353
 369  4126.149
 370  4161.318
 371  4311.925
 372  4000.282
 373  4136.071
 374  3453.868
 375  2904.229
 376  2645.751
 377  2354.601
 378  2436.24
 379  2923.029
 380  2518.686
 381  2309.681
 382  2346.723
 383  2437.235
 384  2841.206
 385  3155.192
 386  2679.296
 387  2277.123
 388  2516.475
 389  2437.592
 390  3106.359
 391  3080.847
 392  3010.872
 393  3027.239
 394  3116.028
 395  3465.106
 396  3117.752
 397  3272.408
 398  3189.259
 399  2584.561
 400  2996.56
 401  3123.72
 402  3446.222
 403  3600.81
 404  3489.593
 405  3236.068
 406  3322.494
 407  3348.743
 408  3720.833
 409  4294.169
 410  4082.496
 411  3688.936
 412  3817.687
 413  4039.355
 414  3981.324
 415  3927.834
 416  3929.744
 417  4257.298
 418  4191.609
 419  4242.636
 420  4320.595
 421  4215.454
 422  3898.6
 423  3467.029
 424  3512.845
 425  3624.9
 426  3561.887
 427  3804.079
 428  3723.221
 429  3615.392
 430  3499.56
 431  3793.657
 432  4043.17
 433  3611.963
 434  3496.646
 435  3749.55
 436  3893.799
 437  3559.664
 438  3169.789
 439  3069.332
 440  2446.863
 441  2917.529
 442  2969.671
 443  3079.86
 444  2732.241
 445  2660.442
 446  2909.172
 447  3103.129
 448  3103.954
 449  2408.344
 450  2721.593
 451  2999.727
 452  2507.529
 453  2428.722
 454  2678.066
 455  2714.627
 456  2520.667
 457  2736.794
 458  2716.16
 459  2714.779
 460  2842.149
 461  2759.138
 462  2627.777
 463  2769.454
 464  2881.249
 465  3037.128
 466  3098.876
 467  3041.161
 468  2890.518
 469  3087.611
 470  3182.731
 471  3485.565
 472  3601.968
 473  3198.227
 474  3025.221
 475  3495.337
 476  3609.44
 477  3678.117
 478  3834.598
 479  4121.813
 480  3614.166
 481  3690.301
 482  3686.547
 483  3868.06
 484  3567.428
 485  3558.941
 486  3665.199
 487  3760.991
 488  3928.697
 489  4086.704
 490  4057.2
 491  4093.156
 492  4211.331
 493  4294.131
 494  4210.036
 495  4020.874
 496  4005.373
 497  4381.271
 498  4556.137
 499  4669.102
 500  4671.05
 501  4536
 502  4414.874
 503  4499.377
 504  4516.802
 505  4319.753
 506  4444.023
 507  4251.851
 508  4062.551
 509  3639.766
 510  3336.654
 511  3548.454
