# Input file       =  1208096954.114999_cleaned.dat
# Candidate        =  PSR_0332+5434
# Telescope        =  AR
# Epoch_topo       =  58226.603855497677
# Epoch_bary       =  N/A
# T_sample         =  0.002
# Data Folded      =  7340032
# Data Avg         =  0.205173934440869
# Data StdDev      =  5.48250911301007 
# Profile Bins     =  256
# Profile Avg      =  5882.79422425581 
# Profile StdDev   =  928.342763114877 
# Reduced chi-sqr  =  1.037
# Prob(Noise)      <  0.329   (~0.4 sigma)
# P_topo (ms)      =  714.557675049746  +/- 0.000422
# P'_topo (s/s)    =  -0                +/- 2.22e-10
# P''_topo (s/s^2) =  0                 +/- 9.82e-14
# P_bary (ms)      =  N/A
# P'_bary (s/s)    =  N/A
# P''_bary (s/s^2) =  N/A
# P_orb (s)        =  N/A
# asin(i)/c (s)    =  N/A
# eccentricity     =  N/A
# w (rad)          =  N/A
# T_peri           =  N/A
######################################################
   0  5514.387
   1  4466.296
   2  4727.347
   3  5163.406
   4  5790.03
   5  5584.241
   6  5710.884
   7  6173.852
   8  6394.536
   9  6165.866
  10  5156.739
  11  6245.584
  12  6047.583
  13  5932.664
  14  5715.9
  15  5765.192
  16  6939.502
  17  6410.136
  18  6613.457
  19  6222.993
  20  5935.491
  21  6373.248
  22  6311.389
  23  6838.51
  24  6599.998
  25  7418.09
  26  6075.919
  27  6613.859
  28  7261.65
  29  5972.973
  30  5727.789
  31  6522.053
  32  6063.556
  33  6228.174
  34  5247.577
  35  5300.409
  36  4144.343
  37  5000.037
  38  4854.353
  39  4502.843
  40  4382.923
  41  4121.266
  42  4411.12
  43  3695.114
  44  3856.013
  45  4712.714
  46  4420.744
  47  5106.837
  48  5104.783
  49  4894.174
  50  6320.663
  51  6993.483
  52  6361.408
  53  7169.285
  54  7589.581
  55  8216.958
  56  6810.281
  57  6307.315
  58  6697.729
  59  6771.245
  60  6539.562
  61  6041.009
  62  5564.649
  63  5260.729
  64  5820.89
  65  5520.724
  66  5588.107
  67  5845.116
  68  5636.485
  69  4865.898
  70  5008.143
  71  4623.658
  72  5489.738
  73  5892.111
  74  6650.728
  75  5730.093
  76  5450.256
  77  6233.273
  78  5884.689
  79  5551.838
  80  5344.531
  81  5567.31
  82  5617.242
  83  4974.001
  84  4895.798
  85  5471.155
  86  6522.985
  87  5837.532
  88  6825.267
  89  6535.109
  90  6551.21
  91  6620.576
  92  6470.71
  93  6588.63
  94  7080.158
  95  7441.917
  96  6535.467
  97  5812.711
  98  6249.98
  99  6570.785
 100  5915.952
 101  5105.976
 102  5375.858
 103  5547.706
 104  5608.218
 105  6398.278
 106  6633.563
 107  6278.007
 108  5677.546
 109  6161.369
 110  6292.592
 111  5834.883
 112  6098.794
 113  5898.575
 114  5911.98
 115  5754.323
 116  6858.018
 117  6150.608
 118  5802.263
 119  6437.032
 120  6478.638
 121  6640.359
 122  6488.107
 123  6096.993
 124  6103.359
 125  5798.634
 126  5873.749
 127  7156.64
 128  6362.259
 129  6389.335
 130  6612.579
 131  6845.057
 132  6230.127
 133  5333.589
 134  4779.731
 135  5175.165
 136  5558.804
 137  4777.528
 138  5095.009
 139  4859.508
 140  5011.724
 141  4018.697
 142  3844.242
 143  4648.389
 144  4843.24
 145  4619.522
 146  5890.63
 147  4918.526
 148  5255.255
 149  7490.889
 150  8929.449
 151  8512.737
 152  6310.991
 153  6253.074
 154  5350.789
 155  5737.003
 156  6322.473
 157  6800.896
 158  6108.68
 159  5878.248
 160  6191.24
 161  6872.971
 162  6578.935
 163  6614.727
 164  7855.029
 165  6853.116
 166  7748.906
 167  7318.511
 168  6652.045
 169  6878.469
 170  6489.042
 171  6342.626
 172  5363.144
 173  5488.539
 174  5274.415
 175  5393.737
 176  5898.025
 177  6170.796
 178  5228.672
 179  5746.858
 180  5918.383
 181  5741.542
 182  5736.584
 183  5216.456
 184  4869.085
 185  4836.928
 186  5436.015
 187  5665.433
 188  5529.274
 189  5054.702
 190  4896.188
 191  5751.938
 192  5685.548
 193  5554.779
 194  5730.249
 195  5820.217
 196  6429.925
 197  6465.039
 198  5671.831
 199  6297.07
 200  6441.517
 201  6116.322
 202  6500.208
 203  6552.997
 204  6939.014
 205  6165.103
 206  6427.637
 207  6649.679
 208  6897.298
 209  6764.47
 210  5841.878
 211  5183.183
 212  5358.065
 213  5096.56
 214  5020.239
 215  4999.115
 216  5149.298
 217  5338.328
 218  5252.577
 219  5448.56
 220  5367.118
 221  5218.091
 222  5978.106
 223  5377.78
 224  5074.983
 225  5712.047
 226  5947.928
 227  5970.345
 228  6381.37
 229  6143.365
 230  6334.642
 231  6098.401
 232  5866.25
 233  6583.595
 234  7167.547
 235  6965.109
 236  6366.739
 237  5939.299
 238  6793.65
 239  6641.983
 240  6020.681
 241  6125.984
 242  6254.428
 243  5933.855
 244  5526.669
 245  5622.551
 246  5355.245
 247  5607.545
 248  4861.679
 249  4465.334
 250  4557.132
 251  5200.395
 252  5097.816
 253  4721.826
 254  4885.55
 255  4891.814
