# Input file       =  1208355544.109267_cleaned.dat
# Candidate        =  PSR_0332+5434
# Telescope        =  AR
# Epoch_topo       =  58229.596795246143
# Epoch_bary       =  N/A
# T_sample         =  0.002
# Data Folded      =  7340032
# Data Avg         =  0.028178126530787
# Data StdDev      =  1.00004455738979 
# Profile Bins     =  512
# Profile Avg      =  403.958383736962 
# Profile StdDev   =  119.738371368338 
# Reduced chi-sqr  =  1.505
# Prob(Noise)      <  9.92e-13   (~7.0 sigma)
# P_topo (ms)      =  714.555223591661  +/- 0.000224
# P'_topo (s/s)    =  -0                +/- 1.18e-10
# P''_topo (s/s^2) =  0                 +/- 5.22e-14
# P_bary (ms)      =  N/A
# P'_bary (s/s)    =  N/A
# P''_bary (s/s^2) =  N/A
# P_orb (s)        =  N/A
# asin(i)/c (s)    =  N/A
# eccentricity     =  N/A
# w (rad)          =  N/A
# T_peri           =  N/A
######################################################
   0  1099.873
   1  998.4045
   2  761.9337
   3  656.2339
   4  665.5219
   5  620.1005
   6  539.4145
   7  517.5921
   8  544.8291
   9  610.8787
  10  479.3942
  11  439.4431
  12  481.3729
  13  478.6437
  14  443.4638
  15  465.0292
  16  549.3256
  17  536.7075
  18  412.6006
  19  453.6791
  20  341.4984
  21  359.982
  22  426.2178
  23  488.1117
  24  451.3456
  25  430.1613
  26  271.2148
  27  254.8909
  28  300.9736
  29  422.8669
  30  378.9049
  31  212.5986
  32  313.65
  33  349.4183
  34  395.3462
  35  408.3379
  36  378.2498
  37  377.6459
  38  294.7043
  39  325.3604
  40  332.7904
  41  392.1745
  42  245.2074
  43  314.8684
  44  310.5715
  45  366.8607
  46  279.8265
  47  230.1421
  48  246.4402
  49  282.0967
  50  372.5768
  51  231.0718
  52  269.5242
  53  272.3764
  54  359.109
  55  333.0961
  56  277.007
  57  333.8455
  58  291.188
  59  268.5177
  60  180.8305
  61  286.1007
  62  417.7262
  63  438.6438
  64  407.2076
  65  299.9027
  66  291.9584
  67  376.7743
  68  463.274
  69  319.5012
  70  259.0738
  71  303.2243
  72  313.2859
  73  391.2857
  74  277.8148
  75  312.8673
  76  423.6313
  77  472.7808
  78  485.0091
  79  351.8545
  80  320.0003
  81  356.6345
  82  350.7814
  83  396.2645
  84  523.5059
  85  451.4295
  86  418.9402
  87  379.0889
  88  394.4728
  89  422.2071
  90  382.2466
  91  351.6271
  92  353.2392
  93  295.1947
  94  321.7228
  95  364.5223
  96  352.564
  97  324.7924
  98  398.4976
  99  320.7793
 100  264.2846
 101  254.911
 102  358.4962
 103  321.4969
 104  279.2127
 105  347.5933
 106  403.037
 107  326.4113
 108  237.6354
 109  187.5245
 110  345.1774
 111  430.0743
 112  350.1956
 113  378.2392
 114  358.2772
 115  307.0946
 116  254.1748
 117  365.3338
 118  286.4228
 119  372.4049
 120  441.1761
 121  563.9003
 122  334.1389
 123  245.8806
 124  418.4089
 125  369.8857
 126  340.4746
 127  359.0248
 128  328.6075
 129  186.1185
 130  243.6302
 131  275.1169
 132  217.3849
 133  359.6056
 134  270.8592
 135  259.4065
 136  333.5317
 137  340.8759
 138  280.0983
 139  372.2744
 140  456.3265
 141  362.8664
 142  349.3324
 143  339.3955
 144  350.9341
 145  354.526
 146  368.64
 147  286.3989
 148  328.5656
 149  475.2431
 150  483.7665
 151  339.9158
 152  458.0553
 153  342.1316
 154  463.5338
 155  403.0191
 156  369.0581
 157  424.9783
 158  441.1808
 159  446.0574
 160  505.5139
 161  449.0468
 162  374.5826
 163  439.8813
 164  456.4347
 165  537.8224
 166  494.2484
 167  507.0942
 168  511.5864
 169  467.9554
 170  481.6237
 171  498.4473
 172  465.4044
 173  488.3278
 174  550.6389
 175  583.0428
 176  507.2743
 177  413.2299
 178  386.3499
 179  404.8829
 180  381.9118
 181  312.1625
 182  333.7328
 183  371.9224
 184  339.2864
 185  367.8146
 186  327.2231
 187  290.2925
 188  447.1306
 189  397.843
 190  251.6514
 191  382.5336
 192  505.0073
 193  460.1907
 194  416.5235
 195  370.4353
 196  300.197
 197  343.0295
 198  425.5978
 199  422.007
 200  314.2439
 201  276.256
 202  362.4676
 203  384.677
 204  347.403
 205  352.0022
 206  266.7559
 207  215.658
 208  293.0964
 209  319.5458
 210  354.079
 211  454.7652
 212  373.112
 213  319.2587
 214  242.8813
 215  292.1568
 216  405.5614
 217  380.0764
 218  472.7783
 219  422.7191
 220  284.7955
 221  313.4877
 222  419.8853
 223  431.9356
 224  363.3585
 225  404.435
 226  417.2818
 227  409.0966
 228  305.262
 229  376.0768
 230  475.5642
 231  454.9366
 232  455.4306
 233  518.9177
 234  530.9766
 235  374.6425
 236  332.7743
 237  502.9172
 238  512.3867
 239  447.7802
 240  432.7672
 241  313.276
 242  351.1403
 243  372.0095
 244  463.6398
 245  454.2874
 246  370.8182
 247  395.619
 248  445.5906
 249  392.4454
 250  369.6881
 251  421.3904
 252  423.619
 253  357.7456
 254  342.5289
 255  312.346
 256  405.7588
 257  386.5919
 258  385.2678
 259  410.7576
 260  456.758
 261  371.6049
 262  385.0982
 263  311.7318
 264  361.1493
 265  400.4281
 266  418.9092
 267  497.7638
 268  476.5534
 269  365.6411
 270  228.9309
 271  311.0548
 272  426.9928
 273  407.2893
 274  282.6993
 275  297.9051
 276  303.6848
 277  336.5053
 278  257.3582
 279  256.216
 280  417.1679
 281  348.3041
 282  262.5354
 283  266.7576
 284  264.8158
 285  329.0837
 286  274.7566
 287  392.39
 288  482.4948
 289  377.3166
 290  268.0205
 291  418.9634
 292  418.7358
 293  445.1422
 294  341.8663
 295  451.9904
 296  499.5638
 297  472.938
 298  419.0835
 299  429.3497
 300  372.7802
 301  399.8776
 302  474.4498
 303  459.1853
 304  360.7958
 305  365.5312
 306  430.1084
 307  448.4908
 308  351.8192
 309  517.7694
 310  577.4677
 311  364.7304
 312  433.9324
 313  458.1222
 314  483.6693
 315  503.2664
 316  467.6994
 317  398.6599
 318  469.1548
 319  489.4468
 320  430.1857
 321  338.4995
 322  355.4873
 323  410.0746
 324  524.6431
 325  490.136
 326  464.9486
 327  397.418
 328  453.3994
 329  402.7441
 330  520.7683
 331  540.421
 332  492.1683
 333  440.3735
 334  407.7173
 335  449.6013
 336  398.5669
 337  316.0631
 338  346.5985
 339  342.3531
 340  369.355
 341  399.2953
 342  344.2502
 343  334.4202
 344  367.6771
 345  396.1777
 346  396.27
 347  389.3727
 348  395.2074
 349  495.0968
 350  520.5604
 351  435.0734
 352  492.4967
 353  430.9545
 354  448.4293
 355  366.6516
 356  494.6537
 357  597.9234
 358  526.8216
 359  376.7524
 360  303.9981
 361  400.3002
 362  539.9935
 363  628.1406
 364  504.0468
 365  511.6597
 366  426.5229
 367  459.9543
 368  491.976
 369  365.1306
 370  356.5869
 371  313.9461
 372  189.7676
 373  268.0682
 374  420.2144
 375  583.367
 376  591.2385
 377  443.1852
 378  529.3901
 379  602.9438
 380  622.2235
 381  548.3759
 382  480.1919
 383  527.6913
 384  516.2025
 385  342.585
 386  382.7303
 387  449.179
 388  509.0588
 389  526.1453
 390  384.8065
 391  474.8379
 392  397.7757
 393  413.959
 394  405.0903
 395  334.5033
 396  402.7208
 397  483.0095
 398  425.4189
 399  445.1509
 400  524.179
 401  276.0189
 402  243.8293
 403  396.4416
 404  395.0029
 405  254.2357
 406  279.6872
 407  285.1722
 408  272.9467
 409  349.3865
 410  340.5666
 411  324.4209
 412  375.9493
 413  481.8711
 414  493.2641
 415  497.1018
 416  453.367
 417  409.6904
 418  461.0854
 419  381.1828
 420  385.8259
 421  438.6065
 422  413.5207
 423  339.0352
 424  328.5219
 425  462.0821
 426  429.1038
 427  439.5722
 428  385.0132
 429  352.794
 430  320.6761
 431  347.8518
 432  420.8452
 433  488.4176
 434  382.7759
 435  395.9437
 436  461.9147
 437  466.4258
 438  505.1497
 439  464.6629
 440  273.069
 441  304.6802
 442  409.0073
 443  464.3431
 444  446.0661
 445  453.9974
 446  498.0737
 447  534.0838
 448  461.1925
 449  553.3546
 450  563.3214
 451  473.3115
 452  394.9348
 453  408.5526
 454  398.4475
 455  520.9227
 456  542.9008
 457  384.046
 458  413.0916
 459  487.152
 460  480.191
 461  341.8261
 462  284.3072
 463  416.335
 464  447.0014
 465  372.4285
 466  319.4959
 467  438.0115
 468  481.6039
 469  376.8089
 470  281.752
 471  363.5653
 472  419.2007
 473  328.0013
 474  326.6736
 475  372.3327
 476  309.5276
 477  383.5356
 478  322.6288
 479  312.4865
 480  453.0661
 481  264.9821
 482  311.3229
 483  373.0998
 484  322.7786
 485  446.9492
 486  362.1593
 487  404.7673
 488  455.7466
 489  409.9282
 490  441.3426
 491  452.3275
 492  416.8016
 493  441.3806
 494  505.0843
 495  515.8411
 496  436.5511
 497  343.0484
 498  469.8285
 499  437.7482
 500  472.1883
 501  510.618
 502  493.449
 503  460.756
 504  365.3782
 505  493.2155
 506  600.2974
 507  602.3405
 508  677.8033
 509  754.3241
 510  935.9989
 511  1177.572
