# Input file       =  1208958230.109069_cleaned.dat
# Candidate        =  PSR_0332+5434
# Telescope        =  AR
# Epoch_topo       =  58236.572327651265
# Epoch_bary       =  N/A
# T_sample         =  0.002
# Data Folded      =  7340032
# Data Avg         =  0.0294205243897092
# Data StdDev      =  1.00006135859168 
# Profile Bins     =  512
# Profile Avg      =  421.761815900596 
# Profile StdDev   =  119.740383027256 
# Reduced chi-sqr  =  1.498
# Prob(Noise)      <  1.92e-12   (~6.9 sigma)
# P_topo (ms)      =  714.549225688157  +/- 0.000304
# P'_topo (s/s)    =  -0                +/- 1.6e-10
# P''_topo (s/s^2) =  0                 +/- 7.08e-14
# P_bary (ms)      =  N/A
# P'_bary (s/s)    =  N/A
# P''_bary (s/s^2) =  N/A
# P_orb (s)        =  N/A
# asin(i)/c (s)    =  N/A
# eccentricity     =  N/A
# w (rad)          =  N/A
# T_peri           =  N/A
######################################################
   0  348.7578
   1  423.61
   2  419.0555
   3  419.6653
   4  385.2067
   5  442.7007
   6  558.84
   7  583.4898
   8  572.4805
   9  629.029
  10  521.3768
  11  444.3211
  12  428.692
  13  524.1456
  14  409.4813
  15  327.2782
  16  463.1189
  17  419.4509
  18  385.9091
  19  455.9491
  20  467.8348
  21  425.527
  22  474.7849
  23  443.7513
  24  348.9087
  25  365.0028
  26  375.9837
  27  361.7677
  28  541.3483
  29  485.4719
  30  399.5477
  31  382.0588
  32  405.987
  33  457.5513
  34  447.388
  35  385.9056
  36  433.6567
  37  410.6404
  38  447.6182
  39  458.1834
  40  506.4589
  41  479.1471
  42  338.7035
  43  349.1951
  44  475.1775
  45  487.9048
  46  498.4679
  47  432.5632
  48  280.294
  49  300.6592
  50  352.3531
  51  414.2869
  52  422.0077
  53  378.342
  54  364.7721
  55  387.1245
  56  363.8622
  57  327.8578
  58  327.8075
  59  297.3525
  60  396.7153
  61  386.2431
  62  399.8507
  63  388.6866
  64  363.7746
  65  379.8826
  66  340.0108
  67  360.3681
  68  381.6057
  69  361.3676
  70  393.2974
  71  430.2003
  72  289.7798
  73  312.2999
  74  357.0598
  75  477.4918
  76  447.8115
  77  366.1753
  78  504.7217
  79  478.5936
  80  387.603
  81  337.5504
  82  441.0513
  83  397.4329
  84  372.1808
  85  514.4711
  86  394.4221
  87  390.8647
  88  544.8042
  89  508.0917
  90  420.3849
  91  513.0325
  92  619.2466
  93  573.4302
  94  403.4293
  95  445.6834
  96  488.6579
  97  582.1635
  98  564.5009
  99  420.0727
 100  324.7543
 101  447.639
 102  540.1994
 103  497.5883
 104  351.877
 105  424.4136
 106  511.891
 107  308.6724
 108  371.4278
 109  369.0579
 110  309.5591
 111  414.2999
 112  510.9238
 113  501.9938
 114  384.8974
 115  364.121
 116  378.0531
 117  429.0263
 118  405.5724
 119  401.032
 120  364.9455
 121  238.2912
 122  135.8455
 123  216.0637
 124  333.4851
 125  373.024
 126  402.8153
 127  369.8132
 128  239.4269
 129  262.5768
 130  382.0249
 131  288.5708
 132  370.528
 133  412.2096
 134  333.9828
 135  239.7598
 136  190.9298
 137  304.4003
 138  227.0534
 139  303.0508
 140  334.4768
 141  267.3026
 142  230.9755
 143  274.6461
 144  351.9403
 145  454.3035
 146  445.721
 147  374.7082
 148  318.5468
 149  357.387
 150  388.4437
 151  439.86
 152  427.4608
 153  434.9962
 154  352.8181
 155  368.5083
 156  334.1562
 157  374.5674
 158  467.9185
 159  394.4955
 160  455.6717
 161  471.0644
 162  461.1084
 163  442.309
 164  464.3322
 165  505.2208
 166  437.9427
 167  325.4654
 168  375.1803
 169  364.9786
 170  419.5
 171  549.8088
 172  425.0273
 173  339.1159
 174  381.7098
 175  472.5507
 176  492.6667
 177  564.1853
 178  489.5535
 179  449.2698
 180  372.6041
 181  428.5511
 182  365.4129
 183  318.6059
 184  327.6077
 185  359.9589
 186  492.8212
 187  520.2236
 188  491.6594
 189  444.2328
 190  356.6512
 191  269.4967
 192  361.4088
 193  500.6016
 194  384.739
 195  339.1812
 196  473.7922
 197  487.8061
 198  519.9456
 199  479.2408
 200  430.0648
 201  475.7866
 202  486.0116
 203  648.0911
 204  974.186
 205  1185.108
 206  1175.779
 207  1059.31
 208  900.4609
 209  778.1988
 210  603.4091
 211  550.925
 212  494.5787
 213  532.4435
 214  562.8589
 215  446.5739
 216  497.6642
 217  382.145
 218  321.6535
 219  343.0255
 220  418.9782
 221  497.1059
 222  341.189
 223  322.6305
 224  436.6972
 225  560.1408
 226  645.4688
 227  556.47
 228  487.3625
 229  544.0734
 230  443.3516
 231  478.9058
 232  417.2811
 233  422.2707
 234  457.724
 235  587.6033
 236  545.1942
 237  569.3112
 238  551.9442
 239  511.6092
 240  475.9012
 241  568.1801
 242  575.5397
 243  384.484
 244  404.0866
 245  522.4157
 246  508.7139
 247  391.5546
 248  333.9442
 249  451.6268
 250  482.0535
 251  365.5245
 252  305.9245
 253  272.1361
 254  417.1913
 255  473.3529
 256  546.9053
 257  470.4152
 258  434.6055
 259  478.8512
 260  527.0527
 261  580.5914
 262  579.2213
 263  441.9394
 264  445.6315
 265  421.8712
 266  508.2065
 267  484.0219
 268  452.6838
 269  501.5922
 270  583.0497
 271  532.9614
 272  492.7278
 273  471.1762
 274  468.6365
 275  496.2008
 276  480.5631
 277  366.3731
 278  267.912
 279  338.9032
 280  424.7783
 281  403.9638
 282  365.6334
 283  408.7697
 284  485.235
 285  383.1666
 286  255.0446
 287  328.8235
 288  381.3986
 289  463.0674
 290  506.925
 291  446.3121
 292  474.7328
 293  481.8127
 294  507.2218
 295  467.3267
 296  454.1003
 297  473.5932
 298  483.9849
 299  458.4326
 300  398.4798
 301  392.9069
 302  405.3285
 303  472.24
 304  508.7433
 305  428.9022
 306  285.978
 307  225.5437
 308  388.3819
 309  531.6315
 310  445.7401
 311  438.2139
 312  518.8499
 313  482.9156
 314  324.9849
 315  338.8946
 316  441.8547
 317  420.1587
 318  382.871
 319  441.5345
 320  380.7241
 321  368.7651
 322  327.5877
 323  419.8441
 324  373.9248
 325  374.9668
 326  327.3167
 327  359.4578
 328  330.1856
 329  274.6574
 330  400.3054
 331  393.2671
 332  480.8176
 333  389.2527
 334  449.2664
 335  372.8881
 336  315.0631
 337  259.5333
 338  337.4198
 339  449.3826
 340  447.5871
 341  398.2487
 342  460.6599
 343  416.7545
 344  333.2411
 345  267.0287
 346  261.7632
 347  421.3985
 348  374.4556
 349  316.5285
 350  432.0129
 351  368.0149
 352  374.1681
 353  417.7272
 354  460.3655
 355  321.0508
 356  318.5051
 357  377.6703
 358  405.0898
 359  395.2922
 360  361.6018
 361  419.2343
 362  422.3491
 363  386.7062
 364  314.9021
 365  353.0721
 366  329.5541
 367  322.0014
 368  328.4649
 369  342.4056
 370  329.5984
 371  360.7447
 372  403.1213
 373  344.178
 374  356.2836
 375  454.6202
 376  382.5638
 377  369.778
 378  439.2021
 379  481.8793
 380  400.8335
 381  314.5196
 382  332.6937
 383  397.9903
 384  460.5234
 385  404.9946
 386  414.9841
 387  379.7309
 388  277.0348
 389  252.9046
 390  303.9546
 391  419.3119
 392  279.1137
 393  338.8072
 394  385.1667
 395  402.5669
 396  469.4095
 397  339.4576
 398  344.9076
 399  508.7807
 400  526.2046
 401  278.4337
 402  308.2263
 403  412.9402
 404  499.59
 405  460.6277
 406  437.1225
 407  270.919
 408  454.3238
 409  449.6504
 410  368.1262
 411  352.6271
 412  386.8648
 413  434.1531
 414  481.4955
 415  543.2802
 416  529.3102
 417  377.2358
 418  419.0037
 419  363.9526
 420  296.8158
 421  448.4012
 422  517.653
 423  440.1441
 424  481.2827
 425  409.2318
 426  442.564
 427  473.0767
 428  528.7915
 429  484.4373
 430  389.3228
 431  363.8566
 432  385.1187
 433  363.311
 434  408.7244
 435  273.8235
 436  346.3661
 437  377.6985
 438  302.4407
 439  392.2041
 440  472.8287
 441  419.931
 442  373.4312
 443  440.843
 444  397.8157
 445  471.7712
 446  577.1215
 447  622.0258
 448  471.0963
 449  408.726
 450  471.4338
 451  554.2193
 452  532.9681
 453  471.2339
 454  448.1592
 455  483.7352
 456  501.5432
 457  508.3365
 458  562.1414
 459  531.5245
 460  446.3234
 461  428.5295
 462  489.6516
 463  497.1155
 464  467.9955
 465  511.7145
 466  415.5641
 467  418.6685
 468  437.2011
 469  430.8018
 470  429.7853
 471  476.9977
 472  467.7028
 473  493.9046
 474  598.908
 475  567.7241
 476  537.0857
 477  405.5182
 478  425.6432
 479  518.7502
 480  496.6335
 481  411.7244
 482  291.0353
 483  299.2865
 484  284.1028
 485  281.5792
 486  245.2117
 487  191.7474
 488  361.2522
 489  419.255
 490  359.2605
 491  263.0004
 492  317.3698
 493  295.3776
 494  336.9134
 495  377.8384
 496  349.5734
 497  370.0835
 498  356.6675
 499  305.6416
 500  291.6193
 501  345.3651
 502  244.1911
 503  219.5579
 504  331.3328
 505  464.2454
 506  431.4156
 507  417.8091
 508  432.7863
 509  446.7672
 510  421.0646
 511  446.5429
