# Input file       =  1208441724.102730-PSRB0329-2ms-sampling-dd.dat
# Candidate        =  PSR_0332+5434
# Telescope        =  AR
# Epoch_topo       =  58230.594248874193
# Epoch_bary       =  N/A
# T_sample         =  0.002
# Data Folded      =  7340032
# Data Avg         =  -9.49170386317761e-10
# Data StdDev      =  6.31872867030284 
# Profile Bins     =  512
# Profile Avg      =  -0.0232199162575111
# Profile StdDev   =  756.560569736285 
# Reduced chi-sqr  =  0.559
# Prob(Noise)      <  1   (~0.0 sigma)
# P_topo (ms)      =  714.554390055776  +/- 0.000983
# P'_topo (s/s)    =  -0                +/- 5.19e-10
# P''_topo (s/s^2) =  0                 +/- 2.29e-13
# P_bary (ms)      =  N/A
# P'_bary (s/s)    =  N/A
# P''_bary (s/s^2) =  N/A
# P_orb (s)        =  N/A
# asin(i)/c (s)    =  N/A
# eccentricity     =  N/A
# w (rad)          =  N/A
# T_peri           =  N/A
######################################################
   0  -235.1589
   1  -64.16286
   2  -319.7514
   3  -386.106
   4  -566.282
   5  -486.3326
   6  -302.1551
   7  -750.1788
   8  -181.3944
   9  17.82943
  10  325.8714
  11  105.3434
  12  -359.745
  13  -288.852
  14  -219.2223
  15  -269.1485
  16  -0.5659641
  17  5.284799
  18  -267.436
  19  -187.2516
  20  -223.4129
  21  -403.5332
  22  -334.0117
  23  -71.80865
  24  -421.4776
  25  -431.1236
  26  -255.3685
  27  -86.68598
  28  31.96978
  29  -112.6506
  30  -232.0129
  31  12.99294
  32  -203.1896
  33  -454.8586
  34  -537.6452
  35  -586.1465
  36  -404.1335
  37  -263.9907
  38  -388.8811
  39  -678.9547
  40  -664.1464
  41  -548.9722
  42  -82.7845
  43  -352.7714
  44  -106.625
  45  259.643
  46  384.569
  47  211.6171
  48  -14.33794
  49  227.7915
  50  317.8346
  51  169.065
  52  338.9711
  53  441.016
  54  300.9128
  55  172.1511
  56  350.105
  57  97.79229
  58  -244.7583
  59  24.44779
  60  469.9439
  61  496.8283
  62  398.3727
  63  19.93644
  64  247.4885
  65  697.1742
  66  616.1734
  67  212.0526
  68  218.6852
  69  295.4246
  70  -71.24009
  71  -290.5059
  72  -215.8423
  73  -104.0415
  74  85.54294
  75  -181.8961
  76  -491.8105
  77  -364.3096
  78  -63.6715
  79  -168.2758
  80  -417.8142
  81  -179.2071
  82  -121.2221
  83  -192.3247
  84  113.9171
  85  259.9967
  86  572.9395
  87  582.6519
  88  137.0801
  89  534.4048
  90  514.6552
  91  419.2683
  92  724.3688
  93  761.5754
  94  493.0063
  95  215.3318
  96  357.3478
  97  482.8581
  98  454.872
  99  323.2678
 100  376.8718
 101  -273.1993
 102  132.7
 103  133.5601
 104  540.5823
 105  569.477
 106  298.1388
 107  470.4627
 108  401.8387
 109  397.5639
 110  -110.5233
 111  195.5423
 112  417.041
 113  92.39986
 114  478.9034
 115  479.6055
 116  437.775
 117  252.6945
 118  45.57743
 119  398.7084
 120  -134.6042
 121  100.7741
 122  231.577
 123  169.4689
 124  80.82066
 125  -180.3342
 126  -438.7917
 127  -167.8099
 128  453.7099
 129  546.3986
 130  79.5248
 131  37.29927
 132  119.9437
 133  192.9221
 134  -45.40834
 135  -10.39774
 136  375.1695
 137  300.0316
 138  167.5011
 139  472.04
 140  236.7417
 141  -174.4117
 142  -194.7249
 143  -37.16389
 144  341.9046
 145  38.41611
 146  -106.4031
 147  189.5257
 148  -36.92159
 149  -29.96409
 150  -101.6534
 151  54.25183
 152  -231.1185
 153  -351.435
 154  -204.2873
 155  -0.6371533
 156  -190.6142
 157  100.3582
 158  177.4366
 159  147.7458
 160  38.93116
 161  -197.3557
 162  -235.6067
 163  -341.5403
 164  -143.5042
 165  -349.3775
 166  -11.30875
 167  141.1041
 168  31.88174
 169  -38.3594
 170  124.6772
 171  14.55844
 172  -261.2142
 173  -346.2012
 174  -331.3174
 175  251.8848
 176  285.0581
 177  36.48454
 178  358.4368
 179  281.7212
 180  -131.9597
 181  12.85557
 182  -77.61348
 183  -56.45894
 184  188.3956
 185  369.1109
 186  352.3625
 187  -437.6236
 188  -20.95386
 189  23.93717
 190  -469.2623
 191  184.8478
 192  251.0603
 193  -189.7841
 194  -448.0618
 195  -570.3331
 196  -59.93036
 197  -273.4932
 198  -18.38268
 199  -193.1942
 200  -498.8925
 201  -242.6901
 202  -564.4904
 203  -661.5564
 204  -575.3865
 205  -31.34455
 206  -307.7408
 207  -447.7704
 208  -182.7234
 209  -285.5548
 210  -288.2867
 211  -316.722
 212  49.49786
 213  -42.10597
 214  123.0544
 215  32.74387
 216  34.71715
 217  -96.01694
 218  -140.4505
 219  126.4157
 220  123.7674
 221  206.2491
 222  -193.5164
 223  -149.603
 224  -173.451
 225  -287.2697
 226  -135.8724
 227  -160.2779
 228  -113.5063
 229  -76.90636
 230  -203.5184
 231  -184.5448
 232  -109.6544
 233  307.7554
 234  -249.2091
 235  -896.8163
 236  -823.5306
 237  -460.4099
 238  -282.5803
 239  -23.35779
 240  119.4328
 241  -283.8886
 242  -669.582
 243  -962.7001
 244  -423.1454
 245  -744.57
 246  -536.2847
 247  69.97736
 248  -117.0443
 249  -153.0891
 250  -26.899
 251  -497.1095
 252  -480.063
 253  -612.9077
 254  -461.2212
 255  -551.0605
 256  -228.4275
 257  57.5024
 258  -158.6788
 259  -226.882
 260  -194.838
 261  57.76059
 262  -23.35593
 263  45.95712
 264  -20.08064
 265  273.1429
 266  -0.6214151
 267  -384.0801
 268  -397.8586
 269  -464.2025
 270  -112.6782
 271  -172.8418
 272  201.701
 273  368.1929
 274  290.6416
 275  234.079
 276  523.5778
 277  1119.076
 278  1708.148
 279  1888.159
 280  2012.278
 281  2091.217
 282  1545.5
 283  712.697
 284  -106.2886
 285  -127.7375
 286  92.41026
 287  347.2333
 288  84.67752
 289  146.8919
 290  -91.11114
 291  -90.18719
 292  79.22759
 293  22.16091
 294  -21.60899
 295  -85.43671
 296  -2.546472
 297  -84.91296
 298  -305.3364
 299  -586.3533
 300  -529.0079
 301  -427.0235
 302  -616.341
 303  -458.5889
 304  -511.5227
 305  -707.4966
 306  -714.6592
 307  -644.2549
 308  -129.6822
 309  -369.1035
 310  -179.9419
 311  -12.27773
 312  -77.3381
 313  341.5054
 314  -32.78414
 315  -126.7034
 316  -311.945
 317  -525.1426
 318  -198.846
 319  -21.29206
 320  9.539202
 321  361.8275
 322  86.68953
 323  201.1937
 324  64.48744
 325  375.0773
 326  76.35963
 327  -114.5064
 328  -105.5479
 329  133.2981
 330  174.3679
 331  248.1594
 332  141.9956
 333  235.6109
 334  27.42729
 335  -304.8027
 336  -303.9483
 337  -293.8177
 338  53.1185
 339  248.0014
 340  185.321
 341  -46.88139
 342  -159.8273
 343  -173.4926
 344  -182.7998
 345  -471.4651
 346  -404.8861
 347  -209.6507
 348  -31.12725
 349  -248.6223
 350  -52.36723
 351  -530.9449
 352  -691.7516
 353  -422.1952
 354  -746.1163
 355  -119.0852
 356  73.75322
 357  350.8251
 358  273.0177
 359  194.1615
 360  -62.93527
 361  -251.2795
 362  27.91612
 363  423.2939
 364  418.7852
 365  -230.8527
 366  -388.2057
 367  -292.4989
 368  -378.2213
 369  -57.64346
 370  -80.35536
 371  168.8336
 372  369.4072
 373  163.3999
 374  127.0893
 375  -201.1743
 376  -99.46953
 377  79.42312
 378  102.6865
 379  471.6513
 380  589.3867
 381  606.3288
 382  659.1641
 383  238.0603
 384  371.3034
 385  299.1999
 386  210.7041
 387  63.63732
 388  168.1493
 389  168.3794
 390  369.7832
 391  301.8093
 392  189.182
 393  286.1786
 394  96.72839
 395  278.4649
 396  486.2275
 397  543.746
 398  362.8885
 399  586.8822
 400  563.0933
 401  171.4859
 402  -195.1134
 403  87.03989
 404  319.9182
 405  492.6222
 406  931.4621
 407  562.4633
 408  170.48
 409  29.85933
 410  -61.7973
 411  367.5255
 412  506.2591
 413  620.1932
 414  296.2057
 415  381.8748
 416  90.22321
 417  -241.9158
 418  -151.1819
 419  -208.8555
 420  382.7412
 421  616.5938
 422  573.8603
 423  808.0255
 424  809.0806
 425  544.2137
 426  532.0732
 427  447.7587
 428  571.627
 429  823.8368
 430  691.5712
 431  903.311
 432  334.7742
 433  385.0792
 434  636.5308
 435  290.3048
 436  538.7278
 437  203.8318
 438  423.9695
 439  628.0444
 440  583.0112
 441  142.8699
 442  -273.6175
 443  106.0517
 444  403.396
 445  352.4971
 446  710.6176
 447  713.9069
 448  822.9745
 449  540.0581
 450  696.0635
 451  314.5016
 452  -159.1624
 453  -187.082
 454  -201.316
 455  -598.19
 456  -493.2991
 457  16.5024
 458  92.07684
 459  57.32093
 460  -56.74718
 461  -10.59549
 462  388.2433
 463  -12.19584
 464  55.02605
 465  86.01048
 466  96.86636
 467  -301.7873
 468  -307.2299
 469  -316.0135
 470  -221.9987
 471  -80.74357
 472  -303.3038
 473  87.00398
 474  -102.8118
 475  -193.3859
 476  -339.2584
 477  -562.7356
 478  -536.9254
 479  -294.8389
 480  209.2552
 481  272.6819
 482  -346.1974
 483  -571.8257
 484  -661.3
 485  -416.2136
 486  -898.9843
 487  -1028.518
 488  -1081.341
 489  -877.1294
 490  -519.2813
 491  -479.6285
 492  -554.4275
 493  -836.4675
 494  -1014.8
 495  -1019.02
 496  -661.9694
 497  -278.55
 498  160.0826
 499  -271.9917
 500  -316.6254
 501  -246.8076
 502  -545.0369
 503  -554.1411
 504  -351.8474
 505  -287.0404
 506  -365.6212
 507  -356.3366
 508  -55.42851
 509  -255.7622
 510  -415.3745
 511  -401.5167
