# Input file       =  1208872645.123394_cleaned.dat
# Candidate        =  PSR_0332+5434
# Telescope        =  AR
# Epoch_topo       =  58235.581760687433
# Epoch_bary       =  N/A
# T_sample         =  0.002
# Data Folded      =  7340032
# Data Avg         =  0.225557327977315
# Data StdDev      =  5.6674318297619  
# Profile Bins     =  256
# Profile Avg      =  6467.32555641609 
# Profile StdDev   =  959.655372413551 
# Reduced chi-sqr  =  1.907
# Prob(Noise)      <  1.25e-16   (~8.2 sigma)
# P_topo (ms)      =  714.5501109917    +/- 0.000244
# P'_topo (s/s)    =  -0                +/- 1.29e-10
# P''_topo (s/s^2) =  0                 +/- 5.68e-14
# P_bary (ms)      =  N/A
# P'_bary (s/s)    =  N/A
# P''_bary (s/s^2) =  N/A
# P_orb (s)        =  N/A
# asin(i)/c (s)    =  N/A
# eccentricity     =  N/A
# w (rad)          =  N/A
# T_peri           =  N/A
######################################################
   0  5868.073
   1  5708.424
   2  5306.092
   3  5619.312
   4  6262.976
   5  5902.907
   6  6072.163
   7  5758.58
   8  6573.49
   9  6768.064
  10  6876.78
  11  6595.681
  12  6361.647
  13  6315.919
  14  5779.255
  15  5725.192
  16  5890.717
  17  6503.885
  18  5490.919
  19  4849.59
  20  4767.486
  21  4948.803
  22  5050.863
  23  4685.612
  24  4785.883
  25  5380.987
  26  5844.77
  27  6251.676
  28  5826.953
  29  6203.026
  30  5762.379
  31  6132.437
  32  6358.49
  33  6270.322
  34  6516.216
  35  6995.007
  36  6850.25
  37  7178.246
  38  7700.11
  39  7969.366
  40  7902.413
  41  8149.884
  42  7643.632
  43  7585.636
  44  7237.819
  45  6666.869
  46  7079.14
  47  6266.238
  48  6735.396
  49  6182.994
  50  5634.664
  51  5600.368
  52  5491.996
  53  4961.803
  54  5013.238
  55  5159.634
  56  4591.85
  57  5086.669
  58  6225.882
  59  5890.847
  60  5530.941
  61  6292.414
  62  6428.004
  63  6648.95
  64  6049.767
  65  5932.174
  66  6625.034
  67  7053.164
  68  6715.518
  69  7254.223
  70  7149.545
  71  7647.049
  72  7090.856
  73  7434.586
  74  7900.208
  75  7909.143
  76  7075.506
  77  6395.449
  78  7621.032
  79  7881.421
  80  6862.517
  81  7718.255
  82  7488.562
  83  7496.096
  84  7129.735
  85  7178.564
  86  6035.841
  87  6045.582
  88  6407.569
  89  5161.802
  90  5193.398
  91  5040.445
  92  5514.47
  93  5507.581
  94  4741.864
  95  5095.469
  96  4687.786
  97  4975.281
  98  5645.268
  99  5858.54
 100  5795.735
 101  5568.918
 102  5366.062
 103  5951.046
 104  5692.894
 105  5517.321
 106  6101.724
 107  6285.625
 108  6064.646
 109  6738.51
 110  6668.715
 111  5984.585
 112  6778.681
 113  7247.975
 114  7642.979
 115  7019.536
 116  7022.698
 117  7262.44
 118  6851.031
 119  7194.612
 120  7074.21
 121  7381.766
 122  7148.346
 123  6635.729
 124  6143.153
 125  6758.988
 126  6301.635
 127  5550.379
 128  5761.879
 129  5481.213
 130  5020.899
 131  4747.581
 132  5263.24
 133  5381.399
 134  6214.887
 135  5809.079
 136  4969.287
 137  5921
 138  6258.482
 139  6782.075
 140  6227.765
 141  6282.382
 142  6420.266
 143  5690.124
 144  6248.883
 145  6368.35
 146  7268.458
 147  7835.662
 148  8738.092
 149  10353.88
 150  12264.73
 151  11425.77
 152  8543.201
 153  8562.387
 154  8637.475
 155  8160.324
 156  7764.087
 157  7883.584
 158  7590.601
 159  7551.86
 160  7439.619
 161  7209.882
 162  6625.316
 163  6746.78
 164  6856.955
 165  7162.345
 166  6761.534
 167  6702.179
 168  6779.065
 169  6766.052
 170  6089.904
 171  6232.922
 172  6773.131
 173  6618.307
 174  6423.674
 175  6474.325
 176  6639.102
 177  6917.879
 178  7736.553
 179  7216.472
 180  6086.471
 181  6334.07
 182  6361.472
 183  6476.278
 184  6629.881
 185  8039.915
 186  7271.623
 187  7208.409
 188  7715.873
 189  7697.521
 190  7624.497
 191  8791.739
 192  8822.559
 193  9220.693
 194  8478.708
 195  8102.891
 196  7744.859
 197  7215.982
 198  7345.173
 199  7674.719
 200  6918.242
 201  5973.176
 202  5714.857
 203  5316.012
 204  6064.32
 205  5548.987
 206  6095.355
 207  5091.909
 208  5216.48
 209  5317.85
 210  5358.035
 211  4776.18
 212  4904.263
 213  5592.718
 214  5772.291
 215  6064.746
 216  5317.756
 217  5088.355
 218  6249.668
 219  6082.445
 220  5601.576
 221  6746.924
 222  6960.243
 223  6786.851
 224  6998.647
 225  7370.747
 226  7947.024
 227  7797.329
 228  7786.512
 229  8033.414
 230  8080.81
 231  6912.667
 232  8052.612
 233  7381.047
 234  6895.739
 235  7217.586
 236  7387.353
 237  5729.179
 238  5950.258
 239  6125.628
 240  5502.401
 241  5874
 242  5233.375
 243  4374.635
 244  4748.362
 245  5001.396
 246  4531.639
 247  4501.695
 248  4528.34
 249  4673.778
 250  5106.842
 251  4762.584
 252  5373.409
 253  5652.209
 254  5089.874
 255  5025.701
