# Input file       =  1208872645.123394_cleaned.dat
# Candidate        =  PSR_0332+5434
# Telescope        =  AR
# Epoch_topo       =  58235.581760687433
# Epoch_bary       =  N/A
# T_sample         =  0.002
# Data Folded      =  7340032
# Data Avg         =  0.0291742238496974
# Data StdDev      =  1.00005804257702 
# Profile Bins     =  512
# Profile Avg      =  418.28042496357  
# Profile StdDev   =  119.739985990752 
# Reduced chi-sqr  =  1.865
# Prob(Noise)      <  4.52e-29   (~11.1 sigma)
# P_topo (ms)      =  714.550110400574  +/- 0.000308
# P'_topo (s/s)    =  -0                +/- 1.63e-10
# P''_topo (s/s^2) =  0                 +/- 7.18e-14
# P_bary (ms)      =  N/A
# P'_bary (s/s)    =  N/A
# P''_bary (s/s^2) =  N/A
# P_orb (s)        =  N/A
# asin(i)/c (s)    =  N/A
# eccentricity     =  N/A
# w (rad)          =  N/A
# T_peri           =  N/A
######################################################
   0  1330.413
   1  1150.986
   2  801.191
   3  670.0884
   4  588.62
   5  533.3777
   6  540.8106
   7  608.6445
   8  572.4298
   9  519.4907
  10  483.4958
  11  483.9992
  12  530.6674
  13  448.6111
  14  359.3441
  15  386.8683
  16  543.2509
  17  551.6292
  18  460.3576
  19  471.6752
  20  399.5369
  21  524.1432
  22  523.4826
  23  378.5355
  24  464.3736
  25  400.4245
  26  456.6567
  27  487.1202
  28  471.226
  29  413.2694
  30  494.1318
  31  402.6029
  32  420.9167
  33  446.9726
  34  437.4742
  35  452.7775
  36  440.1404
  37  452.0934
  38  367.6262
  39  382.8321
  40  406.3375
  41  379.3999
  42  472.2694
  43  424.9745
  44  406.6523
  45  331.1035
  46  403.7868
  47  333.8752
  48  459.9355
  49  422.2246
  50  394.6326
  51  314.1592
  52  370.7857
  53  385.0059
  54  475.6077
  55  583.6312
  56  584.5825
  57  481.6893
  58  367.7433
  59  353.151
  60  221.6605
  61  412.1356
  62  360.6403
  63  367.112
  64  466.3314
  65  409.9537
  66  437.9599
  67  335.2051
  68  456.6578
  69  564.7921
  70  542.5697
  71  525.1846
  72  511.1261
  73  460.0331
  74  484.1577
  75  522.9342
  76  498.8494
  77  524.5838
  78  510.9222
  79  470.8381
  80  551.2563
  81  610.9341
  82  558.6368
  83  585.4572
  84  615.6508
  85  613.6592
  86  556.248
  87  473.3015
  88  450.1836
  89  489.1854
  90  508.4736
  91  436.9897
  92  511.1615
  93  454.7435
  94  423.0539
  95  428.8353
  96  529.284
  97  573.584
  98  621.4059
  99  536.4705
 100  407.8969
 101  440.6799
 102  407.6057
 103  358.3304
 104  405.9081
 105  356.1055
 106  216.5811
 107  398.6678
 108  412.479
 109  291.4535
 110  417.9933
 111  518.8873
 112  586.8066
 113  440.4622
 114  285.1706
 115  333.5004
 116  381.9369
 117  429.8095
 118  359.718
 119  389.1521
 120  323.8878
 121  266.0055
 122  332.1487
 123  426.4117
 124  274.3334
 125  366.987
 126  331.181
 127  328.7753
 128  345.4218
 129  394.4719
 130  312.5403
 131  277.2903
 132  329.9139
 133  353.2215
 134  377.7481
 135  442.0046
 136  422.6349
 137  457.0534
 138  370.7291
 139  349.827
 140  487.2874
 141  519.8254
 142  507.742
 143  554.8277
 144  525.3907
 145  482.6812
 146  471.5369
 147  426.1303
 148  484.5345
 149  561.7947
 150  542.607
 151  616.8654
 152  497.6376
 153  465.4225
 154  483.0606
 155  510.6569
 156  506.0347
 157  481.6425
 158  504.3712
 159  546.681
 160  454.2669
 161  367.309
 162  434.5965
 163  507.0092
 164  531.2847
 165  564.0635
 166  474.7197
 167  516.1639
 168  473.5326
 169  490.8022
 170  445.1249
 171  520.6343
 172  465.6737
 173  350.5078
 174  274.3353
 175  361.5706
 176  461.0963
 177  431.9443
 178  337.9683
 179  304.4622
 180  374.7463
 181  449.7319
 182  313.2505
 183  231.8479
 184  277.7258
 185  234.1604
 186  329.1093
 187  357.9339
 188  250.1631
 189  291.1639
 190  296.0338
 191  191.278
 192  104.2789
 193  257.1865
 194  200.7933
 195  223.6824
 196  274.4378
 197  236.935
 198  250.2048
 199  363.5032
 200  322.3583
 201  241.3789
 202  273.9066
 203  348.0539
 204  334.0699
 205  365.6329
 206  496.829
 207  309.9917
 208  193.5155
 209  241.8058
 210  305.4743
 211  356.4921
 212  334.1294
 213  301.7526
 214  365.4383
 215  281.0187
 216  269.7761
 217  306.7007
 218  374.9091
 219  369.0891
 220  379.8793
 221  295.123
 222  274.8165
 223  356.0602
 224  321.4883
 225  290.4149
 226  234.9974
 227  294.0106
 228  386.5915
 229  363.5087
 230  380.7614
 231  394.9307
 232  458.3557
 233  362.2287
 234  358.3306
 235  405.2698
 236  357.8675
 237  414.3436
 238  397.4942
 239  395.7328
 240  287.6377
 241  413.8801
 242  371.6535
 243  336.8722
 244  408.2146
 245  488.5024
 246  432.7942
 247  336.1638
 248  349.0304
 249  307.2884
 250  329.7255
 251  297.7506
 252  293.2437
 253  241.8713
 254  317.655
 255  320.4665
 256  282.4456
 257  253.8067
 258  250.2513
 259  238.0977
 260  212.0898
 261  275.0892
 262  379.2832
 263  318.8925
 264  419.4804
 265  441.0668
 266  414.1119
 267  304.382
 268  385.2417
 269  376.2759
 270  279.5744
 271  317.3123
 272  407.2882
 273  403.044
 274  279.9117
 275  356.3234
 276  344.3079
 277  344.8558
 278  420.3834
 279  389.6936
 280  415.6268
 281  425.373
 282  326.293
 283  358.6255
 284  332.886
 285  385.1176
 286  411.5396
 287  474.8489
 288  495.8951
 289  545.7945
 290  575.0807
 291  488.9655
 292  508.9818
 293  573.9282
 294  513.1709
 295  435.0944
 296  457.8985
 297  477.1188
 298  422.1062
 299  383.6988
 300  364.3609
 301  330.5693
 302  471.8491
 303  489.9838
 304  426.8559
 305  317.3378
 306  288.6076
 307  401.2425
 308  413.9733
 309  378.9034
 310  382.041
 311  380.6273
 312  331.5182
 313  357.8589
 314  320.737
 315  356.1572
 316  347.6711
 317  336.5158
 318  274.0295
 319  306.2148
 320  413.3757
 321  422.9272
 322  384.2783
 323  270.8983
 324  292.3181
 325  354.7295
 326  379.3066
 327  414.2469
 328  374.5649
 329  358.0778
 330  294.1128
 331  332.5895
 332  340.6614
 333  356.9556
 334  379.5505
 335  352.3786
 336  457.2531
 337  355.8749
 338  435.6007
 339  396.0917
 340  290.3836
 341  368.4108
 342  383.1238
 343  426.8806
 344  484.7372
 345  383.5643
 346  333.1615
 347  345.1211
 348  438.7445
 349  503.1921
 350  464.5954
 351  442.5315
 352  488.0589
 353  508.4205
 354  441.5998
 355  410.6925
 356  504.413
 357  541.8014
 358  552.6411
 359  555.2411
 360  571.6014
 361  580.201
 362  479.8106
 363  433.1683
 364  412.9399
 365  376.8623
 366  436.9801
 367  469.9876
 368  587.7169
 369  552.111
 370  434.954
 371  322.7262
 372  461.5677
 373  540.614
 374  592.637
 375  547.9608
 376  368.1676
 377  452.019
 378  432.1379
 379  404.6479
 380  424.4038
 381  479.9944
 382  406.2485
 383  306.3979
 384  346.5489
 385  350.9052
 386  462.521
 387  491.9798
 388  564.7991
 389  363.8631
 390  309.5701
 391  407.6571
 392  445.8815
 393  417.5735
 394  435.9034
 395  525.6622
 396  449.6837
 397  455.0444
 398  514.6685
 399  391.02
 400  358.3022
 401  427.1922
 402  385.5491
 403  363.179
 404  384.8342
 405  385.6076
 406  363.557
 407  425.1688
 408  395.1859
 409  326.8727
 410  385.099
 411  375.5793
 412  471.6885
 413  458.2685
 414  345.8948
 415  277.4089
 416  345.0599
 417  395.0251
 418  344.5815
 419  323.4219
 420  458.1446
 421  386.3831
 422  335.3427
 423  434.9514
 424  394.004
 425  436.9129
 426  330.2341
 427  350.3477
 428  446.5979
 429  523.8265
 430  495.127
 431  512.0958
 432  309.9369
 433  318.7123
 434  327.3519
 435  333.144
 436  431.0261
 437  439.8328
 438  448.4319
 439  546.9329
 440  524.2892
 441  442.9315
 442  390.6085
 443  422.9849
 444  438.2983
 445  479.5121
 446  429.4956
 447  387.2852
 448  376.9432
 449  485.2194
 450  368.7229
 451  395.7837
 452  547.9627
 453  556.579
 454  577.8688
 455  466.3495
 456  410.9763
 457  429.4499
 458  358.8302
 459  296.0989
 460  385.8316
 461  474.3203
 462  407.21
 463  365.4761
 464  452.692
 465  399.2881
 466  257.6271
 467  384.352
 468  333.7599
 469  324.1854
 470  312.8423
 471  296.1552
 472  248.2461
 473  279.3421
 474  328.7176
 475  369.841
 476  293.4051
 477  255.2081
 478  373.8869
 479  475.6788
 480  424.5402
 481  426.7238
 482  406.4913
 483  270.172
 484  358.7989
 485  419.4745
 486  420.7285
 487  405.8056
 488  531.3359
 489  482.5331
 490  543.3802
 491  460.8496
 492  423.7955
 493  488.4368
 494  453.3353
 495  529.4869
 496  447.1012
 497  299.0885
 498  333.1386
 499  344.0238
 500  517.9204
 501  474.6622
 502  368.406
 503  493.277
 504  567.8342
 505  559.9957
 506  621.0673
 507  635.1711
 508  820.3101
 509  868.8541
 510  1100.084
 511  1204.166
