# Input file       =  1208412144.103333_cleaned.dat
# Candidate        =  PSR_0332+5434
# Telescope        =  AR
# Epoch_topo       =  58230.251887770057
# Epoch_bary       =  N/A
# T_sample         =  0.002
# Data Folded      =  7208960
# Data Avg         =  0.0314354007122698
# Data StdDev      =  1.00007993276574 
# Profile Bins     =  512
# Profile Avg      =  442.632546717633 
# Profile StdDev   =  118.668660549632 
# Reduced chi-sqr  =  2.137
# Prob(Noise)      <  2.84e-44   (~13.9 sigma)
# P_topo (ms)      =  714.554313894683  +/- 0.00015
# P'_topo (s/s)    =  -0                +/- 8.08e-11
# P''_topo (s/s^2) =  0                 +/- 3.63e-14
# P_bary (ms)      =  N/A
# P'_bary (s/s)    =  N/A
# P''_bary (s/s^2) =  N/A
# P_orb (s)        =  N/A
# asin(i)/c (s)    =  N/A
# eccentricity     =  N/A
# w (rad)          =  N/A
# T_peri           =  N/A
######################################################
   0  1172.824
   1  964.485
   2  792.2966
   3  565.9022
   4  531.022
   5  557.9141
   6  567.1119
   7  541.5386
   8  603.1053
   9  671.1917
  10  568.7399
  11  478.32
  12  551.5857
  13  586.3101
  14  611.6215
  15  563.2339
  16  503.4574
  17  435.2317
  18  321.4488
  19  475.7077
  20  510.4091
  21  519.551
  22  495.6181
  23  451.9727
  24  420.803
  25  353.7957
  26  267.5528
  27  358.3903
  28  323.1069
  29  317.4549
  30  528.3455
  31  535.4891
  32  439.7451
  33  365.9006
  34  396.6074
  35  463.8546
  36  443.3595
  37  425.7101
  38  420.0027
  39  433.6526
  40  508.5837
  41  558.7422
  42  593.3917
  43  558.5599
  44  512.6612
  45  427.6992
  46  508.3915
  47  463.1426
  48  309.4895
  49  234.8485
  50  275.4211
  51  348.2359
  52  470.8816
  53  446.628
  54  500.6516
  55  561.4291
  56  456.0485
  57  493.8552
  58  362.87
  59  271.2134
  60  460.7869
  61  419.4253
  62  331.0856
  63  414.8815
  64  378.8339
  65  393.1726
  66  341.9427
  67  262.8958
  68  386.2569
  69  455.4418
  70  451.3284
  71  379.4219
  72  563.3843
  73  639.3194
  74  519.86
  75  437.4019
  76  337.1305
  77  382.7467
  78  458.9194
  79  359.9017
  80  437.9546
  81  328.5268
  82  374.9017
  83  363.4921
  84  241.5824
  85  331.8705
  86  388.3778
  87  446.6782
  88  576.2355
  89  360.0951
  90  289.8104
  91  392.3424
  92  390.1959
  93  305.7305
  94  396.1359
  95  510.1155
  96  604.7381
  97  471.7472
  98  405.2957
  99  406.9895
 100  526.4594
 101  374.4177
 102  363.4845
 103  512.9128
 104  506.8026
 105  438.6078
 106  373.0223
 107  382.8334
 108  328.093
 109  317.291
 110  406.2064
 111  547.4434
 112  588.7206
 113  454.0621
 114  315.0496
 115  393.5656
 116  366.5837
 117  348.6153
 118  442.0977
 119  399.025
 120  389.2884
 121  522.9233
 122  454.6266
 123  394.3734
 124  527.9744
 125  449.2975
 126  451.9286
 127  366.193
 128  488.0331
 129  499.4213
 130  397.4746
 131  449.1401
 132  448.2514
 133  398.8516
 134  430.8981
 135  401.3903
 136  413.8926
 137  461.4056
 138  529.4038
 139  461.4028
 140  414.8116
 141  381.9876
 142  302.3335
 143  395.0685
 144  438.8544
 145  460.1479
 146  402.5536
 147  326.1634
 148  289.2888
 149  371.7163
 150  353.504
 151  439.0727
 152  396.147
 153  485.1357
 154  484.4841
 155  324.2227
 156  427.4021
 157  566.1586
 158  478.6702
 159  420.5995
 160  414.8067
 161  348.1763
 162  389.1082
 163  523.7644
 164  473.6079
 165  270.0196
 166  198.2976
 167  310.2504
 168  300.9347
 169  386.8144
 170  453.3428
 171  489.8065
 172  473.0129
 173  364.5527
 174  320.6011
 175  375.3105
 176  376.0644
 177  394.8293
 178  413.3831
 179  569.4324
 180  524.5208
 181  370.8025
 182  253.4003
 183  330.5797
 184  484.9831
 185  371.4908
 186  352.2085
 187  500.814
 188  457.1157
 189  352.9247
 190  280.2806
 191  349.1629
 192  383.4099
 193  416.3051
 194  480.9933
 195  477.992
 196  531.155
 197  405.543
 198  304.8812
 199  390.175
 200  349.4856
 201  270.8167
 202  343.4627
 203  445.3961
 204  572.1232
 205  550.2215
 206  319.7407
 207  284.0038
 208  326.0956
 209  239.6601
 210  69.73435
 211  283.4065
 212  382.7277
 213  308.8671
 214  342.7444
 215  365.9608
 216  370.0702
 217  431.2453
 218  358.4841
 219  311.8303
 220  414.0452
 221  384.9868
 222  371.0947
 223  354.3744
 224  355.535
 225  440.6574
 226  382.3724
 227  444.8804
 228  456.8257
 229  398.9871
 230  426.4404
 231  324.2108
 232  316.8563
 233  419.6239
 234  393.9779
 235  407.8148
 236  487.0375
 237  559.7653
 238  622.5818
 239  487.2609
 240  406.8844
 241  527.8224
 242  493.216
 243  407.8002
 244  343.8232
 245  325.9771
 246  378.7296
 247  403.5246
 248  451.8357
 249  333.1345
 250  351.4192
 251  253.8612
 252  424.215
 253  511.1013
 254  570.4668
 255  568.1135
 256  410.2684
 257  478.665
 258  457.2528
 259  502.0232
 260  497.8981
 261  466.8522
 262  474.7596
 263  383.1088
 264  291.6989
 265  322.6412
 266  435.3571
 267  357.2157
 268  461.421
 269  381.8925
 270  376.7293
 271  336.4315
 272  376.9392
 273  447.028
 274  431.2123
 275  346.7323
 276  469.8688
 277  370.093
 278  358.0713
 279  422.481
 280  435.8345
 281  307.5515
 282  307.0939
 283  403.7362
 284  427.2708
 285  392.2719
 286  429.0353
 287  391.0015
 288  343.2814
 289  286.2957
 290  455.8842
 291  468.154
 292  323.5868
 293  348.588
 294  407.6621
 295  226.8091
 296  126.049
 297  138.253
 298  303.9432
 299  542.4705
 300  330.7275
 301  362.0323
 302  443.9633
 303  507.3025
 304  462.5373
 305  344.2112
 306  309.5628
 307  320.3427
 308  353.0877
 309  345.8343
 310  316.2121
 311  368.6007
 312  414.1251
 313  428.5265
 314  413.2288
 315  365.9532
 316  328.3535
 317  449.1102
 318  398.4895
 319  420.1093
 320  373.4411
 321  316.1732
 322  453.7658
 323  449.2048
 324  482.7361
 325  370.691
 326  418.3835
 327  520.8659
 328  489.7017
 329  354.6335
 330  364.2629
 331  365.1597
 332  412.1674
 333  357.3359
 334  429.9173
 335  521.7316
 336  503.2933
 337  483.3228
 338  409.2838
 339  322.256
 340  372.4627
 341  448.3076
 342  479.0528
 343  459.9953
 344  516.9595
 345  591.0172
 346  462.1869
 347  356.4508
 348  472.9594
 349  537.4968
 350  431.509
 351  401.5363
 352  253.0047
 353  228.9929
 354  261.0644
 355  273.0787
 356  317.5993
 357  269.2804
 358  327.4518
 359  298.9631
 360  283.3457
 361  349.8305
 362  277.6096
 363  307.6072
 364  398.7781
 365  387.9842
 366  347.7552
 367  426.6136
 368  430.7044
 369  396.1388
 370  425.5573
 371  402.6782
 372  332.7677
 373  390.0898
 374  372.9377
 375  395.7338
 376  345.5632
 377  336.8088
 378  319.6589
 379  323.4053
 380  356.9507
 381  370.2685
 382  333.1563
 383  319.7451
 384  465.3615
 385  463.6246
 386  443.8036
 387  605.6838
 388  554.6379
 389  597.8528
 390  441.9723
 391  393.685
 392  409.62
 393  516.8414
 394  530.5128
 395  456.5229
 396  451.1833
 397  418.6891
 398  288.0852
 399  423.6849
 400  449.9243
 401  552.0494
 402  572.4424
 403  594.241
 404  494.2847
 405  418.5283
 406  401.0686
 407  436.0258
 408  466.9659
 409  453.6322
 410  617.7195
 411  617.1364
 412  614.2681
 413  523.0211
 414  451.0759
 415  602.3442
 416  618.6194
 417  570.3575
 418  546.5186
 419  549.2332
 420  538.9332
 421  567.525
 422  667.7962
 423  691.8682
 424  640.8937
 425  623.0892
 426  605.0247
 427  565.9553
 428  468.6204
 429  562.8973
 430  636.5726
 431  493.3287
 432  442.0397
 433  442.5684
 434  580.1747
 435  582.4149
 436  670.7787
 437  656.191
 438  598.5538
 439  553.703
 440  488.5545
 441  479.8176
 442  547.7233
 443  557.3383
 444  475.2726
 445  418.5474
 446  462.5711
 447  585.6808
 448  586.2084
 449  420.098
 450  474.3677
 451  738.764
 452  636.6862
 453  580.3796
 454  622.9244
 455  584.8289
 456  541.5981
 457  477.4914
 458  550.3489
 459  441.9561
 460  421.3888
 461  546.3874
 462  345.631
 463  384.3539
 464  444.0395
 465  389.878
 466  330.3563
 467  420.1861
 468  444.5087
 469  520.1135
 470  487.4405
 471  486.5957
 472  504.1978
 473  478.7414
 474  483.7242
 475  444.0936
 476  517.41
 477  604.9854
 478  526.4392
 479  451.5401
 480  442.8722
 481  545.3192
 482  621.7932
 483  641.7894
 484  575.8554
 485  486.2787
 486  314.1472
 487  394.1504
 488  440.185
 489  420.7977
 490  568.0047
 491  637.2424
 492  564.3225
 493  520.966
 494  567.8052
 495  381.3745
 496  386.9372
 497  452.9254
 498  317.1043
 499  365.8962
 500  470.118
 501  472.9797
 502  453.9948
 503  518.3281
 504  528.5484
 505  494.817
 506  599.5699
 507  717.5747
 508  766.0154
 509  1009.03
 510  1375.377
 511  1413.281
