# Input file       =  1208168225.105342_cleaned.dat
# Candidate        =  PSR_0332+5434
# Telescope        =  AR
# Epoch_topo       =  58227.428751219239
# Epoch_bary       =  N/A
# T_sample         =  0.002
# Data Folded      =  7340032
# Data Avg         =  0.237113771445625
# Data StdDev      =  5.69467471284432 
# Profile Bins     =  512
# Profile Avg      =  3396.56561426338 
# Profile StdDev   =  681.840694546839 
# Reduced chi-sqr  =  1.523
# Prob(Noise)      <  2.06e-13   (~7.3 sigma)
# P_topo (ms)      =  714.556669360009  +/- 0.000495
# P'_topo (s/s)    =  -0                +/- 2.61e-10
# P''_topo (s/s^2) =  0                 +/- 1.15e-13
# P_bary (ms)      =  N/A
# P'_bary (s/s)    =  N/A
# P''_bary (s/s^2) =  N/A
# P_orb (s)        =  N/A
# asin(i)/c (s)    =  N/A
# eccentricity     =  N/A
# w (rad)          =  N/A
# T_peri           =  N/A
######################################################
   0  4140.787
   1  4124.734
   2  4173.526
   3  4003.797
   4  3729.195
   5  4069.018
   6  4006.811
   7  3916.1
   8  4255.281
   9  3944.851
  10  3744.842
  11  3632.573
  12  3790.263
  13  3754.588
  14  4004.552
  15  4007.463
  16  3725.906
  17  3584.056
  18  3652.606
  19  3891.533
  20  3552.123
  21  3279.055
  22  3732.401
  23  4250.657
  24  3593.43
  25  2899.635
  26  3083.484
  27  3384.975
  28  3209.963
  29  3245.035
  30  3676.681
  31  3796.467
  32  3622.913
  33  3350.095
  34  3424.339
  35  3311.665
  36  3451.415
  37  3309.231
  38  3626.936
  39  3724.41
  40  3529.743
  41  2993.567
  42  2945.557
  43  3382.11
  44  3218.385
  45  3340.411
  46  3428.651
  47  3512.752
  48  3640.989
  49  3356.626
  50  3204.823
  51  3340.835
  52  3882.794
  53  3824.026
  54  3678.394
  55  3881.364
  56  3395.53
  57  3322.625
  58  3645.544
  59  3934.349
  60  3710.126
  61  3926.194
  62  4032.581
  63  3947.231
  64  3751.147
  65  4033.772
  66  3885.177
  67  4015.741
  68  4104.874
  69  3965.817
  70  4356.152
  71  4154.818
  72  3776.152
  73  3724.381
  74  3782.297
  75  3856.034
  76  3850.627
  77  3889.745
  78  3747.314
  79  3909.894
  80  3468.441
  81  3437.562
  82  3469.295
  83  3485.709
  84  3384.812
  85  3693.846
  86  4012.554
  87  3524.308
  88  3169.586
  89  3472.292
  90  3406.78
  91  3210.818
  92  3510.758
  93  3338.264
  94  3526.358
  95  3481.935
  96  3247.562
  97  3525.847
  98  3593.539
  99  3101.541
 100  2737.679
 101  2550.003
 102  3040.318
 103  3304.636
 104  3149.937
 105  3128.977
 106  3075.233
 107  2903.199
 108  2927.946
 109  3042.014
 110  2588.916
 111  2771.198
 112  2759.968
 113  2243.467
 114  2534.078
 115  2690.302
 116  2316.94
 117  1719.165
 118  1962.551
 119  1844.702
 120  1889.073
 121  2084.218
 122  2024.042
 123  1560.892
 124  1813.88
 125  2133.403
 126  2207.654
 127  2088.774
 128  2023.926
 129  2352.114
 130  2527.594
 131  2670.026
 132  2806.159
 133  2765.414
 134  2758.939
 135  2703.627
 136  3119.727
 137  3217.346
 138  3314.136
 139  3265.116
 140  3230.494
 141  2995.453
 142  2848.565
 143  2814.999
 144  2842.85
 145  3424.857
 146  3740.187
 147  3719.606
 148  3875.556
 149  3751.373
 150  3862.467
 151  3819.433
 152  4024.35
 153  4374.239
 154  3648.473
 155  3416.825
 156  3223.589
 157  3523.079
 158  3426.812
 159  3421.019
 160  3618.182
 161  3631.971
 162  3292.759
 163  3444.98
 164  3636.885
 165  3467.083
 166  3586.713
 167  3285.366
 168  2982.837
 169  2946.362
 170  2924.124
 171  2911.734
 172  2698.049
 173  2599.235
 174  2716.665
 175  2802.832
 176  2579.035
 177  2464.175
 178  2657.971
 179  2592.418
 180  2568.266
 181  2562.916
 182  2523.731
 183  2523.198
 184  2787.94
 185  2560.684
 186  2625.32
 187  2598.24
 188  2719.417
 189  2516.157
 190  2406.064
 191  2515.673
 192  2231.233
 193  2158.044
 194  1988.914
 195  2349.552
 196  3190.748
 197  3064.235
 198  2799.432
 199  2834.391
 200  2868.46
 201  2644.633
 202  2909.699
 203  2935.165
 204  2979.295
 205  3029.905
 206  3111.245
 207  3148.071
 208  3518.716
 209  3393.312
 210  3362.96
 211  3406.633
 212  3481.883
 213  3166.2
 214  3316.423
 215  3510.488
 216  3448.054
 217  3353.49
 218  3208.461
 219  3343.829
 220  3508.038
 221  3653.293
 222  3621.765
 223  3366.498
 224  3394.387
 225  3306.261
 226  3843.721
 227  3821.279
 228  3939.733
 229  3926.008
 230  3790.646
 231  3868.755
 232  4100.935
 233  4329.452
 234  4345.221
 235  4563.653
 236  4531.2
 237  4582.876
 238  4685.906
 239  4462.673
 240  4443.54
 241  4525.148
 242  4340.23
 243  4478.64
 244  4165.3
 245  4267.763
 246  3976.773
 247  4242.71
 248  4719.331
 249  4826.395
 250  5371.655
 251  6046.632
 252  6131.871
 253  5722.917
 254  5801.903
 255  5231.547
 256  4101.206
 257  3416.077
 258  3430.772
 259  3403.767
 260  3604.252
 261  3447.051
 262  3417.728
 263  3512.67
 264  3659.599
 265  3565.039
 266  3520.452
 267  3718.976
 268  3754.28
 269  3983.105
 270  3769.197
 271  3638.315
 272  3232.492
 273  3574.757
 274  4012.427
 275  4043.754
 276  4182.566
 277  4150.487
 278  4377.198
 279  4169.592
 280  3997.197
 281  3930.181
 282  3828.402
 283  3974.815
 284  3769.031
 285  3591.286
 286  3873.248
 287  4091.342
 288  4065.316
 289  4154.854
 290  4203.123
 291  4148.312
 292  3616.009
 293  3543.965
 294  3978.703
 295  3944.395
 296  3681.424
 297  3745.785
 298  3501.869
 299  3415.421
 300  3689.537
 301  4092.245
 302  4201.838
 303  4221.744
 304  4348.541
 305  4192.517
 306  4196.844
 307  4197.809
 308  4123.537
 309  4134.04
 310  4019.353
 311  3691.955
 312  3583.108
 313  3580.997
 314  3794.176
 315  3981.409
 316  3723.834
 317  3531.983
 318  3656.19
 319  3745.251
 320  3392.927
 321  3281.138
 322  3516.45
 323  3724.685
 324  3545.593
 325  3441.697
 326  3508.265
 327  3383.7
 328  3138.733
 329  3034.555
 330  2784.472
 331  2773.218
 332  2671.349
 333  2626.063
 334  3046.57
 335  3057.738
 336  3031.176
 337  3205.15
 338  3294.294
 339  2987.745
 340  2794.598
 341  2976.588
 342  3364.899
 343  3426.256
 344  3572.046
 345  3885.318
 346  3736.394
 347  3404.097
 348  3583.792
 349  3582.944
 350  3439.364
 351  3846.414
 352  3716.054
 353  3558.025
 354  3472.613
 355  3444.662
 356  3507.648
 357  3616.457
 358  3522.816
 359  3280.466
 360  3253.102
 361  3385.528
 362  3461.22
 363  3267.615
 364  3069.236
 365  3455.445
 366  3319.666
 367  3500.102
 368  3564.115
 369  3679.913
 370  3666.068
 371  3402.678
 372  3552.945
 373  3232.894
 374  3299.511
 375  3413.747
 376  3647.87
 377  3789.031
 378  3563.849
 379  3788.363
 380  3400.227
 381  3222.937
 382  3432.995
 383  3346.448
 384  3508.834
 385  3563.744
 386  3572.671
 387  3374.68
 388  3098.354
 389  2816.033
 390  2762.877
 391  2967.354
 392  2984.447
 393  2806.588
 394  2472.954
 395  2346.432
 396  2424.06
 397  2365.55
 398  2357.716
 399  2481.907
 400  2325.562
 401  2450.98
 402  2486.577
 403  2136.776
 404  2361.615
 405  2553.698
 406  2744.781
 407  2930.358
 408  3032.948
 409  3241.968
 410  3245.891
 411  3034.055
 412  3173.444
 413  3063.882
 414  2998.046
 415  2930.189
 416  3189.781
 417  3355.699
 418  3335.621
 419  3175.268
 420  3102.154
 421  2931.135
 422  2924.303
 423  2960.109
 424  3023.471
 425  3118.652
 426  3162.628
 427  3248.238
 428  2850.374
 429  2905.404
 430  2848.887
 431  2896.792
 432  2579.585
 433  2733.435
 434  2768.55
 435  2617.1
 436  2753.079
 437  2700.27
 438  2754.222
 439  2793.152
 440  2724.817
 441  2869.909
 442  2616.372
 443  2625.755
 444  3405.399
 445  3642.934
 446  3272.951
 447  3151.387
 448  3416.167
 449  3384.891
 450  3256.835
 451  3451.528
 452  3389.698
 453  3502.493
 454  3413.954
 455  3502.115
 456  3717.12
 457  3864.81
 458  3872.236
 459  3620.27
 460  3415.418
 461  2999.501
 462  2951.943
 463  3320.021
 464  3227.422
 465  2974.916
 466  3429.692
 467  3492.217
 468  2916.669
 469  2816.979
 470  3257.319
 471  3183.748
 472  2922.816
 473  2810.175
 474  2622.304
 475  2571.87
 476  2850.914
 477  3252.038
 478  3319.471
 479  3188.776
 480  2895.188
 481  3050.145
 482  2803.519
 483  2925.415
 484  2924.116
 485  3217.34
 486  3038.537
 487  2928.963
 488  3433.055
 489  3193.118
 490  3577.498
 491  3608.458
 492  3456.182
 493  3653.07
 494  4162.088
 495  4033.529
 496  3663.401
 497  3980.905
 498  4003.021
 499  4374.532
 500  4181.934
 501  3665.372
 502  3748.961
 503  3841.266
 504  4052.835
 505  4125.797
 506  4086.074
 507  3880.422
 508  3971.938
 509  3921.927
 510  3923.781
 511  4155.688
