# Input file       =  1208239734.114344_cleaned.dat
# Candidate        =  PSR_0332+5434
# Telescope        =  AR
# Epoch_topo       =  58228.256401786384
# Epoch_bary       =  N/A
# T_sample         =  0.002
# Data Folded      =  7208960
# Data Avg         =  0.159613305782179
# Data StdDev      =  4.90849529172619 
# Profile Bins     =  512
# Profile Avg      =  2247.15907698623 
# Profile StdDev   =  582.438005702656 
# Reduced chi-sqr  =  1.200
# Prob(Noise)      <  0.00126   (~3.0 sigma)
# P_topo (ms)      =  714.555971495361  +/- 4.41e-05
# P'_topo (s/s)    =  -0                +/- 2.37e-11
# P''_topo (s/s^2) =  0                 +/- 1.06e-14
# P_bary (ms)      =  N/A
# P'_bary (s/s)    =  N/A
# P''_bary (s/s^2) =  N/A
# P_orb (s)        =  N/A
# asin(i)/c (s)    =  N/A
# eccentricity     =  N/A
# w (rad)          =  N/A
# T_peri           =  N/A
######################################################
   0  2060.013
   1  2149.327
   2  1890.558
   3  1964.019
   4  2175.283
   5  2110.076
   6  2164.746
   7  1871.801
   8  1841.351
   9  1748.21
  10  1276.05
  11  1469.108
  12  1843.109
  13  2692.562
  14  2975.943
  15  2723.669
  16  2506.563
  17  2371.632
  18  2298.392
  19  2088.327
  20  1945.139
  21  2005.844
  22  2254.917
  23  2229.044
  24  2449.656
  25  2139.144
  26  2044.764
  27  2176.723
  28  2372.571
  29  2664.773
  30  2469.501
  31  2912.464
  32  2988.95
  33  2156.429
  34  2155.713
  35  1760.399
  36  1897.922
  37  1842.866
  38  2059.964
  39  2363.935
  40  2268.958
  41  1890.485
  42  1626.599
  43  1917.717
  44  2066.28
  45  2233.188
  46  2296.621
  47  2483.809
  48  2499.372
  49  2359.878
  50  2627.622
  51  2482.046
  52  2269.893
  53  2081.217
  54  1941.86
  55  2049.826
  56  1938.867
  57  1835.357
  58  1654.212
  59  1688.39
  60  1994.716
  61  2368.199
  62  2359.911
  63  2571.225
  64  2434.025
  65  2062.376
  66  2140.254
  67  1757.653
  68  1712.052
  69  1733.563
  70  1868.189
  71  2279.32
  72  1650.791
  73  1557.052
  74  1275.541
  75  1431.208
  76  1665.508
  77  1790.616
  78  2610.591
  79  3028.932
  80  2917.197
  81  2211.603
  82  1929.841
  83  2126.104
  84  2235.51
  85  1950.517
  86  1970.16
  87  2095.723
  88  1959.18
  89  2296.042
  90  2062.635
  91  1773.209
  92  1804.944
  93  1736.899
  94  1847.493
  95  2190.01
  96  2929.877
  97  2656.442
  98  2528.369
  99  1880.06
 100  1678.152
 101  2107.392
 102  1985.488
 103  2244.532
 104  2474.072
 105  2410.277
 106  2158.107
 107  2109.737
 108  2174.055
 109  2127.493
 110  2661.416
 111  2688.382
 112  3362.108
 113  3382.393
 114  3265.132
 115  3017.764
 116  2374.713
 117  2185.676
 118  2058.579
 119  2487.69
 120  2565.456
 121  2344.547
 122  2157.745
 123  1857.43
 124  1791.682
 125  1854.082
 126  2361.657
 127  2467.064
 128  2674.969
 129  2962.514
 130  3318.07
 131  2618.992
 132  2564.176
 133  2840.908
 134  2767.015
 135  2244.394
 136  2245.766
 137  2646.876
 138  2348.741
 139  1915.776
 140  1747.572
 141  1603.849
 142  2073.61
 143  2364.958
 144  2654.391
 145  3107.795
 146  2584.135
 147  2335.471
 148  2510.684
 149  2479.257
 150  2461.057
 151  2280.092
 152  2371.094
 153  2410.906
 154  2247.726
 155  2139.592
 156  2243.234
 157  1793.766
 158  1634.813
 159  1885.946
 160  2505.833
 161  2800.298
 162  2722.512
 163  2566.541
 164  2336.964
 165  1952.922
 166  1880.675
 167  1820.074
 168  1961.814
 169  1996.262
 170  1857.029
 171  2048.893
 172  1642.365
 173  1241.851
 174  1486.568
 175  1469.505
 176  1496.454
 177  2355.501
 178  2438.962
 179  2869.743
 180  2709.842
 181  2223.722
 182  2049.581
 183  1963.434
 184  2058.055
 185  1831.187
 186  2349.479
 187  2417.372
 188  2603.714
 189  2568.517
 190  2021.637
 191  1876.178
 192  2201.099
 193  2754.663
 194  2400.926
 195  2681.537
 196  2981.928
 197  3047.828
 198  2977.707
 199  2391.546
 200  2270.085
 201  2444.997
 202  2296.62
 203  2602.571
 204  2544.685
 205  1798.464
 206  1668.532
 207  1730.666
 208  1706.679
 209  2186.749
 210  2404.28
 211  2591.403
 212  2742.836
 213  2477.667
 214  2169.44
 215  2269.15
 216  2349.94
 217  2305.991
 218  2146.415
 219  2880.319
 220  2760.766
 221  2365.098
 222  2137.493
 223  2044.968
 224  1741.934
 225  1778.713
 226  2453.306
 227  2717.434
 228  2791.236
 229  2910.334
 230  2925.592
 231  2436.225
 232  2381.907
 233  2468.838
 234  2352.384
 235  2280.164
 236  2118.031
 237  2105.121
 238  1573.003
 239  1616.631
 240  1716.825
 241  1762.872
 242  2254.783
 243  1966.363
 244  2842.27
 245  2901.646
 246  2430.93
 247  2222.992
 248  2346.003
 249  2654.059
 250  2122.134
 251  2417.788
 252  2891.667
 253  2940.042
 254  2327.592
 255  1889.313
 256  1823.725
 257  1699.484
 258  1375.763
 259  1360.069
 260  2145.236
 261  2551.864
 262  3280.287
 263  3023.557
 264  1939.317
 265  1871.982
 266  1700.307
 267  1865.33
 268  1988.88
 269  2431.056
 270  2380.692
 271  2199.657
 272  1798.318
 273  1596.866
 274  1608.269
 275  1759.527
 276  1994.429
 277  2186.228
 278  3007.229
 279  2636.492
 280  2618.636
 281  2426.219
 282  2078.466
 283  1746.521
 284  1714.347
 285  2087.263
 286  2065.313
 287  1920.324
 288  1932.775
 289  1619.752
 290  1550.882
 291  1669.507
 292  1948.897
 293  2409.894
 294  2405.897
 295  2321.932
 296  2343.401
 297  2465.198
 298  2328.136
 299  1882.122
 300  1919.458
 301  2178.286
 302  2556.313
 303  2545.887
 304  1961.291
 305  1906.396
 306  1856.56
 307  1596.039
 308  1934.771
 309  2295.463
 310  2416.473
 311  2661.076
 312  2615.05
 313  2724.209
 314  2386.36
 315  2228.608
 316  1847.854
 317  2087.952
 318  2444.184
 319  2308.557
 320  1778.206
 321  1462.496
 322  1436.303
 323  1347.8
 324  1458.429
 325  2243.863
 326  2544.092
 327  2834.044
 328  2840.531
 329  2351.367
 330  2161.679
 331  1978.528
 332  1831.127
 333  1865.67
 334  2023.964
 335  2660.659
 336  3076.029
 337  2458.686
 338  1814.289
 339  1257.087
 340  1351.314
 341  1892.4
 342  2025.265
 343  2554.682
 344  3015.773
 345  3210.283
 346  2500.058
 347  2013.728
 348  1773.74
 349  1484.529
 350  1734.581
 351  2128.042
 352  2260.376
 353  2188.505
 354  2155.293
 355  1960.92
 356  1512.152
 357  1781.542
 358  1754.239
 359  2646.122
 360  2728.264
 361  2925.085
 362  2801.739
 363  2700.411
 364  2536.352
 365  1960.391
 366  1956.807
 367  1757.875
 368  1781.227
 369  2032.897
 370  2140.412
 371  2015.706
 372  1572.391
 373  1990.929
 374  2030.239
 375  2425.819
 376  2355.979
 377  2377.337
 378  2287.547
 379  2115.117
 380  2211.105
 381  2178.497
 382  2055.546
 383  1751.076
 384  2579.397
 385  2420.32
 386  1745.454
 387  1713.948
 388  1849.342
 389  1914.495
 390  2097.689
 391  2464.249
 392  2495.6
 393  2299.926
 394  2300.371
 395  2260.856
 396  2187.666
 397  2580.675
 398  2138.134
 399  2496.469
 400  2468.041
 401  2093.267
 402  2069.039
 403  1789.173
 404  1432.49
 405  1474.439
 406  996.2754
 407  1690.226
 408  2017.519
 409  2267.444
 410  2938.4
 411  2565.925
 412  1751.109
 413  1503.41
 414  1690.579
 415  1853.884
 416  1973.735
 417  2678.486
 418  2896.676
 419  2603.608
 420  1979.694
 421  1935.548
 422  1649.577
 423  1609.338
 424  1866.992
 425  2799.098
 426  3849.552
 427  3405.678
 428  3163.251
 429  3019.643
 430  2968.592
 431  2886.131
 432  2985.76
 433  3567.16
 434  4016.023
 435  4211.574
 436  3174.816
 437  2262.448
 438  1623.239
 439  1585.652
 440  2339.407
 441  2050.51
 442  2876.904
 443  3219.512
 444  3408.238
 445  3006.758
 446  2797.93
 447  2784.84
 448  2382.894
 449  2363.49
 450  2314.184
 451  2277.074
 452  2161.281
 453  2051.123
 454  2342.308
 455  2548.968
 456  2505.279
 457  2462.888
 458  2485.253
 459  2432.324
 460  2610.986
 461  2704.914
 462  2696.66
 463  2643.383
 464  2196.376
 465  2281.604
 466  2755.938
 467  2506.019
 468  2055.688
 469  2280.823
 470  2462.219
 471  2340.988
 472  2222.269
 473  2521.531
 474  2693.75
 475  2474.811
 476  2727.879
 477  2622.194
 478  2575.941
 479  2596.99
 480  2751.087
 481  3017.97
 482  2584.881
 483  2378.031
 484  2669.064
 485  2240.334
 486  1875.664
 487  1619.453
 488  1686.727
 489  1938.4
 490  2382.021
 491  2895.824
 492  2858.979
 493  2471.119
 494  2576.865
 495  2122.09
 496  1744.084
 497  1622.829
 498  1722.939
 499  2155.316
 500  2520.533
 501  1935.933
 502  2063.126
 503  1551.954
 504  1501.81
 505  1452.967
 506  1674.765
 507  2544.8
 508  3015.537
 509  3577.836
 510  3080.093
 511  2441.405
