# Input file       =  1208670671.120142_cleaned.dat
# Candidate        =  PSR_0332+5434
# Telescope        =  AR
# Epoch_topo       =  58233.244098612755
# Epoch_bary       =  N/A
# T_sample         =  0.002
# Data Folded      =  7208960
# Data Avg         =  0.243451094628439
# Data StdDev      =  6.46351491504833 
# Profile Bins     =  512
# Profile Avg      =  3428.41146867942 
# Profile StdDev   =  766.955352548826 
# Reduced chi-sqr  =  5.332
# Prob(Noise)      <  6.74e-298   (~36.9 sigma)
# P_topo (ms)      =  714.551773203082  +/- 1.14e-05
# P'_topo (s/s)    =  -0                +/- 6.13e-12
# P''_topo (s/s^2) =  0                 +/- 2.76e-15
# P_bary (ms)      =  N/A
# P'_bary (s/s)    =  N/A
# P''_bary (s/s^2) =  N/A
# P_orb (s)        =  N/A
# asin(i)/c (s)    =  N/A
# eccentricity     =  N/A
# w (rad)          =  N/A
# T_peri           =  N/A
######################################################
   0  1750.612
   1  2315.918
   2  4196.484
   3  5055.159
   4  5978.424
   5  4842.627
   6  3788.784
   7  3079.106
   8  2922.426
   9  2934.042
  10  2457.443
  11  3836.477
  12  4660.283
  13  4256.625
  14  2390.317
  15  1944.577
  16  1665.23
  17  1716.936
  18  3180.479
  19  4645.71
  20  5964.763
  21  5483.377
  22  4589.487
  23  3438.484
  24  2572.368
  25  2472.15
  26  2108.237
  27  2784.944
  28  3957.446
  29  4434.159
  30  3448.434
  31  2092.5
  32  2139.226
  33  1664.486
  34  1933.029
  35  3361.253
  36  4693.765
  37  5909.954
  38  5273.743
  39  3941.25
  40  3159.697
  41  2512.393
  42  2084.27
  43  2140.096
  44  3404.406
  45  4274.767
  46  3676.301
  47  2519.425
  48  2155.013
  49  1748.045
  50  2031.198
  51  2949.831
  52  4101.055
  53  5642.166
  54  4963.872
  55  4939.241
  56  3592.131
  57  3086.343
  58  2851.812
  59  2110.143
  60  2733.691
  61  3689.892
  62  4375.935
  63  2844.158
  64  1822.808
  65  1556.406
  66  1611.954
  67  2434.449
  68  3118.575
  69  5300.923
  70  5311.747
  71  4782.438
  72  3246.617
  73  3145.158
  74  2792.565
  75  2584.024
  76  2670.88
  77  3505.329
  78  4754.875
  79  3783.406
  80  2685.023
  81  1049.662
  82  1431.96
  83  1789.303
  84  2891.776
  85  5251.679
  86  5533.404
  87  5476.248
  88  3980.621
  89  3050.169
  90  2447.507
  91  2379.011
  92  2253.457
  93  2229.049
  94  4148.222
  95  4194.164
  96  3432.411
  97  2008.832
  98  1357.043
  99  1564.918
 100  2074.794
 101  3400.74
 102  4912.968
 103  6092.016
 104  5262.001
 105  3947.695
 106  3020.09
 107  2390.636
 108  2492.299
 109  2908.257
 110  3665.228
 111  4650.773
 112  4178.926
 113  2629.249
 114  1457.746
 115  1161.649
 116  1568.836
 117  2346.13
 118  4580.54
 119  5504.273
 120  5438.38
 121  4327.371
 122  3126.674
 123  2506.699
 124  2361.692
 125  2189.525
 126  3144.029
 127  3969.656
 128  4198.504
 129  3254.374
 130  2062.037
 131  1812.989
 132  1717.936
 133  2320.493
 134  3572.437
 135  4728.319
 136  6162.879
 137  5190.151
 138  4191.056
 139  3194.396
 140  2891.011
 141  2886.236
 142  2154.304
 143  3428.182
 144  4258.19
 145  3569.568
 146  2041.607
 147  2341.838
 148  2248.796
 149  2241.462
 150  3441.8
 151  4755.344
 152  6154.213
 153  5252.906
 154  4660.405
 155  3597.73
 156  3153.239
 157  2780.345
 158  2141.459
 159  2642.045
 160  3494.295
 161  4240.704
 162  2812.157
 163  2183.552
 164  1644.189
 165  1830.224
 166  2099.407
 167  3275.196
 168  5333.482
 169  6160.319
 170  5826.688
 171  4583.782
 172  3632.831
 173  3339.352
 174  2888.001
 175  2540.721
 176  3392.711
 177  4756.659
 178  4116.523
 179  2832.239
 180  1543.268
 181  1565.196
 182  1880.043
 183  2720.207
 184  4465.903
 185  5764.846
 186  5993.658
 187  4490.957
 188  3181.713
 189  2616.328
 190  2522.032
 191  2566.011
 192  2711.758
 193  4192.064
 194  4771.685
 195  3588.834
 196  2283.563
 197  1637.647
 198  1543.434
 199  2034.167
 200  3325.563
 201  5036.865
 202  6004.113
 203  5491.815
 204  4280.242
 205  3405.895
 206  2394.766
 207  2368.618
 208  2657.064
 209  3407.892
 210  4531.992
 211  4102.167
 212  3039.931
 213  1984.049
 214  2301.052
 215  1769.755
 216  2674.963
 217  4298.591
 218  4923.708
 219  5470.031
 220  4457.942
 221  3926.3
 222  3144.191
 223  2849.64
 224  2647.732
 225  2827.608
 226  4189.579
 227  4421.542
 228  3620.633
 229  2789.282
 230  2634.67
 231  1899.721
 232  2085.193
 233  3070.257
 234  4603.714
 235  6053.151
 236  5489.098
 237  4706.22
 238  3995.781
 239  3428.633
 240  3189.36
 241  2486.105
 242  3110.79
 243  4010.568
 244  4101.849
 245  2291.007
 246  2065.426
 247  1913.858
 248  1760.468
 249  2588.286
 250  4308.19
 251  5894.745
 252  5444.531
 253  4866.9
 254  3752.538
 255  3186.623
 256  2965.833
 257  2456.155
 258  2437.789
 259  3519.388
 260  4400.716
 261  3346.28
 262  2134.835
 263  1531.086
 264  1964.658
 265  2224.319
 266  3103.541
 267  5319.542
 268  6178.532
 269  5331.083
 270  3906.474
 271  2909.469
 272  2783.781
 273  2841.573
 274  2676.676
 275  3264.35
 276  4457.718
 277  4247.973
 278  2859.677
 279  2104.745
 280  1646.808
 281  1846.518
 282  2481.046
 283  4057.359
 284  5891.587
 285  6074.578
 286  5257.201
 287  3743.744
 288  2430.382
 289  2294.156
 290  2010.576
 291  2709.403
 292  3816.98
 293  4130.925
 294  3014.036
 295  2497.962
 296  2362.51
 297  1995.039
 298  1730.19
 299  3090.195
 300  5007.291
 301  5996.392
 302  5706.16
 303  4907.005
 304  3514.561
 305  2746.033
 306  2383.134
 307  2071.833
 308  3175.139
 309  4417.955
 310  4010.487
 311  3273.146
 312  2161.855
 313  2094.556
 314  2060.907
 315  2138.044
 316  3466.738
 317  4699.579
 318  5458.99
 319  4116.855
 320  3757.441
 321  3055.89
 322  2739.693
 323  2335.314
 324  2219.533
 325  3561.76
 326  3780.375
 327  3612.579
 328  2118.515
 329  2161.241
 330  1942.579
 331  1852.025
 332  3445.77
 333  4954.958
 334  6437.344
 335  5359.324
 336  4117.681
 337  3010.097
 338  2987.02
 339  2572.364
 340  2562.483
 341  3671.27
 342  4000.232
 343  4065.31
 344  2982.226
 345  2142.841
 346  1650.437
 347  1828.29
 348  2835.195
 349  4558.837
 350  6261.432
 351  6004.838
 352  5037.888
 353  3497.348
 354  3138.214
 355  3110.643
 356  2812.171
 357  2761.093
 358  3636.219
 359  4633.724
 360  3727.31
 361  2640.304
 362  1528.393
 363  1344.817
 364  1877.372
 365  3158.188
 366  5187.488
 367  6240.431
 368  5551.085
 369  4855.397
 370  4203.739
 371  3591.445
 372  3966.072
 373  4209.215
 374  5368
 375  6793.152
 376  6848.647
 377  5762.965
 378  4152.842
 379  3119.241
 380  2954.035
 381  2995.01
 382  3856.517
 383  5619.994
 384  5922.558
 385  5969.169
 386  4270.842
 387  3257.071
 388  2779.92
 389  2509.338
 390  2415.62
 391  3258.263
 392  4463.742
 393  3752.152
 394  3023.205
 395  1998.396
 396  2210.035
 397  2250.876
 398  2818.007
 399  4961.497
 400  5778.944
 401  6307.131
 402  4343.125
 403  3542.572
 404  2846.314
 405  2331.657
 406  2259.309
 407  2708.704
 408  4449.587
 409  4335.223
 410  3325.201
 411  1604.545
 412  1998.625
 413  2050.069
 414  2768.207
 415  4472.241
 416  5628.396
 417  6627.617
 418  5149.478
 419  4127.846
 420  3058.32
 421  2868.794
 422  2557.262
 423  2373.148
 424  3895.004
 425  4135.862
 426  3413.093
 427  1973.986
 428  1887.085
 429  1850.93
 430  2033.917
 431  3362.391
 432  4750.211
 433  5825.885
 434  5429.874
 435  4750.045
 436  3180.978
 437  2701.352
 438  2222.655
 439  1734.282
 440  3042.906
 441  3918.164
 442  3870.624
 443  2724.354
 444  1806.066
 445  1386.98
 446  1399.683
 447  2219.78
 448  3670.722
 449  5689.652
 450  5984.198
 451  5154.956
 452  3935.203
 453  3281.743
 454  3041.229
 455  2561.295
 456  2775.58
 457  3280.368
 458  4262.811
 459  3325.973
 460  2434.725
 461  2049.427
 462  1506.933
 463  1801.504
 464  2549.108
 465  4648.259
 466  5598.927
 467  5463.066
 468  4866.619
 469  3344.518
 470  2858.799
 471  2006.414
 472  2035.371
 473  2733.076
 474  3993.736
 475  4127.438
 476  2705.972
 477  2377.972
 478  1928.408
 479  2130.083
 480  2731.318
 481  4141.13
 482  5786.022
 483  5364.881
 484  5194.895
 485  3744.019
 486  2894.525
 487  2489.602
 488  2286.673
 489  2367.194
 490  3446.523
 491  4225.125
 492  3678.129
 493  2764.458
 494  1818.331
 495  1899.449
 496  2072.201
 497  2806.29
 498  4956.158
 499  5274.84
 500  6046.152
 501  4301.112
 502  3229.722
 503  3136.485
 504  3216.848
 505  2723.216
 506  2923.083
 507  4127.333
 508  4165.27
 509  3327.456
 510  1751.977
 511  1489.269
