# Input file       =  1208153608.10872_cleaned.dat
# Candidate        =  PSR_0332+5434
# Telescope        =  AR
# Epoch_topo       =  58227.259573017596
# Epoch_bary       =  N/A
# T_sample         =  0.002
# Data Folded      =  7143424
# Data Avg         =  0.203579724074231
# Data StdDev      =  4.9628349167077  
# Profile Bins     =  512
# Profile Avg      =  2840.34311384324 
# Profile StdDev   =  586.203035378699 
# Reduced chi-sqr  =  3.313
# Prob(Noise)      <  2.05e-126   (~23.9 sigma)
# P_topo (ms)      =  714.556785103577  +/- 1.25e-05
# P'_topo (s/s)    =  -0                +/- 6.76e-12
# P''_topo (s/s^2) =  0                 +/- 3.07e-15
# P_bary (ms)      =  N/A
# P'_bary (s/s)    =  N/A
# P''_bary (s/s^2) =  N/A
# P_orb (s)        =  N/A
# asin(i)/c (s)    =  N/A
# eccentricity     =  N/A
# w (rad)          =  N/A
# T_peri           =  N/A
######################################################
   0  3421.761
   1  4134.979
   2  4031.759
   3  3473.079
   4  2520.616
   5  1822.933
   6  2009.648
   7  2661.417
   8  3422.523
   9  3568.598
  10  3466.535
  11  2683.597
  12  1985.131
  13  1580.758
  14  1959.899
  15  2876.131
  16  3557.06
  17  4327.701
  18  4158.584
  19  3198.25
  20  2258.646
  21  1888.226
  22  1723.332
  23  2180.369
  24  2472.757
  25  2958.799
  26  3460.08
  27  3003.777
  28  2164.83
  29  1752.784
  30  1787.87
  31  1802.927
  32  2610.041
  33  3641.485
  34  3735.456
  35  3402.476
  36  2620.729
  37  1906.281
  38  1758.595
  39  1992.403
  40  2385.381
  41  3022.041
  42  3297.594
  43  2796.075
  44  1802.557
  45  1426.853
  46  1229.276
  47  1525.65
  48  2280.103
  49  2767.876
  50  3702.229
  51  3554.73
  52  2966.976
  53  2037.796
  54  1847.702
  55  1650.794
  56  1977.993
  57  2529.78
  58  3422.69
  59  3393.909
  60  2922.184
  61  2094.79
  62  1666.604
  63  2059.624
  64  2087.956
  65  2611.348
  66  3329.058
  67  3444.836
  68  3372.764
  69  2979.871
  70  2425.493
  71  2010.521
  72  2311.149
  73  2808.719
  74  2989.365
  75  3516.492
  76  3778.819
  77  3506.521
  78  2068.474
  79  1704.692
  80  2053.416
  81  2464.336
  82  3388.963
  83  4087.327
  84  4303.596
  85  3542.044
  86  2336.615
  87  1891.136
  88  1900.485
  89  2320.366
  90  2600.747
  91  3440.078
  92  3623.582
  93  3412.718
  94  2437.316
  95  1853.599
  96  1729.523
  97  2569.717
  98  2941.266
  99  3603.276
 100  4463.273
 101  3965.289
 102  3192.601
 103  2656.125
 104  2091.194
 105  2177.486
 106  2807.057
 107  3077.431
 108  3280.598
 109  3723.584
 110  2782.662
 111  2155.363
 112  1889.426
 113  1820.69
 114  2375.966
 115  2935.222
 116  3969.658
 117  4041.173
 118  3168.745
 119  2221.416
 120  1879.852
 121  2108.094
 122  2274.227
 123  2745.901
 124  3195.707
 125  3205.043
 126  2820.924
 127  1996.007
 128  2043.426
 129  2007.354
 130  2639.775
 131  2705.575
 132  3244.476
 133  4108.142
 134  3871.03
 135  3028.086
 136  2366.1
 137  1991.442
 138  1692.204
 139  2182.532
 140  2313.394
 141  3000.121
 142  3264.335
 143  2739.971
 144  2132.759
 145  1683.904
 146  2174.298
 147  2351.714
 148  2962.546
 149  4075.925
 150  3844.467
 151  3543.703
 152  3047.728
 153  2254.054
 154  1805.237
 155  1934.481
 156  2529.944
 157  3370.983
 158  3931.836
 159  3700.205
 160  2455.286
 161  1709.01
 162  1922.16
 163  2518.897
 164  2642.671
 165  3549.233
 166  4299.704
 167  3710.356
 168  2393.329
 169  2335.264
 170  2005.917
 171  2124.294
 172  2570.998
 173  3123.423
 174  3108.578
 175  3225.348
 176  3289.363
 177  2426.548
 178  1758.898
 179  1899.643
 180  1894.616
 181  2780.955
 182  3885.766
 183  4400.62
 184  3527.451
 185  2584.475
 186  1780.157
 187  1730.82
 188  2162.413
 189  2562.362
 190  2909.216
 191  3565.627
 192  3558.678
 193  2244.192
 194  2086.624
 195  2117.423
 196  2529.272
 197  2968.096
 198  3611.665
 199  4123.535
 200  3738.063
 201  3385.401
 202  2574.171
 203  2108.63
 204  1826.932
 205  2409.721
 206  2744.688
 207  3308.412
 208  3468.847
 209  2716.41
 210  2217.304
 211  2092.369
 212  2243.35
 213  2527.737
 214  2577.177
 215  3516.494
 216  3958.82
 217  3692.375
 218  3065.186
 219  2104.891
 220  2089.876
 221  2311.115
 222  2769.927
 223  2836.737
 224  3347.437
 225  3663.933
 226  2696.578
 227  1939.552
 228  1779.203
 229  2168.971
 230  2609.473
 231  3476.298
 232  4408.291
 233  4130.532
 234  3455.518
 235  2686.783
 236  1838.38
 237  2025.764
 238  2671.534
 239  2830.351
 240  3162.709
 241  3519.035
 242  3458.949
 243  2803.635
 244  1656.248
 245  2016.985
 246  2775.502
 247  3180.974
 248  3643.427
 249  3973.746
 250  3677.07
 251  2236.28
 252  2103.139
 253  1869.152
 254  2571.267
 255  2892.477
 256  3057.422
 257  3566.832
 258  3539.383
 259  2850.744
 260  1755.245
 261  1790.729
 262  1905.276
 263  2427.712
 264  3554.725
 265  4227.17
 266  4780.234
 267  4139.847
 268  3627.046
 269  3571.817
 270  3588.988
 271  4032.563
 272  4790.698
 273  4862.124
 274  4353.073
 275  3469.72
 276  2567.775
 277  2164.896
 278  2026.785
 279  2389.594
 280  3251.408
 281  3869.899
 282  4258.76
 283  3918.976
 284  3411.434
 285  2557.295
 286  2282.335
 287  2731.772
 288  3131.378
 289  2763.854
 290  2736.845
 291  2884.391
 292  2876.358
 293  2229.389
 294  2115.502
 295  2367.01
 296  2905.051
 297  3631.097
 298  4592.366
 299  4531.435
 300  3732.882
 301  2710.268
 302  2153.699
 303  1810.956
 304  2236.231
 305  3273.116
 306  3550.006
 307  3693.939
 308  3710.721
 309  2615.096
 310  2034.085
 311  2039.193
 312  2543.458
 313  2972.848
 314  4163.81
 315  4918.024
 316  4199.38
 317  3451.148
 318  2645.961
 319  2138.119
 320  1809.684
 321  2364.137
 322  3012.956
 323  3698.474
 324  3611.345
 325  2965.592
 326  2203.466
 327  1844.587
 328  2231.844
 329  2820.404
 330  3453.815
 331  4094.888
 332  3654.398
 333  3293.382
 334  2825.388
 335  2196.975
 336  1868.774
 337  2232.949
 338  3031.409
 339  3719.844
 340  3893.512
 341  3345.508
 342  2570.586
 343  1610.842
 344  1882.138
 345  2372.917
 346  3108.034
 347  3766.385
 348  4273.916
 349  4424.518
 350  3549.326
 351  2184.22
 352  1561.545
 353  2007.122
 354  2208.341
 355  2899.849
 356  3699.581
 357  3487.424
 358  3036.768
 359  2204.47
 360  2316.183
 361  2391.492
 362  2386.299
 363  3139.883
 364  3927.536
 365  4126.306
 366  3326.67
 367  2838.87
 368  2508.093
 369  2278.885
 370  2295.472
 371  2979.656
 372  3593.456
 373  3835.37
 374  3573.545
 375  2571.431
 376  2350.066
 377  1837.995
 378  2358.698
 379  3123.652
 380  3810.411
 381  4467.815
 382  3811.784
 383  3307.005
 384  2540.915
 385  1908.092
 386  2361.989
 387  2350.549
 388  3210.409
 389  3835.767
 390  3803.705
 391  3139.75
 392  2322.857
 393  2392.851
 394  2692.678
 395  3106.448
 396  3559.893
 397  4146.514
 398  4369.736
 399  3283.061
 400  2801.63
 401  2650.66
 402  2181.297
 403  2221.501
 404  2887.793
 405  3498.392
 406  3663.206
 407  2881.586
 408  2120.266
 409  1863.922
 410  2040.542
 411  2338.826
 412  2908.902
 413  4027.77
 414  4392.706
 415  3672.784
 416  3471.075
 417  2443.418
 418  2176.451
 419  2196.164
 420  2327.18
 421  2729.143
 422  3557.731
 423  3595.099
 424  2509.245
 425  1912.915
 426  1799.931
 427  2258.565
 428  2602.288
 429  3203.284
 430  4088.847
 431  4251.646
 432  3588.482
 433  2699.107
 434  2199.033
 435  2102.914
 436  2098.27
 437  2672.467
 438  3217.113
 439  3666.049
 440  3069.64
 441  2427.99
 442  1941.407
 443  2122.093
 444  2170.258
 445  2714.368
 446  3581.03
 447  4272.999
 448  4240.847
 449  3028.125
 450  2439.321
 451  1913.012
 452  2395.279
 453  2717.403
 454  3197.394
 455  3613.969
 456  3664.401
 457  3068.562
 458  2177.465
 459  1768.206
 460  2080.532
 461  2219.812
 462  3122.357
 463  4164.814
 464  3818.908
 465  2883.552
 466  2537.579
 467  2057.538
 468  1718.823
 469  2270.201
 470  2369.942
 471  2453.917
 472  2465.467
 473  2518.72
 474  2126.235
 475  1729.909
 476  1803.329
 477  1930.209
 478  3055.307
 479  3983.021
 480  4054.014
 481  3593.328
 482  2989.705
 483  2087.996
 484  1378.271
 485  1518.859
 486  2682.664
 487  3494.428
 488  3368.952
 489  3138.336
 490  2613.098
 491  1770.04
 492  1849.137
 493  1993.755
 494  2633.768
 495  3589.41
 496  4486.583
 497  4084.318
 498  3004.022
 499  2661.496
 500  2123.937
 501  1933.41
 502  2363.988
 503  2423.949
 504  3179.24
 505  3747.269
 506  3556.448
 507  2257.238
 508  2009.459
 509  2070.042
 510  2368.746
 511  2995.249
