# Input file       =  1208498346.111598-PSRB0329-2ms-sampling-dd.dat
# Candidate        =  PSR_0332+5434
# Telescope        =  AR
# Epoch_topo       =  58231.249596199050
# Epoch_bary       =  N/A
# T_sample         =  0.002
# Data Folded      =  7208960
# Data Avg         =  1.7456878601151e-08
# Data StdDev      =  198.153254620845 
# Profile Bins     =  512
# Profile Avg      =  0.181928822877537
# Profile StdDev   =  23512.7018741151 
# Reduced chi-sqr  =  1.134
# Prob(Noise)      <  0.0191   (~2.1 sigma)
# P_topo (ms)      =  714.553473920977  +/- 0.000342
# P'_topo (s/s)    =  -0                +/- 1.84e-10
# P''_topo (s/s^2) =  0                 +/- 8.25e-14
# P_bary (ms)      =  N/A
# P'_bary (s/s)    =  N/A
# P''_bary (s/s^2) =  N/A
# P_orb (s)        =  N/A
# asin(i)/c (s)    =  N/A
# eccentricity     =  N/A
# w (rad)          =  N/A
# T_peri           =  N/A
######################################################
   0  8852.067
   1  11187.49
   2  7627.34
   3  1372.244
   4  -3016.533
   5  -8159.437
   6  56.32512
   7  9691.455
   8  30795.72
   9  47794.88
  10  57731.59
  11  63694.57
  12  35365.7
  13  26288.8
  14  33573.32
  15  42763.59
  16  64901.16
  17  72914.28
  18  63908.66
  19  41716.65
  20  26064.66
  21  12233.69
  22  107.3022
  23  4726.029
  24  12260.75
  25  25466.42
  26  25637.2
  27  19397.74
  28  18280.92
  29  6305.494
  30  491.1536
  31  3153.503
  32  8896.014
  33  7964.774
  34  8007.737
  35  1670.613
  36  -2381
  37  -7702.688
  38  -2729.895
  39  4286.189
  40  3393.334
  41  6240.244
  42  8660.908
  43  4337.155
  44  -5399.723
  45  2233.023
  46  7282.509
  47  11437.82
  48  11666.32
  49  5803.057
  50  -81.79358
  51  -13786.28
  52  -12289.92
  53  -10205.12
  54  -9383.825
  55  -7468.784
  56  -7014.483
  57  -5779.435
  58  -9881.264
  59  -12258.76
  60  -12631.62
  61  -11460.55
  62  -10808.75
  63  -9626.66
  64  -9467.128
  65  -11590.58
  66  -12274.96
  67  -11331.82
  68  -9559.771
  69  -8809.597
  70  -6691.358
  71  -7715.972
  72  -10784.91
  73  -13575.86
  74  -14045.5
  75  -13440.59
  76  -14371.17
  77  -12077.41
  78  -13319.98
  79  -13357.26
  80  -13819.79
  81  -10688.1
  82  -8982.355
  83  -9640.26
  84  -9408.996
  85  -10133.12
  86  -10154.91
  87  -10318.48
  88  -10729.66
  89  -11558.54
  90  -11849.2
  91  -12056.32
  92  -12878.13
  93  -14922.41
  94  -11380.56
  95  -8008.847
  96  -4481.243
  97  -4897.922
  98  -6257.893
  99  -7011.633
 100  -7984.809
 101  -9734.927
 102  -9781.77
 103  -7577.843
 104  -7602.309
 105  -8307.062
 106  -8351.289
 107  -10600.74
 108  -11821.47
 109  -12265.6
 110  -10983.78
 111  -7912.943
 112  -7695.045
 113  -9149.854
 114  -10704.07
 115  -10499.26
 116  -8879.292
 117  -9381.988
 118  -9559.252
 119  -10472.16
 120  -14081.9
 121  -16558.91
 122  -17139.69
 123  -11845.56
 124  -9382.281
 125  -7852.46
 126  -7007.669
 127  -12376.8
 128  -14709.77
 129  -15549.24
 130  -12444.97
 131  -12607.05
 132  -11341.99
 133  -10647.65
 134  -13665.35
 135  -15661.5
 136  -16896.49
 137  -12742.96
 138  -11052.05
 139  -10468.46
 140  -13093.62
 141  -15780.6
 142  -18467.43
 143  -17932.13
 144  -13374.7
 145  -11185.34
 146  -10806.74
 147  -10694.28
 148  -13209.06
 149  -16991.37
 150  -15756.87
 151  -12396.2
 152  -8453.258
 153  -4059.804
 154  -6154.968
 155  -8517.064
 156  -13877.76
 157  -15833.91
 158  -13457.33
 159  -8702.525
 160  -2836.546
 161  23562.85
 162  29846.03
 163  25150.48
 164  23849.83
 165  8744.005
 166  797.1714
 167  -652.0872
 168  27078.83
 169  36655.42
 170  32645.45
 171  23508.73
 172  7521.889
 173  -5799.769
 174  -9211.469
 175  -8353.214
 176  -8491.292
 177  -12894.97
 178  -14724.62
 179  -15875.73
 180  -10356.52
 181  -6641.05
 182  -3183.318
 183  -5605.308
 184  -10260.4
 185  -14271.21
 186  -17065.69
 187  -15501.52
 188  -13528.95
 189  -13616.96
 190  -13858.43
 191  -15286.17
 192  -18079.65
 193  -15068.92
 194  -12379.17
 195  -9515.297
 196  -10542.03
 197  -11424.67
 198  -12094.29
 199  -15561.51
 200  -12459.82
 201  -9949.776
 202  -6053.206
 203  -3415.298
 204  -5851.165
 205  -8856.646
 206  -15826.43
 207  -17196.3
 208  -17097.32
 209  -9218.914
 210  -6572.13
 211  -6280.524
 212  -7659.76
 213  -14690.46
 214  -16090.83
 215  -16010.81
 216  -8332.169
 217  -5704.165
 218  -3306.898
 219  -1587.703
 220  -6585.89
 221  -9018.232
 222  -10258.67
 223  -5970.013
 224  -3213.524
 225  -170.336
 226  -2532.66
 227  -5585.39
 228  -7900.9
 229  -12509.88
 230  -10000.65
 231  -9456.001
 232  -10395.19
 233  -12552.64
 234  -15050.1
 235  -16930.62
 236  -17156.98
 237  -12600.99
 238  -7926.026
 239  -5310.751
 240  -8785.031
 241  -12986.05
 242  -17567.32
 243  -16650.1
 244  -13868.81
 245  -8551.181
 246  -6742.98
 247  -6535.829
 248  -7582.021
 249  -13578.71
 250  -10592.04
 251  -7057.204
 252  1577.568
 253  1480.11
 254  546.4775
 255  -2767.694
 256  -11963.93
 257  -8793.132
 258  -4371.012
 259  366.8552
 260  452.6357
 261  -1091.537
 262  -9037.491
 263  -12750.52
 264  -12542.48
 265  -10087.34
 266  -4280.886
 267  -3509.241
 268  -2961.515
 269  -7906.005
 270  -11014.39
 271  -13639.59
 272  -11149.87
 273  -7688.413
 274  -6794.507
 275  -7393.515
 276  -12426
 277  -14281.84
 278  -16304.87
 279  -16627.98
 280  -12612.33
 281  -9012.85
 282  -9179.985
 283  -10849.87
 284  -12727.5
 285  -16576.27
 286  -16346.79
 287  -14805.08
 288  -12148.26
 289  -7520.594
 290  -7736.814
 291  -8299.635
 292  -10513.07
 293  -10516.47
 294  -10007.22
 295  -4323.784
 296  -1693.203
 297  -1424.363
 298  -3723.082
 299  -5907.838
 300  -7162.6
 301  -7501.071
 302  -1865.195
 303  -1638.228
 304  -1673.938
 305  -5536.014
 306  -10564.97
 307  -13272.67
 308  -16223.08
 309  -6735.401
 310  -2739.459
 311  807.7496
 312  -2257.326
 313  -8258.975
 314  -12605.42
 315  -15335.64
 316  -8546.107
 317  -4540.208
 318  -291.9249
 319  -3653.25
 320  -6947.666
 321  -10842.75
 322  -12043
 323  -4797.75
 324  851.0257
 325  5360.893
 326  2271.59
 327  -1191.979
 328  -7960.727
 329  -9887.841
 330  -7990.466
 331  -4160.644
 332  -2311.719
 333  -4458.106
 334  -6489.9
 335  -7732.474
 336  -8158.324
 337  -7695.309
 338  -1621.89
 339  215.2682
 340  -252.3497
 341  -1732.151
 342  -6494.417
 343  -5136.982
 344  -3767.327
 345  -2213.255
 346  -677.6635
 347  -1248.734
 348  -8405.739
 349  614.7421
 350  8770.243
 351  19883.06
 352  22747.13
 353  22539.32
 354  20304.29
 355  -8481.49
 356  7142.208
 357  19782.23
 358  31021.02
 359  33580.54
 360  28497.42
 361  12536.24
 362  -5158.478
 363  -7813.844
 364  -8851.921
 365  -7165.864
 366  -2276.317
 367  2342.845
 368  4650.581
 369  194.6319
 370  -4214.124
 371  -9055.568
 372  -5121.601
 373  -2026.411
 374  2638.74
 375  2833.788
 376  -235.9034
 377  -3661.33
 378  -7176.532
 379  -8175.079
 380  3813.476
 381  27167.27
 382  39308.66
 383  41500.96
 384  37198.65
 385  26187.18
 386  4671.42
 387  14451.78
 388  31737.6
 389  48225.15
 390  43686.14
 391  34235.6
 392  25044.68
 393  5575.169
 394  2767.323
 395  6914.74
 396  8109.654
 397  6532.201
 398  5867.672
 399  4369.348
 400  2338.838
 401  538.11
 402  2347.239
 403  4633.4
 404  3741.367
 405  1929.036
 406  -2678.431
 407  -5431.693
 408  -9551.587
 409  -9601.033
 410  -8950.792
 411  -8658.045
 412  -8605.915
 413  -8955.828
 414  -8090.606
 415  -10877.37
 416  -11353.76
 417  -10974.97
 418  -10891.77
 419  -12222.88
 420  -12589.12
 421  -13376.04
 422  -14689.86
 423  -15031.43
 424  -13020.71
 425  -9274.088
 426  -8949.446
 427  -9638.622
 428  -11659.79
 429  -13316.85
 430  -14268.69
 431  -12132.12
 432  -11031.69
 433  -10790.24
 434  -10885.78
 435  -11054.89
 436  -11668.64
 437  -12203.42
 438  -9141.406
 439  -7579.282
 440  -7466.927
 441  -8784.503
 442  -10317.25
 443  -10803.85
 444  -8079.596
 445  -9280.473
 446  -10187.75
 447  -12059.08
 448  -15000.79
 449  -15845.21
 450  -14915.07
 451  -12071.93
 452  -12038.67
 453  -11463.1
 454  -11153.27
 455  -11035.93
 456  -10393.76
 457  -8381.518
 458  -5151.67
 459  -5381.889
 460  -4827.565
 461  3997.602
 462  11766.19
 463  17937.81
 464  17776.88
 465  12959.38
 466  5951.907
 467  1085.888
 468  6984.058
 469  15053.53
 470  23471.83
 471  24215.95
 472  18354.22
 473  4633.083
 474  211.6756
 475  2531.506
 476  15071.08
 477  22107.94
 478  32113.41
 479  31543.37
 480  21715.22
 481  14344.65
 482  14063.09
 483  37469.01
 484  63823.25
 485  72794.73
 486  66696.53
 487  52676.54
 488  16657.49
 489  15258.92
 490  28953.19
 491  57087.49
 492  59000.62
 493  57429.38
 494  54072.27
 495  26578.32
 496  23771.86
 497  29644.56
 498  40674.12
 499  59776.75
 500  57079.33
 501  53826.35
 502  52873.57
 503  32283.65
 504  16792.53
 505  37498.78
 506  57784.54
 507  67209.26
 508  55601.09
 509  42649.04
 510  22660.15
 511  6372.77
