# Input file       =  1208153608.108720-PSRB0329-2ms-sampling-dd.dat
# Candidate        =  PSR_0332+5434
# Telescope        =  AR
# Epoch_topo       =  58227.259573017596
# Epoch_bary       =  N/A
# T_sample         =  0.002
# Data Folded      =  7208960
# Data Avg         =  3.43805533950712e-10
# Data StdDev      =  6.56751931570491 
# Profile Bins     =  512
# Profile Avg      =  0.015926446787947
# Profile StdDev   =  779.296429009637 
# Reduced chi-sqr  =  2.065
# Prob(Noise)      <  4.77e-40   (~13.2 sigma)
# P_topo (ms)      =  714.556785231597  +/- 1.54e-05
# P'_topo (s/s)    =  -0                +/- 8.26e-12
# P''_topo (s/s^2) =  0                 +/- 3.71e-15
# P_bary (ms)      =  N/A
# P'_bary (s/s)    =  N/A
# P''_bary (s/s^2) =  N/A
# P_orb (s)        =  N/A
# asin(i)/c (s)    =  N/A
# eccentricity     =  N/A
# w (rad)          =  N/A
# T_peri           =  N/A
######################################################
   0  607.3715
   1  979.2245
   2  751.4269
   3  232.2544
   4  -465.0766
   5  -1299.05
   6  -1114.282
   7  -387.1204
   8  380.5285
   9  385.3041
  10  125.917
  11  -410.1058
  12  -1262.007
  13  -1521.267
  14  -969.1976
  15  -105.2079
  16  407.3962
  17  1121.184
  18  854.0238
  19  5.481128
  20  -695.8153
  21  -831.072
  22  -1030.655
  23  -668.5025
  24  -533.9941
  25  -84.85546
  26  348.7957
  27  -233.1552
  28  -727.7816
  29  -1136.472
  30  -1152.616
  31  -1175.498
  32  -305.8
  33  731.8145
  34  732.5201
  35  443.9926
  36  -551.7256
  37  -1093.892
  38  -1289.855
  39  -1011.994
  40  -512.4597
  41  330.2746
  42  595.2718
  43  0.2292602
  44  -1015.418
  45  -1380.391
  46  -1631.418
  47  -1209.897
  48  -306.9189
  49  346.6847
  50  1327.745
  51  958.7921
  52  310.3214
  53  -644.3652
  54  -929.4791
  55  -1007.719
  56  -826.8876
  57  -242.9854
  58  703.9474
  59  423.7935
  60  17.55746
  61  -633.5564
  62  -873.3706
  63  -586.9086
  64  -548.8215
  65  -74.18567
  66  520.0552
  67  594.5328
  68  424.9495
  69  58.42006
  70  -629.2329
  71  -1031.17
  72  -559.4252
  73  212.3555
  74  456.0938
  75  742.1021
  76  833.9888
  77  639.3719
  78  -729.3834
  79  -903.2897
  80  -402.7342
  81  10.65043
  82  953.351
  83  1523.666
  84  1559.149
  85  697.5829
  86  -343.479
  87  -491.1944
  88  -571.4191
  89  -121.1085
  90  180.2209
  91  885.0916
  92  877.17
  93  359.548
  94  -503.4073
  95  -1122.097
  96  -1157.281
  97  -240.3645
  98  149.2986
  99  1010.165
 100  1723.518
 101  1231.675
 102  338.964
 103  -316.6965
 104  -902.208
 105  -606.8032
 106  219.048
 107  619.5117
 108  887.1774
 109  895.6757
 110  -81.27618
 111  -738.4542
 112  -929.3759
 113  -829.415
 114  -40.95066
 115  580.0779
 116  1639.908
 117  1702.577
 118  427.0985
 119  -252.3183
 120  -589.633
 121  -204.1199
 122  -11.82854
 123  384.7179
 124  780.8989
 125  448.4103
 126  57.78065
 127  -905.3146
 128  -567.1689
 129  -813.6121
 130  -135.7833
 131  172.4253
 132  664.97
 133  1450.084
 134  981.3803
 135  132.3233
 136  -650.0724
 137  -943.4771
 138  -1058.547
 139  -487.5586
 140  -295.3972
 141  450.8492
 142  495.226
 143  -69.69698
 144  -516.9739
 145  -1110.817
 146  -545.2498
 147  -339.716
 148  436.1207
 149  1530.837
 150  1305.194
 151  1045.844
 152  372.8691
 153  -255.7
 154  -824.4658
 155  -752.0229
 156  -77.34328
 157  662.6105
 158  1301.012
 159  804.1174
 160  -394.1888
 161  -1007.068
 162  -835.3863
 163  -110.5749
 164  -132.9315
 165  811.1965
 166  1448.555
 167  669.5458
 168  -516.6612
 169  -574.1036
 170  -709.9633
 171  -643.0181
 172  -57.69938
 173  479.0391
 174  443.8669
 175  428.4568
 176  194.7064
 177  -666.3426
 178  -1311.852
 179  -1186.558
 180  -973.6293
 181  54.70736
 182  1204.183
 183  1669.837
 184  665.4118
 185  -248.2464
 186  -1063.147
 187  -1049.247
 188  -519.4508
 189  -15.91551
 190  476.3269
 191  1041.05
 192  654.1829
 193  -657.1104
 194  -904.975
 195  -791.2935
 196  -395.7646
 197  231.4182
 198  878.8467
 199  1257.768
 200  797.3839
 201  292.1917
 202  -203.6889
 203  -651.3701
 204  -926.5722
 205  -421.6702
 206  75.01539
 207  583.577
 208  514.1118
 209  -183.2706
 210  -698.9815
 211  -885.4775
 212  -837.7192
 213  -280.7755
 214  5.007613
 215  1031.129
 216  1602.734
 217  1225.594
 218  439.5201
 219  -657.1738
 220  -548.9769
 221  -402.8119
 222  162.0511
 223  430.3388
 224  940.3554
 225  1057.834
 226  -278.7802
 227  -922.9445
 228  -1103.714
 229  -912.5093
 230  -237.1359
 231  819.4938
 232  1689.942
 233  1283.823
 234  509.8157
 235  -81.08626
 236  -971.051
 237  -757.9147
 238  -236.6174
 239  154.5878
 240  291.2326
 241  687.2034
 242  459.8336
 243  -181.8509
 244  -1264.258
 245  -844.2941
 246  -72.7605
 247  545.3989
 248  1154.512
 249  1353.254
 250  1089.261
 251  -445.4257
 252  -818.8201
 253  -1156.969
 254  -351.8076
 255  99.82713
 256  307.4188
 257  1098.796
 258  781.7825
 259  -149.6775
 260  -1287.189
 261  -1195.31
 262  -846.4532
 263  -347.4602
 264  941.9067
 265  1417.995
 266  1619.026
 267  838.8973
 268  408.4946
 269  553.1481
 270  707.5735
 271  1266.349
 272  1993.389
 273  2074.891
 274  1304.616
 275  320.1021
 276  -405.624
 277  -779.078
 278  -869.9634
 279  -534.3517
 280  481.6079
 281  1130.983
 282  1140.368
 283  761.5929
 284  349.9227
 285  -407.0759
 286  -516.746
 287  19.38015
 288  254.5245
 289  63.40401
 290  19.41126
 291  -144.2889
 292  -228.6535
 293  -949.228
 294  -1037.692
 295  -829.8804
 296  -303.622
 297  765.5167
 298  1781.112
 299  1656.312
 300  703.9023
 301  -337.0514
 302  -721.2757
 303  -966.5895
 304  -369.3251
 305  503.2326
 306  895.4827
 307  956.6448
 308  829.3181
 309  -483.5513
 310  -930.1292
 311  -1048.748
 312  -615.6531
 313  109.645
 314  1606.796
 315  2391.6
 316  1353.083
 317  732.0366
 318  -97.83404
 319  -756.5854
 320  -1228.106
 321  -446.8676
 322  471.4294
 323  1244.26
 324  970.9317
 325  65.11797
 326  -731.7611
 327  -1211.212
 328  -755.4022
 329  115.1643
 330  903.9633
 331  1761.456
 332  1126.073
 333  453.8954
 334  -85.6869
 335  -798.8244
 336  -950.0619
 337  -366.0596
 338  467.9516
 339  1064.228
 340  1179.972
 341  554.1379
 342  -83.0387
 343  -900.6683
 344  -657.3371
 345  -342.6593
 346  417.8493
 347  1089.002
 348  1566.048
 349  1590.285
 350  547.0941
 351  -699.421
 352  -1402.151
 353  -915.5658
 354  -710.7092
 355  177.7394
 356  890.0265
 357  444.0755
 358  25.89744
 359  -804.6701
 360  -674.0509
 361  -663.3827
 362  -562.1394
 363  364.2922
 364  994.1591
 365  976.4483
 366  32.88673
 367  -437.2249
 368  -833.9954
 369  -799.136
 370  -585.9292
 371  58.07943
 372  681.4774
 373  987.7637
 374  457.5985
 375  -653.1302
 376  -689.1641
 377  -1164.914
 378  -496.6856
 379  142.0427
 380  890.7374
 381  1422.554
 382  647.5403
 383  258.2237
 384  -537.2902
 385  -1105.446
 386  -742.3787
 387  -570.5906
 388  283.9531
 389  916.7197
 390  905.3412
 391  27.08347
 392  -939.4471
 393  -1033.36
 394  -846.8376
 395  -361.4065
 396  460.2573
 397  1234.199
 398  1500.237
 399  461.4376
 400  -310.575
 401  -722.0262
 402  -1153.574
 403  -820.3508
 404  -111.3999
 405  676.6427
 406  901.8897
 407  86.12888
 408  -1017.192
 409  -1320.976
 410  -1006.149
 411  -518.449
 412  128.9136
 413  1306.652
 414  1562.033
 415  735.933
 416  370.4868
 417  -700.6153
 418  -805.8129
 419  -682.1572
 420  -413.7972
 421  -11.38049
 422  852.2564
 423  682.2164
 424  -410.8665
 425  -1055.891
 426  -1294.573
 427  -597.4287
 428  -478.2755
 429  204.2705
 430  1127.177
 431  1209.324
 432  458.417
 433  -559.0696
 434  -889.7211
 435  -1271.628
 436  -1119.453
 437  -395.1054
 438  324.8873
 439  753.2878
 440  80.36023
 441  -660.6414
 442  -1131.994
 443  -881.4725
 444  -791.2698
 445  -169.1042
 446  568.3487
 447  1163.049
 448  970.7969
 449  -34.80331
 450  -528.0374
 451  -1088.598
 452  -427.3535
 453  -144.2003
 454  398.2977
 455  572.0504
 456  748.065
 457  365.3337
 458  -956.442
 459  -1027.239
 460  -649.7932
 461  -745.1774
 462  74.25043
 463  1406.396
 464  1329.203
 465  192.7443
 466  2.478898
 467  -734.1736
 468  -1118.056
 469  -521.9442
 470  -195.3839
 471  60.90874
 472  8.681767
 473  118.4907
 474  -466.2482
 475  -1071.552
 476  -1157.792
 477  -992.0688
 478  307.48
 479  1291.588
 480  1180.585
 481  719.9031
 482  278.3983
 483  -580.1
 484  -1278.942
 485  -1350.662
 486  9.675385
 487  716.4064
 488  667.5848
 489  491.5928
 490  -4.725743
 491  -855.3989
 492  -1064.125
 493  -734.123
 494  150.3039
 495  842.4155
 496  1743.473
 497  1241.451
 498  260.5902
 499  -248.0787
 500  -695.1686
 501  -696.8164
 502  -354.7346
 503  -336.6394
 504  311.7465
 505  920.2694
 506  617.5266
 507  -724.7694
 508  -960.0975
 509  -896.4716
 510  -573.5521
 511  91.54144
