# Input file       =  1208786440.114979-PSRB0329-2ms-sampling-dd.dat
# Candidate        =  PSR_0332+5434
# Telescope        =  AR
# Epoch_topo       =  58234.584017534478
# Epoch_bary       =  N/A
# T_sample         =  0.002
# Data Folded      =  7340032
# Data Avg         =  1.86868169433202e-09
# Data StdDev      =  8.16580006439718 
# Profile Bins     =  512
# Profile Avg      =  -0.0496696707807248
# Profile StdDev   =  977.716036155867 
# Reduced chi-sqr  =  0.460
# Prob(Noise)      <  1   (~0.0 sigma)
# P_topo (ms)      =  714.55098000573   +/- 0.000696
# P'_topo (s/s)    =  -0                +/- 3.67e-10
# P''_topo (s/s^2) =  0                 +/- 1.62e-13
# P_bary (ms)      =  N/A
# P'_bary (s/s)    =  N/A
# P''_bary (s/s^2) =  N/A
# P_orb (s)        =  N/A
# asin(i)/c (s)    =  N/A
# eccentricity     =  N/A
# w (rad)          =  N/A
# T_peri           =  N/A
######################################################
   0  -161.0166
   1  -116.4814
   2  -10.09454
   3  -83.45655
   4  305.8721
   5  47.68897
   6  168.4054
   7  791.7558
   8  677.2489
   9  688.5497
  10  638.6879
  11  732.7371
  12  408.5294
  13  204.8687
  14  339.2267
  15  56.34507
  16  -19.80091
  17  -116.8949
  18  -217.5999
  19  -506.9366
  20  -54.61127
  21  101.1725
  22  368.1692
  23  21.1475
  24  19.91702
  25  -505.4704
  26  -562.2705
  27  -160.2003
  28  -373.5462
  29  -203.7597
  30  -808.3998
  31  -511.1365
  32  -211.9286
  33  -365.226
  34  -442.6877
  35  -651.9996
  36  -580.6704
  37  -712.5298
  38  -751.0408
  39  -694.0059
  40  -777.588
  41  -494.426
  42  -167.2162
  43  -118.6379
  44  182.2201
  45  66.62612
  46  -115.9456
  47  -857.1716
  48  -593.2095
  49  -145.9991
  50  -369.2504
  51  -219.9894
  52  -497.1069
  53  -336.652
  54  -441.5139
  55  -464.825
  56  -528.9775
  57  -601.3991
  58  -666.4102
  59  -545.0174
  60  -645.9442
  61  -668.7047
  62  -720.6711
  63  -826.5963
  64  -495.2188
  65  -176.6052
  66  -294.1961
  67  -741.7166
  68  -495.5815
  69  -1067.509
  70  -1228.973
  71  -906.6852
  72  -712.4897
  73  -769.8438
  74  -1031.661
  75  -618.5356
  76  -492.7172
  77  -319.2159
  78  -552.5787
  79  -618.8846
  80  36.19612
  81  -245.2281
  82  -431.3259
  83  223.9302
  84  -374.8863
  85  -215.7914
  86  385.2877
  87  427.8237
  88  428.6021
  89  518.7698
  90  307.5787
  91  108.9012
  92  400.1684
  93  157.4513
  94  64.92229
  95  353.2796
  96  195.8333
  97  -45.0849
  98  229.7191
  99  203.9188
 100  179.4834
 101  -309.2479
 102  -623.9849
 103  -336.0599
 104  -188.7964
 105  -218.0503
 106  -439.847
 107  673.6282
 108  524.491
 109  114.8612
 110  455.2948
 111  377.8929
 112  345.7959
 113  262.4043
 114  591.54
 115  627.4738
 116  140.2552
 117  399.2889
 118  445.3887
 119  410.3528
 120  336.9632
 121  545.5491
 122  715.4003
 123  539.016
 124  594.674
 125  489.6094
 126  522.6607
 127  734.5217
 128  629.025
 129  391.6087
 130  276.3494
 131  436.2637
 132  751.5344
 133  467.701
 134  274.773
 135  352.2108
 136  186.1205
 137  53.35841
 138  -140.0125
 139  175.4837
 140  777.6028
 141  676.5546
 142  441.2293
 143  101.3041
 144  -39.81926
 145  2.816732
 146  153.9019
 147  433.1987
 148  758.036
 149  792.0046
 150  438.4374
 151  184.4671
 152  -82.7933
 153  -60.17958
 154  110.3961
 155  426.9202
 156  890.95
 157  1098.558
 158  533.4423
 159  226.4341
 160  185.5848
 161  -93.31857
 162  -236.537
 163  -224.2693
 164  448.0209
 165  536.9798
 166  409.3542
 167  475.4022
 168  378.1095
 169  319.8361
 170  -351.883
 171  -586.8258
 172  69.44712
 173  826.6738
 174  702.7041
 175  409.3491
 176  448.6644
 177  183.6327
 178  87.65431
 179  331.6632
 180  -61.68351
 181  105.95
 182  336.8345
 183  519.0113
 184  68.4017
 185  -398.986
 186  -598.3824
 187  -190.8265
 188  360.801
 189  109.7691
 190  240.311
 191  350.9499
 192  149.2605
 193  -53.78216
 194  -245.3249
 195  -335.1561
 196  -207.1734
 197  305.2815
 198  492.8599
 199  370.109
 200  338.9208
 201  449.3369
 202  -47.02358
 203  -31.60906
 204  -82.63383
 205  -88.05197
 206  289.7033
 207  716.3742
 208  1116.105
 209  1170.493
 210  1531.557
 211  1454.783
 212  1401.91
 213  1633.902
 214  1860.852
 215  1587.458
 216  737.0919
 217  86.75938
 218  -444.7839
 219  -933.845
 220  -788.4006
 221  -341.7163
 222  -760.3194
 223  -641.417
 224  -274.464
 225  -465.863
 226  -643.0942
 227  -819.4942
 228  -717.3077
 229  -793.998
 230  -819.9244
 231  -932.6814
 232  -635.1586
 233  -757.1774
 234  -1143.411
 235  -753.7299
 236  -708.8334
 237  -538.5444
 238  -272.7734
 239  -333.6501
 240  -225.3808
 241  -413.4677
 242  -492.3257
 243  -32.87346
 244  112.7112
 245  404.1219
 246  257.8655
 247  -36.93126
 248  41.16421
 249  -226.8865
 250  -83.18075
 251  -70.55862
 252  -57.53077
 253  -151.4142
 254  -216.9207
 255  101.7732
 256  48.13479
 257  123.5557
 258  239.7572
 259  559.8261
 260  331.8312
 261  281.2325
 262  541.9731
 263  135.1928
 264  -48.74284
 265  -288.7036
 266  -285.7994
 267  143.593
 268  -73.88813
 269  -259.6986
 270  -282.2283
 271  -216.089
 272  127.7832
 273  -563.7117
 274  -428.053
 275  -170.8239
 276  -166.1114
 277  16.49168
 278  -425.3349
 279  -453.631
 280  -363.9415
 281  -188.481
 282  108.3295
 283  21.82552
 284  186.2752
 285  5.926203
 286  -110.0061
 287  205.7962
 288  143.6342
 289  7.596228
 290  598.113
 291  827.7735
 292  937.9539
 293  724.1246
 294  338.3102
 295  271.0214
 296  242.0945
 297  394.1697
 298  501.947
 299  358.2467
 300  149.1912
 301  375.0573
 302  234.1547
 303  283.2241
 304  -131.9425
 305  321.3187
 306  579.7045
 307  411.9638
 308  577.196
 309  664.3535
 310  396.4352
 311  202.051
 312  513.8506
 313  495.4611
 314  789.5893
 315  813.3677
 316  634.3079
 317  416.0374
 318  345.9232
 319  -152.7334
 320  -474.0477
 321  -54.93103
 322  -188.8433
 323  -285.0662
 324  371.667
 325  127.0657
 326  -150.2734
 327  63.99565
 328  283.9263
 329  74.6927
 330  -294.6
 331  -15.32897
 332  49.07665
 333  155.6787
 334  368.2598
 335  253.2519
 336  349.9793
 337  -426.3961
 338  -436.8833
 339  -139.897
 340  -192.5899
 341  328.9485
 342  305.9744
 343  684.4124
 344  530.7947
 345  522.9718
 346  427.5353
 347  -150.4656
 348  -486.1336
 349  -367.3692
 350  -153.6568
 351  -54.32125
 352  -302.24
 353  -341.6064
 354  -367.8658
 355  -325.0322
 356  -514.9232
 357  -267.1714
 358  -251.5327
 359  9.02416
 360  -38.35287
 361  -200.1131
 362  -155.7667
 363  -472.3876
 364  -535.8848
 365  -819.963
 366  -72.62021
 367  -48.94189
 368  -485.7361
 369  -624.4832
 370  -274.9638
 371  234.0513
 372  44.71577
 373  -169.4793
 374  167.4759
 375  519.7396
 376  34.16691
 377  -400.0151
 378  294.7065
 379  555.7277
 380  143.2493
 381  222.35
 382  316.145
 383  138.8672
 384  -176.4057
 385  -499.2451
 386  -673.336
 387  -435.1435
 388  -256.3683
 389  104.3149
 390  -122.8214
 391  -155.1736
 392  -361.0135
 393  -553.095
 394  -757.9703
 395  -870.1227
 396  -633.4337
 397  -933.1215
 398  -1104.702
 399  -1167.212
 400  -738.2565
 401  -580.261
 402  -465.8187
 403  -414.3349
 404  -407.6094
 405  -437.9911
 406  -691.2293
 407  -834.1579
 408  -147.0486
 409  73.29365
 410  -260.1994
 411  -338.5932
 412  -292.5642
 413  -183.4162
 414  -489.6699
 415  -336.1584
 416  154.7961
 417  38.47338
 418  141.3853
 419  287.4946
 420  25.55973
 421  -89.14729
 422  -368.8129
 423  -116.8107
 424  -94.59875
 425  -24.16615
 426  140.9498
 427  130.6034
 428  -432.7531
 429  -620.066
 430  -741.8595
 431  -367.5739
 432  -174.7091
 433  -110.6661
 434  -350.719
 435  -303.1482
 436  -791.0184
 437  -757.5218
 438  -307.4989
 439  -624.6387
 440  -577.4977
 441  -200.5342
 442  364.2659
 443  565.8772
 444  170.2734
 445  340.4204
 446  -254.9354
 447  -298.4947
 448  110.6644
 449  534.5675
 450  645.1178
 451  553.507
 452  577.8445
 453  599.6385
 454  699.0197
 455  509.0631
 456  299.6831
 457  521.9212
 458  256.687
 459  91.26617
 460  362.296
 461  469.1149
 462  648.7245
 463  911.0887
 464  532.4433
 465  820.963
 466  913.3823
 467  1040.622
 468  816.9946
 469  467.1499
 470  468.0398
 471  64.88732
 472  352.4416
 473  202.1103
 474  -216.9965
 475  -42.189
 476  -8.270408
 477  106.4188
 478  7.578367
 479  215.9215
 480  165.4069
 481  -121.3139
 482  235.2924
 483  58.89779
 484  352.5151
 485  -53.36323
 486  298.5108
 487  -27.66764
 488  -301.2689
 489  -390.0959
 490  -332.2763
 491  -337.2659
 492  -772.2778
 493  -819.5464
 494  -530.0624
 495  -541.1189
 496  -640.8718
 497  -257.6747
 498  -263.7305
 499  -43.68143
 500  -136.6077
 501  -359.3929
 502  -295.7905
 503  -506.498
 504  72.87999
 505  93.77091
 506  347.0609
 507  423.0403
 508  431.1055
 509  333.6196
 510  -237.6339
 511  -253.7165
