# Input file       =  1208599147.109118-PSRB0329-2ms-sampling-dd.dat
# Candidate        =  PSR_0332+5434
# Telescope        =  AR
# Epoch_topo       =  58232.416274411087
# Epoch_bary       =  N/A
# T_sample         =  0.002
# Data Folded      =  7340032
# Data Avg         =  -8.13259776600737e-10
# Data StdDev      =  7.84823740917392 
# Profile Bins     =  512
# Profile Avg      =  -2.8804987462653 
# Profile StdDev   =  939.693295206117 
# Reduced chi-sqr  =  0.919
# Prob(Noise)      <  0.905   (~0.0 sigma)
# P_topo (ms)      =  714.55250661248   +/- 0.000675
# P'_topo (s/s)    =  -0                +/- 3.56e-10
# P''_topo (s/s^2) =  0                 +/- 1.57e-13
# P_bary (ms)      =  N/A
# P'_bary (s/s)    =  N/A
# P''_bary (s/s^2) =  N/A
# P_orb (s)        =  N/A
# asin(i)/c (s)    =  N/A
# eccentricity     =  N/A
# w (rad)          =  N/A
# T_peri           =  N/A
######################################################
   0  -70.41909
   1  -340.6789
   2  -140.0851
   3  58.36295
   4  -45.40066
   5  37.71656
   6  -11.2989
   7  19.60797
   8  -433.6165
   9  -451.4255
  10  -360.7172
  11  -252.196
  12  -240.4468
  13  -180.6752
  14  -280.3181
  15  -332.6212
  16  -253.4326
  17  -23.45562
  18  144.2539
  19  733.2986
  20  765.1708
  21  567.3174
  22  500.0009
  23  508.0927
  24  608.6276
  25  485.0151
  26  441.1388
  27  522.3788
  28  540.9293
  29  621.252
  30  109.6146
  31  187.0282
  32  150.2244
  33  30.49442
  34  317.3979
  35  501.2951
  36  574.5096
  37  440.9175
  38  471.1804
  39  449.367
  40  86.51647
  41  103.9667
  42  394.5695
  43  545.2618
  44  195.7187
  45  17.49643
  46  371.6729
  47  345.4299
  48  505.8304
  49  599.7735
  50  574.1216
  51  467.307
  52  317.8984
  53  -146.7243
  54  -508.4031
  55  -549.1598
  56  -105.0107
  57  -29.16226
  58  -227.4371
  59  -736.617
  60  -904.5795
  61  -961.0021
  62  -1277.967
  63  -1005.887
  64  -786.1981
  65  -647.4398
  66  -726.7682
  67  -1032.279
  68  -1042.814
  69  -690.3857
  70  -642.8354
  71  -578.1008
  72  -495.0637
  73  -514.0786
  74  -742.1666
  75  -783.2715
  76  -408.461
  77  -527.9333
  78  -823.254
  79  -286.7025
  80  -192.9495
  81  -458.1602
  82  -448.0029
  83  -495.782
  84  -651.7183
  85  -788.1013
  86  -996.9321
  87  -1142.763
  88  -614.4426
  89  -1154.587
  90  -1246.932
  91  -1279.979
  92  -1396.766
  93  -1283.504
  94  -1153.703
  95  -1185.515
  96  -1053.362
  97  -903.9284
  98  -577.9821
  99  -584.5897
 100  -541.7827
 101  -521.5756
 102  -685.7956
 103  -563.197
 104  -838.5881
 105  -1155.914
 106  -1249.104
 107  -1061.949
 108  -694.5939
 109  -766.7096
 110  -501.1423
 111  -254.8751
 112  -354.3555
 113  -640.1733
 114  -571.9824
 115  -594.9455
 116  -650.6569
 117  -809.9183
 118  -467.6024
 119  -102.8145
 120  -168.2656
 121  -467.356
 122  -407.7521
 123  148.2114
 124  -87.26387
 125  -69.97426
 126  388.7349
 127  357.9513
 128  47.18342
 129  -118.4331
 130  -288.6973
 131  -708.1608
 132  -200.9674
 133  75.78347
 134  -521.0355
 135  -467.9297
 136  -51.56084
 137  -412.5619
 138  -585.2195
 139  -211.3208
 140  -212.0826
 141  -541.9731
 142  -150.6838
 143  -78.93295
 144  107.4572
 145  143.6487
 146  -39.84398
 147  140.6337
 148  69.3544
 149  334.6554
 150  12.61545
 151  212.1763
 152  510.0672
 153  493.5891
 154  604.1706
 155  971.1528
 156  836.5222
 157  576.0109
 158  806.5311
 159  1265.418
 160  1349.184
 161  1295.912
 162  1165.872
 163  898.9498
 164  932.3503
 165  1165.627
 166  1308.509
 167  1097.239
 168  1351.587
 169  1390.182
 170  1196.517
 171  1432.734
 172  1585.809
 173  1529.24
 174  1585.554
 175  1444.423
 176  1510.5
 177  1729.461
 178  1640.907
 179  1549.186
 180  1548.862
 181  1126.311
 182  1160.85
 183  646.5179
 184  674.3734
 185  721.1865
 186  967.5215
 187  1212.227
 188  1048.831
 189  1034.304
 190  809.7501
 191  545.0104
 192  856.2849
 193  746.8156
 194  656.7482
 195  107.8023
 196  179.2964
 197  157.0328
 198  61.38773
 199  -130.862
 200  -46.12858
 201  -149.5326
 202  -200.1571
 203  -114.5847
 204  -104.3137
 205  -153.9473
 206  -103.7763
 207  221.2618
 208  197.2096
 209  -129.0443
 210  -315.7803
 211  -609.8062
 212  -163.722
 213  -116.9893
 214  -252.468
 215  -520.4385
 216  -630.7455
 217  -701.656
 218  -586.4783
 219  -423.6466
 220  -120.7763
 221  157.1759
 222  439.7953
 223  -57.70636
 224  -368.7534
 225  -12.21656
 226  341.0721
 227  231.762
 228  -80.17606
 229  -17.59683
 230  65.30106
 231  -363.6599
 232  -229.7771
 233  26.04258
 234  -59.12923
 235  85.84841
 236  -130.7345
 237  281.2695
 238  547.5428
 239  218.0912
 240  610.3515
 241  671.6016
 242  624.507
 243  535.1232
 244  381.7845
 245  276.7054
 246  303.5001
 247  640.5862
 248  640.7301
 249  301.1476
 250  482.9464
 251  682.2267
 252  578.6776
 253  852.0756
 254  1013.341
 255  1121.673
 256  1129.189
 257  893.1387
 258  536.9364
 259  449.6054
 260  508.3876
 261  737.0913
 262  718.3879
 263  482.5195
 264  332.0833
 265  182.1364
 266  335.8513
 267  637.2217
 268  321.5336
 269  383.8102
 270  553.3965
 271  102.7711
 272  -145.6694
 273  216.1757
 274  57.84604
 275  140.5501
 276  -108.6846
 277  -307.2039
 278  -490.2888
 279  -602.0987
 280  -405.3266
 281  -261.1105
 282  -778.3852
 283  -530.7164
 284  -331.7054
 285  -825.0683
 286  -916.2952
 287  -693.348
 288  -726.7458
 289  -906.4687
 290  -917.4816
 291  -791.0529
 292  -951.4691
 293  -828.6703
 294  -973.3177
 295  -1107.122
 296  -860.9307
 297  -697.3714
 298  -433.8057
 299  -327.6546
 300  -499.3509
 301  -744.3106
 302  -990.418
 303  -1070.433
 304  -1043.851
 305  -825.7397
 306  -946.3882
 307  -1307.102
 308  -1062.813
 309  -1330.024
 310  -1663.843
 311  -2012.995
 312  -1189.464
 313  -969.1355
 314  -666.5767
 315  -1124.91
 316  -788.157
 317  -731.892
 318  -1276.554
 319  -1356.059
 320  -1087.605
 321  -656.7771
 322  -718.5594
 323  -683.7684
 324  -564.1207
 325  -861.7058
 326  -780.9266
 327  -645.3438
 328  -839.0214
 329  -690.655
 330  -520.944
 331  -461.0376
 332  -364.8826
 333  -343.7822
 334  -381.2915
 335  -563.6379
 336  -675.1666
 337  -434.29
 338  -453.5332
 339  -786.5021
 340  -439.5601
 341  -365.3529
 342  -451.3219
 343  -547.3265
 344  -379.6503
 345  -582.8156
 346  -314.6852
 347  -40.49202
 348  -558.9283
 349  -428.4448
 350  135.8531
 351  93.24478
 352  -899.1157
 353  -496.4756
 354  -136.4739
 355  -600.2452
 356  -888.8051
 357  -836.5353
 358  -595.5283
 359  -620.5345
 360  -218.9907
 361  257.1152
 362  155.3772
 363  110.066
 364  -164.0226
 365  -265.2814
 366  -298.9562
 367  -349.8995
 368  -246.9944
 369  -641.1274
 370  -841.4518
 371  -829.5539
 372  -676.2532
 373  -384.1895
 374  -228.8036
 375  -139.6667
 376  9.216155
 377  -71.344
 378  71.36478
 379  350.8032
 380  294.7048
 381  276.4561
 382  124.3065
 383  257.2253
 384  158.2551
 385  -175.1579
 386  -270.1139
 387  -514.8383
 388  -360.618
 389  -74.03294
 390  491.8634
 391  410.8544
 392  484.2313
 393  345.0666
 394  161.1281
 395  256.4371
 396  317.9677
 397  73.89689
 398  400.9806
 399  281.8635
 400  190.3032
 401  12.32951
 402  258.3624
 403  56.405
 404  244.5967
 405  -72.62669
 406  69.30293
 407  542.5027
 408  547.8088
 409  868.0145
 410  1003.685
 411  946.7264
 412  245.1245
 413  -137.2061
 414  258.0819
 415  246.7905
 416  312.9981
 417  11.11927
 418  -48.23846
 419  -51.98806
 420  192.9015
 421  442.0586
 422  227.8578
 423  817.0738
 424  527.6918
 425  152.4406
 426  -145.4185
 427  73.59112
 428  342.4295
 429  734.6093
 430  154.5002
 431  172.9674
 432  258.2668
 433  122.4733
 434  389.7182
 435  -44.63324
 436  118.612
 437  -9.877532
 438  -95.01682
 439  153.9267
 440  326.0608
 441  425.1381
 442  436.7282
 443  76.49392
 444  19.83847
 445  -240.2583
 446  -298.0755
 447  -241.2832
 448  81.9962
 449  123.3726
 450  -167.068
 451  -181.4876
 452  -464.3922
 453  -103.2725
 454  -95.90606
 455  62.13584
 456  69.24029
 457  -12.10865
 458  381.5722
 459  304.9908
 460  634.4919
 461  620.9399
 462  256.1516
 463  -368.6427
 464  104.3559
 465  815.4319
 466  492.9292
 467  357.5434
 468  473.7003
 469  -312.2084
 470  -348.7597
 471  102.9285
 472  53.12492
 473  160.8503
 474  456.1907
 475  466.4929
 476  645.9978
 477  70.25156
 478  274.0238
 479  38.98608
 480  38.31104
 481  543.0104
 482  451.3438
 483  283.8217
 484  352.4771
 485  665.7976
 486  644.8536
 487  558.831
 488  1055.239
 489  1571.34
 490  2079.958
 491  1995.944
 492  2176.586
 493  1951.659
 494  1249.106
 495  552.3127
 496  233.5389
 497  143.0424
 498  95.46189
 499  -108.1168
 500  281.9238
 501  658.1678
 502  689.0845
 503  738.608
 504  502.7542
 505  630.5226
 506  595.2959
 507  311.4919
 508  169.1249
 509  330.5948
 510  344.9417
 511  433.2856
