# Input file       =  1208183128.111974_cleaned.dat
# Candidate        =  PSR_0332+5434
# Telescope        =  AR
# Epoch_topo       =  58227.601239721924
# Epoch_bary       =  N/A
# T_sample         =  0.002
# Data Folded      =  7340032
# Data Avg         =  0.0253201240296981
# Data StdDev      =  1.00008060291968 
# Profile Bins     =  512
# Profile Avg      =  363.036432904558 
# Profile StdDev   =  119.74268720908  
# Reduced chi-sqr  =  1.364
# Prob(Noise)      <  7.64e-08   (~5.2 sigma)
# P_topo (ms)      =  714.556867006803  +/- 0.000372
# P'_topo (s/s)    =  -0                +/- 1.96e-10
# P''_topo (s/s^2) =  0                 +/- 8.67e-14
# P_bary (ms)      =  N/A
# P'_bary (s/s)    =  N/A
# P''_bary (s/s^2) =  N/A
# P_orb (s)        =  N/A
# asin(i)/c (s)    =  N/A
# eccentricity     =  N/A
# w (rad)          =  N/A
# T_peri           =  N/A
######################################################
   0  375.2149
   1  297.2987
   2  289.7356
   3  210.0821
   4  308.4709
   5  342.8654
   6  465.6472
   7  399.3245
   8  438.1239
   9  350.7503
  10  212.0189
  11  272.2355
  12  341.2812
  13  344.8794
  14  295.9674
  15  365.3527
  16  270.467
  17  218.3815
  18  324.5498
  19  440.2939
  20  430.0954
  21  338.3413
  22  319.7644
  23  326.9711
  24  297.0442
  25  372.0333
  26  354.2733
  27  275.1826
  28  333.1122
  29  351.9669
  30  332.0314
  31  295.6389
  32  260.7296
  33  258.9551
  34  206.9022
  35  250.0873
  36  315.7708
  37  315.0043
  38  362.1794
  39  399.4445
  40  399.2362
  41  278.4344
  42  251.3849
  43  260.1403
  44  290.7177
  45  400.1368
  46  475.365
  47  431.6532
  48  373.3965
  49  320.7272
  50  378.4155
  51  425.2113
  52  397.7531
  53  394.7701
  54  332.3058
  55  230.32
  56  261.742
  57  297.5838
  58  307.8656
  59  367.1469
  60  445.1119
  61  422.4022
  62  363.9535
  63  357.9046
  64  293.4731
  65  408.236
  66  389.4883
  67  377.4443
  68  216.7012
  69  243.8083
  70  337.7112
  71  321.286
  72  423.357
  73  434.8413
  74  471.2966
  75  425.583
  76  239.6937
  77  277.0477
  78  429.6837
  79  409.464
  80  326.1178
  81  289.041
  82  383.1817
  83  454.2993
  84  383.0019
  85  400.8124
  86  492.65
  87  534.8806
  88  478.1828
  89  431.6346
  90  411.7365
  91  471.7584
  92  443.8245
  93  548.4005
  94  459.7359
  95  376.5844
  96  356.2416
  97  451.1358
  98  658.1832
  99  875.7684
 100  914.8731
 101  1021.454
 102  1012.521
 103  850.0894
 104  602.9865
 105  434.6333
 106  458.0482
 107  377.2593
 108  426.765
 109  440.5166
 110  426.134
 111  436.2348
 112  434.086
 113  533.2534
 114  557.5665
 115  609.2772
 116  619.6826
 117  578.08
 118  529.1725
 119  440.8587
 120  458.176
 121  497.8032
 122  462.6219
 123  441.0782
 124  442.3552
 125  420.7179
 126  363.9459
 127  396.0928
 128  430.4307
 129  438.9023
 130  399.373
 131  436.084
 132  431.0749
 133  435.2293
 134  393.7279
 135  298.8237
 136  305.5809
 137  335.6816
 138  223.9425
 139  200.8217
 140  344.2844
 141  310.2586
 142  246.3378
 143  394.8449
 144  347.9667
 145  359.0005
 146  306.4532
 147  323.3424
 148  269.7392
 149  221.954
 150  220.7786
 151  243.0833
 152  280.0698
 153  361.622
 154  338.4643
 155  371.3041
 156  322.188
 157  209.0429
 158  197.5334
 159  300.0508
 160  289.7509
 161  193.7684
 162  204.1507
 163  162.1189
 164  318.8036
 165  319.8994
 166  323.1667
 167  270.3102
 168  230.9916
 169  239.5851
 170  284.5945
 171  377.0395
 172  396.2729
 173  380.4653
 174  278.6769
 175  194.1201
 176  264.9975
 177  309.4319
 178  336.5573
 179  334.7509
 180  388.0103
 181  355.8744
 182  364.7957
 183  405.8791
 184  263.0189
 185  299.9918
 186  435.4175
 187  321.4678
 188  392.3474
 189  418.0616
 190  374.7227
 191  370.8947
 192  271.6884
 193  403.4315
 194  401.5389
 195  312.5059
 196  280.3512
 197  486.761
 198  496.9093
 199  404.1674
 200  384.0309
 201  502.4665
 202  408.6649
 203  405.4022
 204  440.1548
 205  493.8993
 206  440.8862
 207  445.0834
 208  514.8022
 209  340.4023
 210  319.1057
 211  395.3249
 212  444.9995
 213  333.6672
 214  221.8124
 215  318.7
 216  343.576
 217  385.0442
 218  375.1405
 219  235.3445
 220  260.3733
 221  403.9728
 222  362.6411
 223  297.4073
 224  211.5312
 225  214.9895
 226  293.8815
 227  395.1551
 228  397.4044
 229  389.8204
 230  387.2643
 231  322.6128
 232  279.2404
 233  413.1636
 234  332.9093
 235  222.892
 236  254.3134
 237  402.5331
 238  514.9734
 239  488.9908
 240  335.5539
 241  273.4703
 242  366.3126
 243  468.1764
 244  486.7562
 245  321.5224
 246  389.49
 247  375.9264
 248  368.4016
 249  327.9891
 250  340.078
 251  338.7177
 252  406.9389
 253  442.3931
 254  490.4872
 255  473.2982
 256  441.7745
 257  433.687
 258  439.9267
 259  318.4469
 260  382.7849
 261  508.8325
 262  425.0562
 263  261.7746
 264  274.6681
 265  453.0877
 266  434.5466
 267  414.8311
 268  396.9441
 269  429.8805
 270  266.5201
 271  322.5239
 272  364.0885
 273  323.7812
 274  399.3664
 275  433.1761
 276  380.273
 277  237.6025
 278  191.9255
 279  320.4712
 280  437.2461
 281  354.5276
 282  198.7369
 283  311.3316
 284  420.7786
 285  393.1028
 286  291.8369
 287  279.5776
 288  438.5039
 289  342.6889
 290  195.9288
 291  262.9059
 292  311.1987
 293  333.741
 294  415.1135
 295  372.7198
 296  303.2733
 297  334.9934
 298  366.1071
 299  450.9691
 300  493.2078
 301  480.5149
 302  372.0364
 303  213.1756
 304  264.1727
 305  429.369
 306  323.4432
 307  283.4919
 308  407.1528
 309  432.6406
 310  361.0874
 311  334.9296
 312  325.6329
 313  409.2786
 314  397.6176
 315  457.0986
 316  275.364
 317  336.5337
 318  436.3756
 319  412.7211
 320  579.3691
 321  494.3777
 322  485.8712
 323  413.9898
 324  480.0928
 325  538.7313
 326  427.6973
 327  491.3849
 328  469.7245
 329  475.4898
 330  410.5906
 331  341.4106
 332  469.6134
 333  484.1081
 334  423.2892
 335  328.4421
 336  152.8606
 337  219.8513
 338  219.135
 339  411.9702
 340  504.1234
 341  381.1277
 342  404.1258
 343  340.6499
 344  339.5546
 345  355.0974
 346  327.5118
 347  371.1552
 348  381.5292
 349  371.9672
 350  416.5535
 351  545.2481
 352  525.4764
 353  431.281
 354  403.4322
 355  325.7832
 356  314.4279
 357  386.8934
 358  442.6691
 359  382.2478
 360  482.593
 361  412.811
 362  430.2245
 363  393.8309
 364  454.289
 365  434.8427
 366  334.8486
 367  343.696
 368  404.2611
 369  520.2083
 370  439.3132
 371  329.2093
 372  326.3931
 373  407.0258
 374  321.5872
 375  266.3371
 376  308.9099
 377  373.5076
 378  362.0658
 379  356.4432
 380  469.7216
 381  417.9391
 382  341.0817
 383  366.1441
 384  319.7607
 385  318.8618
 386  425.3559
 387  401.3254
 388  401.4399
 389  485.972
 390  500.4054
 391  344.9683
 392  193.4297
 393  278.8091
 394  384.5144
 395  392.0782
 396  359.7295
 397  313.5695
 398  286.1331
 399  344.6931
 400  351.6245
 401  371.1081
 402  303.2445
 403  270.9192
 404  318.3142
 405  328.1226
 406  238.8875
 407  328.892
 408  388.539
 409  336.8227
 410  374.1057
 411  303.0409
 412  257.1347
 413  330.9619
 414  204.4753
 415  238.2598
 416  281.6717
 417  342.632
 418  267.5865
 419  380.5459
 420  437.6657
 421  400.9127
 422  300.9337
 423  343.5525
 424  390.2999
 425  381.4277
 426  344.9002
 427  324.933
 428  374.4502
 429  397.7192
 430  285.3416
 431  220.9544
 432  217.266
 433  248.7815
 434  259.6578
 435  253.4271
 436  292.748
 437  137.9877
 438  223.6936
 439  272.9039
 440  261.4043
 441  229.3156
 442  174.0904
 443  225.2184
 444  290.3168
 445  241.1907
 446  239.246
 447  199.0838
 448  331.4261
 449  305.6775
 450  361.9144
 451  337.1008
 452  270.0066
 453  227.8564
 454  294.2359
 455  279.6691
 456  318.8729
 457  371.4378
 458  320.8459
 459  263.4843
 460  464.8536
 461  341.0136
 462  358.6666
 463  276.9663
 464  280.618
 465  300.4764
 466  375.3957
 467  388.9573
 468  405.1861
 469  356.0884
 470  361.3392
 471  396.5942
 472  353.1317
 473  287.7618
 474  288.2366
 475  335.8712
 476  302.1766
 477  223.4879
 478  236.3517
 479  199.4872
 480  316.1529
 481  415.7355
 482  420.2051
 483  342.1247
 484  383.5587
 485  326.8543
 486  195.7436
 487  327.7381
 488  341.3965
 489  420.8347
 490  327.2448
 491  267.7723
 492  352.8389
 493  362.7894
 494  312.2694
 495  377.5474
 496  371.6296
 497  268.5317
 498  394.5077
 499  464.3539
 500  364.1651
 501  324.6595
 502  294.6966
 503  291.6999
 504  312.954
 505  331.8947
 506  380.935
 507  366.529
 508  372.1451
 509  397.4041
 510  378.5755
 511  443.3029
