# Input file       =  1208096954.114999-PSRB0329-2ms-sampling-dd.dat
# Candidate        =  PSR_0332+5434
# Telescope        =  AR
# Epoch_topo       =  58226.603855497677
# Epoch_bary       =  N/A
# T_sample         =  0.002
# Data Folded      =  7340032
# Data Avg         =  4.62892225998089e-10
# Data StdDev      =  7.42241104571845 
# Profile Bins     =  512
# Profile Avg      =  0.0490567753803035
# Profile StdDev   =  888.707811740318 
# Reduced chi-sqr  =  0.426
# Prob(Noise)      <  1   (~0.0 sigma)
# P_topo (ms)      =  714.557675036197  +/- 0.00105
# P'_topo (s/s)    =  -0                +/- 5.55e-10
# P''_topo (s/s^2) =  0                 +/- 2.45e-13
# P_bary (ms)      =  N/A
# P'_bary (s/s)    =  N/A
# P''_bary (s/s^2) =  N/A
# P_orb (s)        =  N/A
# asin(i)/c (s)    =  N/A
# eccentricity     =  N/A
# w (rad)          =  N/A
# T_peri           =  N/A
######################################################
   0  -554.2662
   1  110.5567
   2  140.9922
   3  -47.26774
   4  -501.2488
   5  -80.94496
   6  123.1446
   7  -104.2205
   8  -80.85391
   9  -383.3649
  10  -415.7876
  11  -378.18
  12  -315.2554
  13  -511.0786
  14  -311.9026
  15  -238.5567
  16  -312.9765
  17  -557.6551
  18  -995.2681
  19  -920.8156
  20  -794.8193
  21  -1040.868
  22  -511.8376
  23  -332.0829
  24  -133.1815
  25  -24.9544
  26  122.1404
  27  69.85412
  28  296.9496
  29  -9.577565
  30  97.14669
  31  -106.7452
  32  -64.52633
  33  -54.57702
  34  -141.8013
  35  -117.2182
  36  -48.73569
  37  -182.5477
  38  -273.313
  39  -521.8094
  40  -718.1553
  41  -583.7303
  42  -778.8396
  43  -424.2913
  44  -650.8292
  45  -610.8738
  46  -235.7035
  47  -413.7201
  48  -448.813
  49  -273.7138
  50  -464.0661
  51  -457.624
  52  -458.7404
  53  -535.7344
  54  -586.1015
  55  -563.1841
  56  2.951968
  57  -210.3053
  58  -403.484
  59  -104.511
  60  -288.7931
  61  -207.8276
  62  -223.0795
  63  -288.886
  64  -606.9984
  65  -251.5447
  66  -465.6469
  67  -270.8413
  68  -115.3735
  69  -11.67331
  70  -518.024
  71  -407.3172
  72  -424.9725
  73  -573.754
  74  -392.0055
  75  -237.151
  76  -323.572
  77  -269.7516
  78  -635.2798
  79  -636.9401
  80  -676.6362
  81  -471.5161
  82  -258.6612
  83  -113.13
  84  -285.798
  85  -69.8372
  86  140.5505
  87  -6.055462
  88  242.8619
  89  -48.94077
  90  369.558
  91  696.3962
  92  652.2653
  93  559.5465
  94  173.0806
  95  -32.732
  96  -324.1908
  97  -381.8908
  98  -175.6899
  99  -309.4055
 100  -177.8395
 101  -174.6994
 102  -209.5102
 103  183.8739
 104  -92.57996
 105  91.7012
 106  -182.7753
 107  -462.8046
 108  -133.8609
 109  79.50568
 110  -44.04112
 111  240.1096
 112  257.9211
 113  364.636
 114  258.0303
 115  119.3976
 116  193.7495
 117  502.0923
 118  853.5046
 119  700.4146
 120  163.2917
 121  213.8606
 122  17.98163
 123  106.0331
 124  370.0654
 125  370.7454
 126  589.5736
 127  501.2787
 128  578.3002
 129  382.4873
 130  563.5507
 131  -7.471756
 132  77.83636
 133  173.2713
 134  356.0614
 135  253.1651
 136  125.9708
 137  -90.91351
 138  -224.4106
 139  -103.9085
 140  -159.6043
 141  354.0319
 142  417.8344
 143  495.1671
 144  288.9712
 145  325.1927
 146  141.3356
 147  -364.7305
 148  -355.2106
 149  29.12625
 150  290.0965
 151  457.4036
 152  454.3078
 153  336.4054
 154  -144.9114
 155  -100.0872
 156  -267.7533
 157  80.27267
 158  574.231
 159  275.4977
 160  326.6872
 161  150.6811
 162  -308.8479
 163  -362.7903
 164  -164.1471
 165  325.9246
 166  214.8144
 167  483.4855
 168  586.9766
 169  144.6271
 170  17.06944
 171  -250.5107
 172  -193.8159
 173  -556.1084
 174  -234.5983
 175  483.879
 176  295.688
 177  142.2298
 178  241.731
 179  259.7567
 180  -40.45987
 181  61.14154
 182  29.23546
 183  305.7808
 184  -3.527695
 185  192.7673
 186  462.061
 187  -155.2942
 188  -406.4909
 189  -425.602
 190  -320.3842
 191  5.882917
 192  106.0593
 193  612.2678
 194  408.3682
 195  43.36679
 196  -253.1219
 197  -158.8143
 198  -64.13618
 199  -40.52739
 200  465.4328
 201  496.5467
 202  605.3324
 203  660.7256
 204  441.0844
 205  -243.3138
 206  -490.1846
 207  208.0925
 208  571.6157
 209  566.0469
 210  330.7027
 211  358.4486
 212  166.8298
 213  -98.77055
 214  -235.2544
 215  -72.13139
 216  -155.5546
 217  93.80001
 218  362.0945
 219  142.4479
 220  5.485446
 221  68.92414
 222  103.609
 223  7.290639
 224  175.0294
 225  79.66167
 226  -109.0805
 227  234.1275
 228  232.2351
 229  43.61731
 230  -227.3486
 231  -245.4933
 232  270.114
 233  280.8456
 234  324.0433
 235  715.8068
 236  827.5255
 237  515.0725
 238  -96.25325
 239  -257.3092
 240  299.7184
 241  1257.402
 242  829.5947
 243  504.2428
 244  659.4257
 245  507.8848
 246  494.2827
 247  633.2543
 248  838.0954
 249  489.339
 250  638.7497
 251  858.8589
 252  778.8241
 253  735.4975
 254  236.0087
 255  -37.15015
 256  75.4316
 257  -163.5392
 258  -379.6614
 259  -279.7263
 260  -56.87891
 261  -155.0733
 262  -229.6675
 263  -595.4779
 264  -529.3975
 265  -682.3926
 266  -561.8317
 267  -1006.596
 268  -1052.963
 269  -413.6973
 270  -403.7869
 271  -478.7054
 272  -647.1
 273  -756.4656
 274  -296.8077
 275  -504.8235
 276  -281.5228
 277  -320.2471
 278  -311.3556
 279  -320.8476
 280  -11.46322
 281  -16.25051
 282  -159.1832
 283  -254.1894
 284  -579.1239
 285  -190.8167
 286  147.0346
 287  587.3144
 288  626.4841
 289  250.8132
 290  120.9409
 291  56.86724
 292  323.3004
 293  728.1461
 294  284.3431
 295  472.9282
 296  726.0898
 297  356.34
 298  -71.4008
 299  217.5754
 300  15.06392
 301  60.81765
 302  316.0252
 303  826.7747
 304  690.8424
 305  442.7505
 306  568.2048
 307  304.1842
 308  229.7305
 309  -5.670821
 310  179.3317
 311  205.9229
 312  157.3951
 313  320.6521
 314  454.6945
 315  794.943
 316  100.7705
 317  300.6443
 318  528.8737
 319  650.675
 320  919.5352
 321  650.1031
 322  445.7054
 323  273.2337
 324  -317.3702
 325  -260.6664
 326  -21.14631
 327  258.0539
 328  -207.3505
 329  -260.3671
 330  194.3724
 331  208.3539
 332  370.1151
 333  785.3638
 334  751.858
 335  672.0443
 336  510.2961
 337  41.71981
 338  67.56323
 339  261.2126
 340  488.5688
 341  140.2673
 342  33.65255
 343  65.25095
 344  -337.1993
 345  -74.23091
 346  -363.7611
 347  -152.2735
 348  -40.69977
 349  26.35394
 350  37.59484
 351  -357.6367
 352  -291.2358
 353  -343.935
 354  -412.4376
 355  -465.8098
 356  -518.6253
 357  -229.4592
 358  -351.0534
 359  -584.1028
 360  -539.0392
 361  -612.5375
 362  212.0727
 363  -75.63126
 364  -400.7562
 365  -574.4748
 366  -699.4719
 367  -568.1218
 368  -453.3242
 369  -352.9117
 370  -320.566
 371  -439.7625
 372  -384.4415
 373  -154.1277
 374  -402.4674
 375  -426.4076
 376  -96.25182
 377  21.10156
 378  -118.9561
 379  -340.2624
 380  -318.6892
 381  -563.134
 382  -32.05541
 383  -111.7599
 384  -154.0092
 385  -471.023
 386  -396.0859
 387  -470.099
 388  -785.1306
 389  -555.8633
 390  -387.2665
 391  -327.9711
 392  -189.6408
 393  -419.7874
 394  116.1006
 395  480.9171
 396  584.3301
 397  791.8345
 398  831.1862
 399  584.0378
 400  420.1315
 401  196.6305
 402  124.0386
 403  332.2246
 404  217.5382
 405  135.5158
 406  411.7484
 407  -60.46895
 408  -116.1515
 409  224.4205
 410  255.1537
 411  242.3511
 412  308.2463
 413  462.7068
 414  58.60219
 415  -106.6747
 416  -40.28199
 417  266.0756
 418  848.3897
 419  411.8936
 420  312.5716
 421  169.7318
 422  -72.69402
 423  -203.6182
 424  -171.7356
 425  -411.3127
 426  20.72738
 427  265.1526
 428  54.27612
 429  -83.24969
 430  -3.718382
 431  -117.2089
 432  -281.311
 433  -264.644
 434  -7.868133
 435  -240.4196
 436  -155.3999
 437  -30.45626
 438  -246.6456
 439  -109.9743
 440  151.4465
 441  -421.8024
 442  -501.8105
 443  -179.4824
 444  -326.0031
 445  -182.4647
 446  63.88097
 447  95.78913
 448  -52.66386
 449  -257.3267
 450  -151.047
 451  -86.00194
 452  -185.0523
 453  -284.778
 454  -559.0888
 455  -540.7487
 456  -454.2199
 457  -494.2063
 458  -273.62
 459  -327.7674
 460  -435.6536
 461  -268.4776
 462  -105.9265
 463  -326.9505
 464  -136.0966
 465  -260.7004
 466  -22.44169
 467  -730.7512
 468  -702.6625
 469  -540.3113
 470  -704.3859
 471  -98.96558
 472  -278.5429
 473  147.5183
 474  -270.8216
 475  -494.7481
 476  -108.4014
 477  268.6401
 478  483.4738
 479  2.916539
 480  -22.18958
 481  -213.8849
 482  -293.1893
 483  367.6927
 484  1168.989
 485  1816.818
 486  1913.786
 487  1761.492
 488  1636.589
 489  718.1985
 490  180.2839
 491  521.9619
 492  658.8156
 493  344.6529
 494  166.9429
 495  -112.2839
 496  182.4519
 497  -76.66029
 498  309.4914
 499  329.2786
 500  505.7542
 501  436.0374
 502  137.4564
 503  -124.7088
 504  -227.2533
 505  -110.2917
 506  -70.1752
 507  -219.6492
 508  47.979
 509  -116.0165
 510  -281.4008
 511  -494.359
