# Input file       =  1208355544.109267_cleaned.dat
# Candidate        =  PSR_0332+5434
# Telescope        =  AR
# Epoch_topo       =  58229.596795246143
# Epoch_bary       =  N/A
# T_sample         =  0.002
# Data Folded      =  7340032
# Data Avg         =  0.028178126530787
# Data StdDev      =  1.00004455738979 
# Profile Bins     =  512
# Profile Avg      =  403.958378473582 
# Profile StdDev   =  119.738371368338 
# Reduced chi-sqr  =  1.503
# Prob(Noise)      <  1.22e-12   (~7.0 sigma)
# P_topo (ms)      =  714.555224376912  +/- 0.000225
# P'_topo (s/s)    =  -0                +/- 1.19e-10
# P''_topo (s/s^2) =  0                 +/- 5.25e-14
# P_bary (ms)      =  N/A
# P'_bary (s/s)    =  N/A
# P''_bary (s/s^2) =  N/A
# P_orb (s)        =  N/A
# asin(i)/c (s)    =  N/A
# eccentricity     =  N/A
# w (rad)          =  N/A
# T_peri           =  N/A
######################################################
   0  529.3651
   1  384.0928
   2  418.6047
   3  488.2641
   4  478.8992
   5  327.2126
   6  289.2083
   7  424.3388
   8  445.7949
   9  361.5047
  10  324.6688
  11  448.9555
  12  479.1495
  13  364.0841
  14  277.0412
  15  380.6736
  16  408.3441
  17  330.467
  18  330.4961
  19  371.6208
  20  308.8186
  21  381.7516
  22  320.3197
  23  317.7187
  24  450.1673
  25  254.1187
  26  327.3264
  27  366.1233
  28  329.5569
  29  445.3366
  30  359.5305
  31  411.4626
  32  458.775
  33  403.0023
  34  445.8532
  35  449.3832
  36  418.8656
  37  441.0235
  38  509.4133
  39  514.7889
  40  424.7193
  41  348.4427
  42  472.9388
  43  433.7501
  44  481.4709
  45  509.8578
  46  493.6749
  47  450.1791
  48  371.7576
  49  500.184
  50  606.7285
  51  603.965
  52  683.7368
  53  757.9532
  54  955.0623
  55  1187.037
  56  1086.187
  57  989.8076
  58  747.9238
  59  654.0904
  60  667.7543
  61  609.6522
  62  536.4149
  63  517.7411
  64  552.5099
  65  606.1703
  66  474.1517
  67  441.0593
  68  483.6629
  69  475.6263
  70  438.3978
  71  474.8161
  72  549.5924
  73  531.7687
  74  407.761
  75  454.2408
  76  334.0326
  77  364.4046
  78  436.759
  79  482.8333
  80  452.7621
  81  417.5259
  82  271.204
  83  250.5864
  84  312.2375
  85  427.0345
  86  365.4091
  87  210.3377
  88  322.9383
  89  347.3599
  90  404.691
  91  399.0682
  92  385.8538
  93  369.8695
  94  294.0237
  95  327.4039
  96  338.6666
  97  383.443
  98  240.9576
  99  321.2198
 100  309.1725
 101  370.0166
 102  268.014
 103  234.1615
 104  239.4968
 105  299.5631
 106  360.7124
 107  232.3408
 108  269.1223
 109  278.787
 110  364.3079
 111  324.9659
 112  280.0134
 113  332.9658
 114  290.7965
 115  261.3836
 116  180.7968
 117  297.3999
 118  421.1802
 119  437.8037
 120  401.7106
 121  297.898
 122  294.1373
 123  385.043
 124  462.1051
 125  306.2437
 126  263.3399
 127  300.6371
 128  321.329
 129  389.9993
 130  264.0153
 131  332.0903
 132  422.214
 133  479.5001
 134  476.3811
 135  347.6617
 136  320.147
 137  355.7478
 138  349.626
 139  407.4724
 140  522.3834
 141  447.5123
 142  416.6335
 143  379.4983
 144  396.7716
 145  424.749
 146  376.166
 147  355.1364
 148  346.258
 149  295.9803
 150  324.6533
 151  365.3389
 152  352.9184
 153  324.7119
 154  399.3841
 155  316.1166
 156  259.1617
 157  261.2502
 158  357.1847
 159  315.0129
 160  281.1019
 161  355.4964
 162  406.5128
 163  316.1301
 164  232.3689
 165  192.9629
 166  359.3368
 167  425.0933
 168  347.4204
 169  380.0418
 170  354.0849
 171  301.14
 172  259.8256
 173  363.8024
 174  289.0805
 175  375.2834
 176  454.6263
 177  555.4556
 178  317.322
 179  254.7649
 180  420.9603
 181  365.0299
 182  341.0797
 183  362.967
 184  317.9503
 185  183.2964
 186  253.9736
 187  267.5514
 188  223.0885
 189  360.0289
 190  266.3314
 191  260.569
 192  338.3169
 193  338.2815
 194  281.6225
 195  378.9789
 196  452.3136
 197  358.6519
 198  355.4604
 199  336.3196
 200  352.1973
 201  351.4748
 202  370.731
 203  282.6053
 204  336.1357
 205  486.2405
 206  470.1428
 207  344.9603
 208  456.8329
 209  341.4483
 210  467.3666
 211  396.8796
 212  367.7449
 213  427.716
 214  442.0385
 215  450.5239
 216  506.4649
 217  443.4906
 218  375.0667
 219  439.5376
 220  469.6877
 221  527.6386
 222  503.2941
 223  503.2668
 224  513.7292
 225  463.0114
 226  481.1156
 227  501.7511
 228  462.8184
 229  491.5146
 230  554.5183
 231  581.1448
 232  498.2003
 233  412.4838
 234  383.3593
 235  412.8923
 236  369.2469
 237  314.5606
 238  333.4432
 239  376.4562
 240  335.8015
 241  369.8237
 242  315.8185
 243  302.6834
 244  447.8528
 245  392.1728
 246  244.8978
 247  403.1698
 248  504.5566
 249  453.3944
 250  413.5036
 251  365.4843
 252  301.1808
 253  347.1421
 254  431.9861
 255  414.4328
 256  308.368
 257  279.892
 258  366.231
 259  382.3606
 260  347.5195
 261  350.7476
 262  258.5114
 263  217.7613
 264  297.9556
 265  319.9004
 266  362.1757
 267  454.6178
 268  370.3842
 269  310.5047
 270  238.6302
 271  302.8763
 272  405.0492
 273  387.6329
 274  474.0837
 275  413.9399
 276  278.8786
 277  318.9048
 278  430.1138
 279  423.3566
 280  362.6151
 281  406.5403
 282  420.1551
 283  402.1974
 284  302.7656
 285  388.2056
 286  470.7739
 287  456.9988
 288  456.1936
 289  527.2045
 290  523.6318
 291  364.0944
 292  340.645
 293  510.1331
 294  508.5122
 295  448.1154
 296  428.2901
 297  306.624
 298  355.8319
 299  376.7926
 300  467.3146
 301  451.3459
 302  361.3776
 303  408.6128
 304  441.3017
 305  386.2851
 306  373.8906
 307  421.8072
 308  421.4396
 309  356.884
 310  336.8574
 311  318.9562
 312  407.8249
 313  383.3084
 314  390.2811
 315  410.2628
 316  454.9186
 317  369.2071
 318  385.5287
 319  309.2283
 320  363.9317
 321  402.5369
 322  420.1589
 323  499.882
 324  471.8094
 325  356.6751
 326  227.6925
 327  322.5053
 328  429.0217
 329  397.6678
 330  276.8703
 331  305.4229
 332  303.2478
 333  339.4222
 334  245.8129
 335  265.7716
 336  423.0512
 337  339.3318
 338  262.6438
 339  264.9394
 340  266.8488
 341  332.0804
 342  270.7298
 343  404.6407
 344  481.0484
 345  366.7769
 346  273.1505
 347  423.834
 348  421.6393
 349  438.8663
 350  339.3593
 351  460.9688
 352  497.9577
 353  471.6965
 354  415.2562
 355  431.809
 356  365.7914
 357  407.6458
 358  479.7327
 359  449.093
 360  362.2981
 361  365.0775
 362  438.5733
 363  434.8455
 364  359.6491
 365  529.3513
 366  568.5052
 367  356.4728
 368  441.7088
 369  458.4337
 370  490.3851
 371  499.88
 372  465.2466
 373  391.2751
 374  477.904
 375  485.1016
 376  426.8183
 377  335.0183
 378  357.5496
 379  418.3404
 380  522.3558
 381  491.7932
 382  461.3733
 383  400.7137
 384  452.8762
 385  401.9471
 386  529.8032
 387  533.0068
 388  493.5297
 389  434.8685
 390  408.8549
 391  453.0876
 392  390.5382
 393  316.2422
 394  344.6604
 395  341.5824
 396  373.614
 397  402.1519
 398  339.4033
 399  338.2589
 400  367.4603
 401  397.1885
 402  397.0215
 403  382.1826
 404  405.4433
 405  499.8252
 406  516.5532
 407  435.8416
 408  490.6573
 409  431.3647
 410  441.1789
 411  369.9509
 412  504.7577
 413  599.1414
 414  515.5496
 415  368.8533
 416  305.3907
 417  413.174
 418  548.702
 419  624.7452
 420  497.0073
 421  511.198
 422  421.5317
 423  466.1275
 424  487.3773
 425  358.1282
 426  357.4515
 427  308.1674
 428  184.513
 429  285.0457
 430  425.7882
 431  593.0601
 432  574.8511
 433  447.0932
 434  535.4852
 435  608.8987
 436  617.5559
 437  543.2648
 438  481.2233
 439  531.2862
 440  507.561
 441  334.5437
 442  390.8519
 443  448.2209
 444  522.878
 445  512.8668
 446  388.7806
 447  474.8464
 448  392.4908
 449  416.6549
 450  397.6257
 451  336.8106
 452  412.1919
 453  476.579
 454  423.2346
 455  455.261
 456  516.6171
 457  264.1626
 458  246.6351
 459  408.5705
 460  382.5277
 461  252.4493
 462  282.5097
 463  281.4557
 464  278.6544
 465  351.9561
 466  338.8112
 467  324.1604
 468  381.7316
 469  489.7702
 470  488.3404
 471  499.2273
 472  446.496
 473  415.0287
 474  456.5614
 475  380.3117
 476  387.26
 477  441.4999
 478  405.8103
 479  335.1148
 480  340.5067
 481  460.459
 482  430.8673
 483  436.1502
 484  379.5474
 485  355.5058
 486  315.2097
 487  353.9544
 488  426.5869
 489  484.495
 490  379.9608
 491  400.0666
 492  464.182
 493  465.8438
 494  508.8541
 495  449.7104
 496  270.3797
 497  309.0864
 498  418.4687
 499  463.647
 500  444.1948
 501  458.5288
 502  501.1173
 503  529.0945
 504  463.3915
 505  560.231
 506  560.2686
 507  463.2883
 508  397.1226
 509  406.6968
 510  401.1626
 511  530.3439
