# Input file       =  1208412144.103333_cleaned.dat
# Candidate        =  PSR_0332+5434
# Telescope        =  AR
# Epoch_topo       =  58230.251887770057
# Epoch_bary       =  N/A
# T_sample         =  0.002
# Data Folded      =  7208960
# Data Avg         =  0.185576397553086
# Data StdDev      =  5.0116713571993  
# Profile Bins     =  256
# Profile Avg      =  5225.94373119638 
# Profile StdDev   =  841.005642168246 
# Reduced chi-sqr  =  1.947
# Prob(Noise)      <  1.03e-17   (~8.5 sigma)
# P_topo (ms)      =  714.554314559287  +/- 3.28e-05
# P'_topo (s/s)    =  -0                +/- 1.76e-11
# P''_topo (s/s^2) =  0                 +/- 7.92e-15
# P_bary (ms)      =  N/A
# P'_bary (s/s)    =  N/A
# P''_bary (s/s^2) =  N/A
# P_orb (s)        =  N/A
# asin(i)/c (s)    =  N/A
# eccentricity     =  N/A
# w (rad)          =  N/A
# T_peri           =  N/A
######################################################
   0  4667.782
   1  5516.494
   2  4083.571
   3  4700.044
   4  5715.437
   5  6666.579
   6  5106.929
   7  4949.075
   8  5460.217
   9  6035.081
  10  4324.194
  11  4458.828
  12  5148.167
  13  7002.461
  14  6242.837
  15  5491.774
  16  5070.587
  17  5457.255
  18  4740.058
  19  4057.904
  20  3935.801
  21  6245.456
  22  6362.827
  23  5351.286
  24  5442.33
  25  5273.259
  26  4336.697
  27  3331.969
  28  4766.263
  29  5585.955
  30  5154.604
  31  5189.545
  32  5053.275
  33  5222.228
  34  5110.586
  35  3226.402
  36  3959.702
  37  5526.678
  38  5919.884
  39  4296.583
  40  5252.023
  41  5313.522
  42  4992.967
  43  2701.419
  44  4511.455
  45  4793.114
  46  6412.245
  47  5116.501
  48  5091.064
  49  4681.628
  50  5110.051
  51  4858.363
  52  4059.566
  53  4842.957
  54  6651.422
  55  5646.518
  56  5270.279
  57  5326.532
  58  6365.38
  59  4907.893
  60  3588.13
  61  4596.95
  62  6338.98
  63  6427.53
  64  4830.532
  65  5724.173
  66  5386.408
  67  6208.039
  68  4145.956
  69  5230.137
  70  4865.179
  71  5002.362
  72  4506.955
  73  4780.299
  74  4634.378
  75  4896.097
  76  3357.631
  77  4279.699
  78  5050.322
  79  5963.663
  80  4715.206
  81  4627.751
  82  4890.996
  83  4901.391
  84  3820.947
  85  3746.787
  86  4129.142
  87  6125.648
  88  6237.959
  89  5574.235
  90  5232.072
  91  6013.62
  92  5380.293
  93  3666.282
  94  4155.083
  95  6472.569
  96  7065.755
  97  5173.072
  98  5195.955
  99  5942.039
 100  6597.918
 101  4927.182
 102  5579.716
 103  6377.426
 104  7045.518
 105  6257.748
 106  6974.806
 107  6870.916
 108  6670.79
 109  5413.19
 110  5206.956
 111  5917.769
 112  7763.567
 113  6900.952
 114  5770.859
 115  5700.914
 116  6598.889
 117  4645.656
 118  4783.093
 119  5020.728
 120  7189.057
 121  6304.59
 122  6437.61
 123  5919.142
 124  5602.266
 125  5500.012
 126  3887.481
 127  4488.741
 128  5851.808
 129  6241.622
 130  4880.768
 131  5534.153
 132  5351.586
 133  6589.331
 134  4278.958
 135  5039.327
 136  6320.325
 137  6685.4
 138  4737.026
 139  5359.052
 140  6848.936
 141  6199.006
 142  4593.473
 143  4886.069
 144  4887.193
 145  6354.967
 146  5997.991
 147  5431.036
 148  6815.037
 149  8928.689
 150  9851.7
 151  7270.625
 152  6016.886
 153  7051.468
 154  6704.887
 155  5995.822
 156  5545.093
 157  6468.451
 158  6059.49
 159  4335.954
 160  4707.92
 161  5739.007
 162  5819.218
 163  4866.395
 164  4778.665
 165  4354.894
 166  5468.822
 167  3649.9
 168  4162.601
 169  5138.698
 170  6274.002
 171  5393.159
 172  5187.17
 173  4872.742
 174  5722.261
 175  3103.102
 176  3233.463
 177  4783.846
 178  6809.018
 179  5065.392
 180  4391.444
 181  5092.861
 182  5018.557
 183  4145.18
 184  3176.895
 185  4374.591
 186  5652.795
 187  6934.711
 188  4484.633
 189  4374.139
 190  5189.024
 191  5145.044
 192  3599.241
 193  3756.656
 194  5194.691
 195  5781.917
 196  4780.983
 197  4300.58
 198  5238.398
 199  5778.02
 200  4127.067
 201  4395.223
 202  4960.038
 203  5838.681
 204  4240.036
 205  4296.436
 206  5178.527
 207  5963.581
 208  3990.226
 209  3729.348
 210  4629.368
 211  6399.519
 212  5414.98
 213  5173.95
 214  4775.764
 215  5596.833
 216  4823.704
 217  3663.028
 218  4517.243
 219  6469.676
 220  6081.652
 221  4501.464
 222  4997.53
 223  5596.118
 224  4616.038
 225  3379.506
 226  3930.485
 227  5544.471
 228  5919.274
 229  5373.37
 230  4628.218
 231  4691.152
 232  6009.566
 233  3339.496
 234  3061.251
 235  4422.921
 236  6362.493
 237  4938.571
 238  4724.841
 239  4828.864
 240  5915.765
 241  3927.013
 242  3697.675
 243  5195.524
 244  5981.875
 245  4759.976
 246  4646.747
 247  5043.049
 248  6100.358
 249  4880.715
 250  3300.421
 251  3885.358
 252  5970.814
 253  6474.994
 254  4581.906
 255  4370.924
