# Input file       =  1208153608.10872_cleaned.dat
# Candidate        =  PSR_0332+5434
# Telescope        =  AR
# Epoch_topo       =  58227.259573017596
# Epoch_bary       =  N/A
# T_sample         =  0.002
# Data Folded      =  7143424
# Data Avg         =  0.203579724074231
# Data StdDev      =  4.9628349167077  
# Profile Bins     =  512
# Profile Avg      =  2840.3431138009  
# Profile StdDev   =  586.203035378699 
# Reduced chi-sqr  =  3.323
# Prob(Noise)      <  3.51e-127   (~24.0 sigma)
# P_topo (ms)      =  714.556785232922  +/- 1.24e-05
# P'_topo (s/s)    =  -0                +/- 6.74e-12
# P''_topo (s/s^2) =  0                 +/- 3.06e-15
# P_bary (ms)      =  N/A
# P'_bary (s/s)    =  N/A
# P''_bary (s/s^2) =  N/A
# P_orb (s)        =  N/A
# asin(i)/c (s)    =  N/A
# eccentricity     =  N/A
# w (rad)          =  N/A
# T_peri           =  N/A
######################################################
   0  3796.854
   1  3113.116
   2  2434.639
   3  1482.155
   4  1353.359
   5  2316.029
   6  3345.173
   7  3478.823
   8  3210.003
   9  2813.932
  10  1926.173
  11  1792.105
  12  1951.445
  13  2381.826
  14  3296.236
  15  4311.737
  16  4362.974
  17  3262.5
  18  2729.613
  19  2329.115
  20  1847.409
  21  2269.479
  22  2336.489
  23  3001.613
  24  3590
  25  3784.152
  26  2562.407
  27  2002.585
  28  2073.953
  29  2177.091
  30  2851.511
  31  3264.72
  32  3977.446
  33  4137.031
  34  3683.39
  35  2779.822
  36  1956.762
  37  1893.923
  38  2421.581
  39  3284.543
  40  3510.546
  41  3590.177
  42  2923.744
  43  2149.296
  44  1682.068
  45  1766.126
  46  2630.454
  47  3356.053
  48  4157.224
  49  4322.143
  50  3496.491
  51  2449.755
  52  1965.972
  53  1725.962
  54  1987.881
  55  2434.662
  56  2779.078
  57  3385.939
  58  3277.742
  59  2277.715
  60  1873.822
  61  1734.808
  62  1805.124
  63  2296.063
  64  3403.895
  65  3809.004
  66  3506.086
  67  2876.262
  68  2068.526
  69  1751.833
  70  1889.694
  71  2277.797
  72  2852.187
  73  3280.426
  74  3031.274
  75  2000.005
  76  1570.557
  77  1187.526
  78  1381.766
  79  2054.493
  80  2621.527
  81  3490.942
  82  3675.192
  83  3252.59
  84  2173.923
  85  1905.218
  86  1627.661
  87  1923.5
  88  2244.072
  89  3301.938
  90  3398.266
  91  3165.186
  92  2305.812
  93  1645.625
  94  2034.811
  95  1973.462
  96  2483.846
  97  3158.624
  98  3470.6
  99  3417.501
 100  3074.095
 101  2624.768
 102  2032.296
 103  2185.295
 104  2704.06
 105  2893.039
 106  3409.977
 107  3711.461
 108  3745.525
 109  2470.395
 110  1630.522
 111  1989.925
 112  2265.556
 113  3115.369
 114  3953.306
 115  4314.305
 116  3865.26
 117  2587.655
 118  1976.79
 119  1840.155
 120  2244.32
 121  2490.875
 122  3170.589
 123  3701.726
 124  3443.881
 125  2797.433
 126  1928.283
 127  1662.986
 128  2323.191
 129  2873.896
 130  3340.165
 131  4320.762
 132  4241.53
 133  3355.712
 134  2802.783
 135  2188.208
 136  2106.514
 137  2598.725
 138  3051.891
 139  3176.158
 140  3687.779
 141  3210.747
 142  2203.689
 143  1943.297
 144  1765.12
 145  2204.511
 146  2756.119
 147  3677.579
 148  4199.372
 149  3431.827
 150  2466.299
 151  1858.477
 152  2066.024
 153  2221.4
 154  2582.277
 155  3103.129
 156  3218.959
 157  3009.377
 158  2162.251
 159  2033.911
 160  1948.33
 161  2462.483
 162  2709.018
 163  2974.753
 164  3970.893
 165  4049.55
 166  3255.091
 167  2547.373
 168  2069.723
 169  1717.402
 170  2005.687
 171  2305.092
 172  2748.079
 173  3310.23
 174  2945.919
 175  2325.147
 176  1665.783
 177  2017.615
 178  2289.179
 179  2727.146
 180  3889.975
 181  4016.105
 182  3577.773
 183  3183.543
 184  2525.376
 185  1809.648
 186  1905.917
 187  2297.882
 188  3143.223
 189  3826.543
 190  3893.555
 191  2816.775
 192  1824.711
 193  1762.779
 194  2393.3
 195  2597.793
 196  3267.978
 197  4123.963
 198  4074.341
 199  2637.145
 200  2339.333
 201  2122.246
 202  2002.292
 203  2435.192
 204  2982.755
 205  3189.173
 206  3123.251
 207  3318.696
 208  2756.072
 209  1844.354
 210  1880.067
 211  1828.92
 212  2465.104
 213  3577.106
 214  4400.65
 215  3841.259
 216  2841.064
 217  1932.994
 218  1695.545
 219  2000.914
 220  2512.248
 221  2731.461
 222  3406.012
 223  3721.305
 224  2623.34
 225  2028.714
 226  2062.627
 227  2411.825
 228  2826.76
 229  3440.076
 230  4076.587
 231  3839.746
 232  3520.968
 233  2799.956
 234  2220.334
 235  1835.849
 236  2139.004
 237  2747.579
 238  3088.665
 239  3578.381
 240  2964.96
 241  2251.955
 242  2138.561
 243  2092.743
 244  2578.561
 245  2482.28
 246  3182.026
 247  3966.69
 248  3757.272
 249  3358.362
 250  2303.471
 251  2019.037
 252  2225.597
 253  2667.357
 254  2875.759
 255  3090.356
 256  3753.015
 257  2972.871
 258  2140.761
 259  1722.076
 260  2037.361
 261  2420.032
 262  3212.414
 263  4225.671
 264  4303.519
 265  3668.592
 266  2930.222
 267  1994.057
 268  1854.278
 269  2530.748
 270  2837.914
 271  3001.01
 272  3444.77
 273  3540.924
 274  3074.961
 275  1908.178
 276  1770.356
 277  2636.214
 278  3027.42
 279  3538.01
 280  3866.426
 281  3974.577
 282  2589.973
 283  2081.246
 284  1859.575
 285  2309.258
 286  2880.073
 287  2995.938
 288  3456.655
 289  3607.446
 290  3123.674
 291  1928.175
 292  1724.593
 293  1931.722
 294  2178.812
 295  3272.513
 296  4006.058
 297  4753.096
 298  4378.201
 299  3728.184
 300  3506.109
 301  3632.978
 302  3757.437
 303  4687.938
 304  4889.727
 305  4561.675
 306  3695.291
 307  2804.411
 308  2279.359
 309  2009.348
 310  2206.435
 311  3045.423
 312  3665.81
 313  4242.476
 314  4037.968
 315  3599.768
 316  2772.632
 317  2257.051
 318  2583.043
 319  3097.863
 320  2891.144
 321  2705.957
 322  2802.308
 323  3051.362
 324  2298.992
 325  2209.311
 326  2162.637
 327  2770.471
 328  3400.173
 329  4308.959
 330  4728.854
 331  3919.014
 332  3049.226
 333  2230.837
 334  1915.344
 335  1979.275
 336  2999.666
 337  3531.651
 338  3642.265
 339  3856.862
 340  2884.043
 341  2166.295
 342  1897.216
 343  2482.707
 344  2755.698
 345  3782.45
 346  4900.316
 347  4415.945
 348  3708.458
 349  2819.079
 350  2256.512
 351  1854.109
 352  2146.468
 353  2890.038
 354  3509.784
 355  3719.527
 356  3121.766
 357  2451.873
 358  1837.433
 359  2120.681
 360  2629.832
 361  3225.445
 362  4005.056
 363  3859.966
 364  3328.717
 365  2978.396
 366  2382.523
 367  1913.693
 368  2117.157
 369  2733.85
 370  3590.963
 371  3911.358
 372  3544.211
 373  2840.998
 374  1769.202
 375  1747.62
 376  2188.95
 377  2918.165
 378  3605.894
 379  4144.727
 380  4456.651
 381  3915.423
 382  2517.624
 383  1661.846
 384  1829.446
 385  2129.007
 386  2604.468
 387  3588.396
 388  3639.124
 389  3185.127
 390  2368
 391  2240.567
 392  2386.533
 393  2390.908
 394  2797.567
 395  3802.543
 396  4128.68
 397  3616.511
 398  2937.686
 399  2596.292
 400  2336.437
 401  2203.553
 402  2778.979
 403  3446.12
 404  3800.056
 405  3709.979
 406  2889.569
 407  2368.471
 408  1998.739
 409  2055.341
 410  2942.098
 411  3569.767
 412  4411.233
 413  4074.969
 414  3402.429
 415  2835.028
 416  1920.489
 417  2255.246
 418  2314.419
 419  2972.825
 420  3659.499
 421  3894.331
 422  3419.716
 423  2443.589
 424  2339.699
 425  2574.646
 426  3024.924
 427  3402.415
 428  3973.675
 429  4439.865
 430  3592.931
 431  2838.675
 432  2774.385
 433  2282.853
 434  2136.801
 435  2670.783
 436  3317.37
 437  3752.334
 438  3111.21
 439  2310.24
 440  1862.451
 441  2006.818
 442  2221.865
 443  2691.142
 444  3705.037
 445  4475.597
 446  3843.813
 447  3557.522
 448  2746.209
 449  2124.262
 450  2234.293
 451  2284.952
 452  2548.96
 453  3313.863
 454  3748.307
 455  2855.148
 456  1990.317
 457  1790.923
 458  2091.331
 459  2520.97
 460  2961.698
 461  3920.427
 462  4315.966
 463  3833.91
 464  2867.039
 465  2306.422
 466  2107.6
 467  2073.073
 468  2444.718
 469  3117.142
 470  3575.477
 471  3348.721
 472  2560.786
 473  2004.051
 474  2050.787
 475  2135.203
 476  2530.121
 477  3359.786
 478  4105.224
 479  4404.539
 480  3327.574
 481  2548.87
 482  2073.879
 483  2163.183
 484  2683.401
 485  3003.879
 486  3536.771
 487  3732.846
 488  3216.257
 489  2481.164
 490  1716.62
 491  2036.437
 492  2122.399
 493  2816.855
 494  3923.365
 495  4142.158
 496  3078.385
 497  2628.687
 498  2202.704
 499  1700.907
 500  2114.76
 501  2369.24
 502  2431.74
 503  2449.432
 504  2552.315
 505  2304.459
 506  1710.509
 507  1869.629
 508  1743.374
 509  2710.465
 510  3822.358
 511  4088.81
