# Input file       =  1208670671.120142_cleaned.dat
# Candidate        =  PSR_0332+5434
# Telescope        =  AR
# Epoch_topo       =  58233.244098612755
# Epoch_bary       =  N/A
# T_sample         =  0.002
# Data Folded      =  7208960
# Data Avg         =  0.243451094628439
# Data StdDev      =  6.46351491504833 
# Profile Bins     =  512
# Profile Avg      =  3428.41146863369 
# Profile StdDev   =  766.955352548826 
# Reduced chi-sqr  =  5.344
# Prob(Noise)      <  5.55e-299   (~36.9 sigma)
# P_topo (ms)      =  714.551773212226  +/- 1.14e-05
# P'_topo (s/s)    =  -0                +/- 6.13e-12
# P''_topo (s/s^2) =  0                 +/- 2.76e-15
# P_bary (ms)      =  N/A
# P'_bary (s/s)    =  N/A
# P''_bary (s/s^2) =  N/A
# P_orb (s)        =  N/A
# asin(i)/c (s)    =  N/A
# eccentricity     =  N/A
# w (rad)          =  N/A
# T_peri           =  N/A
######################################################
   0  2721.084
   1  2455.702
   2  2942.704
   3  3995.232
   4  4724.884
   5  3311.858
   6  2071.717
   7  962.3832
   8  1622.97
   9  2042.264
  10  3656.816
  11  5748.655
  12  5386.963
  13  5210.102
  14  3414.087
  15  2833.678
  16  2338.609
  17  2397.404
  18  2181.213
  19  2706.255
  20  4569.267
  21  3801.862
  22  3103.87
  23  1492.449
  24  1440.714
  25  1688.817
  26  2404.096
  27  4096.527
  28  5331.104
  29  6161.516
  30  4588.707
  31  3695.103
  32  2698.99
  33  2351.214
  34  2688.766
  35  3025.597
  36  4177.963
  37  4539.185
  38  3840.809
  39  1951.69
  40  1373.774
  41  1183.308
  42  1755.865
  43  3167.578
  44  4970.935
  45  5747.95
  46  4915.01
  47  4058.88
  48  2652.555
  49  2557.102
  50  2199.04
  51  2361.325
  52  3640.512
  53  4016.395
  54  4144.78
  55  2610.996
  56  1969.367
  57  1754.861
  58  1784.06
  59  2856.403
  60  3858.964
  61  5403.608
  62  5994.603
  63  4847.787
  64  3801.632
  65  2957.355
  66  2943.274
  67  2583.796
  68  2430.476
  69  3868.829
  70  4201.595
  71  2904.713
  72  2003.69
  73  2422.252
  74  2182.329
  75  2503.116
  76  3947.817
  77  5359.167
  78  6077.711
  79  4898.013
  80  4350.091
  81  3326.135
  82  3112.886
  83  2518.935
  84  2156.743
  85  2945.24
  86  3891.445
  87  3926.098
  88  2389.604
  89  1995.311
  90  1655.53
  91  1889.314
  92  2445.026
  93  3925.053
  94  5927.042
  95  6024.404
  96  5533.768
  97  4115.42
  98  3505.332
  99  3224.593
 100  2633.123
 101  2740.751
 102  3905.636
 103  4851.771
 104  3530.774
 105  2409.312
 106  1335.44
 107  1747.356
 108  2063
 109  3234.726
 110  5200.057
 111  5811.078
 112  5790.162
 113  3742.099
 114  2982.312
 115  2554.535
 116  2478.637
 117  2672.157
 118  2952.974
 119  4816.227
 120  4288.583
 121  3242.062
 122  1849.623
 123  1583.362
 124  1664.033
 125  2337.46
 126  4084.23
 127  5390.166
 128  6132.6
 129  4875.943
 130  4080.707
 131  2969.53
 132  2241.797
 133  2527.935
 134  2725.338
 135  4046.926
 136  4405.531
 137  3890.81
 138  2397.625
 139  2115.51
 140  2169.812
 141  1835.388
 142  3411.07
 143  4475.645
 144  5299.791
 145  5137.587
 146  4315.639
 147  3608.979
 148  2964.244
 149  2737.849
 150  2574.459
 151  3331.161
 152  4451.537
 153  4217.729
 154  3194.302
 155  2796.697
 156  2345.283
 157  1870.117
 158  2298.66
 159  3684.783
 160  5187.566
 161  6063.443
 162  5142.636
 163  4447.419
 164  3754.993
 165  3324.023
 166  2952.348
 167  2543.042
 168  3474.336
 169  4273.935
 170  3464.098
 171  2005.306
 172  2105.949
 173  1845.607
 174  1837.344
 175  3228.605
 176  4938.94
 177  5937.596
 178  5194.319
 179  4505.159
 180  3467.933
 181  3097
 182  2868.671
 183  2240.001
 184  2816.302
 185  3954.87
 186  4295.115
 187  2705.31
 188  1896.982
 189  1543.589
 190  2058.216
 191  2516.135
 192  3675.001
 193  6124.535
 194  5763.155
 195  4999.177
 196  3428.612
 197  2734.054
 198  2947.861
 199  2547.123
 200  2988.191
 201  3510.089
 202  4795.656
 203  3587.236
 204  2690.867
 205  1797.512
 206  1697.776
 207  1986.191
 208  2840.814
 209  4932.086
 210  6033.153
 211  6060.511
 212  4630.809
 213  3245.297
 214  2268.642
 215  2159.376
 216  2201.447
 217  2987.268
 218  4250.227
 219  3614.334
 220  2911.69
 221  2292.64
 222  2449.396
 223  1709.142
 224  2055.57
 225  3824.037
 226  5429.775
 227  6072.17
 228  5411.368
 229  4500.971
 230  3050.008
 231  2709.621
 232  2192.076
 233  2224.547
 234  3795.312
 235  4349.773
 236  3839.936
 237  2795.719
 238  2102.943
 239  2080.855
 240  2008.821
 241  2492.677
 242  3968.665
 243  5179.235
 244  5055.96
 245  3910.268
 246  3542.237
 247  2878.995
 248  2651.595
 249  2099.017
 250  2731.068
 251  3702.839
 252  3855.619
 253  3012.425
 254  1995.28
 255  2199.306
 256  1820.19
 257  2182.018
 258  4125.897
 259  5498.483
 260  6449.463
 261  4764.421
 262  3626.507
 263  2978.346
 264  2854.721
 265  2544.383
 266  2795.604
 267  4058.455
 268  3905.141
 269  3969.625
 270  2416.152
 271  2007.546
 272  1602.867
 273  2076.333
 274  3513.345
 275  5164.365
 276  6515.879
 277  5521.683
 278  4573.782
 279  3167.446
 280  3133.928
 281  3097.235
 282  2592.398
 283  3093.519
 284  4036.947
 285  4650.611
 286  3103.651
 287  2346.394
 288  1215.934
 289  1606.933
 290  2195.683
 291  3766.499
 292  5916.235
 293  5971.2
 294  5366.991
 295  4598.584
 296  3976.803
 297  3638.986
 298  4006.969
 299  4563.521
 300  5841.037
 301  7142
 302  6379.295
 303  5376.566
 304  3514.194
 305  3046.73
 306  2936.882
 307  3092.949
 308  4635.548
 309  5764.706
 310  6155.89
 311  5380.752
 312  3814.838
 313  3028.846
 314  2664.276
 315  2459.913
 316  2505.243
 317  3864.214
 318  4341.458
 319  3500.587
 320  2606.675
 321  2008.924
 322  2234.671
 323  2254.21
 324  3586.766
 325  5324.432
 326  6221.856
 327  5654.943
 328  3947.654
 329  3303.148
 330  2654.587
 331  2225.438
 332  2277.456
 333  3332.288
 334  4678.18
 335  4034.874
 336  2582.531
 337  1667.973
 338  2034.215
 339  2244.966
 340  3224.493
 341  5075.827
 342  6027.276
 343  6390.344
 344  4588.562
 345  3752.917
 346  2864.626
 347  2830.214
 348  2367.455
 349  2796.375
 350  4257.159
 351  3908.165
 352  2931.683
 353  1692.299
 354  1979.158
 355  1826.537
 356  2352.088
 357  4032.89
 358  5072.989
 359  5979.631
 360  5136.779
 361  4245.313
 362  2849.523
 363  2608.246
 364  1949.601
 365  2003.52
 366  3563.87
 367  3915.34
 368  3701.351
 369  2142.625
 370  1703.337
 371  1274.376
 372  1614.216
 373  2743.904
 374  4254.778
 375  6215.675
 376  5590.612
 377  4838.839
 378  3562.695
 379  3204.784
 380  2879.56
 381  2510.821
 382  2957.074
 383  3625.429
 384  4222.814
 385  2837.301
 386  2381.742
 387  1750.287
 388  1508.456
 389  1986.316
 390  3163.301
 391  5381.801
 392  5479.503
 393  5489.021
 394  4166.881
 395  3127.318
 396  2588.033
 397  1834.025
 398  2349.452
 399  2990.028
 400  4467.346
 401  3489.423
 402  2627.891
 403  2112.38
 404  2008.331
 405  2205.622
 406  3120.283
 407  4948.275
 408  5699.858
 409  5387.236
 410  4699.246
 411  3420.65
 412  2596.59
 413  2539.545
 414  2108.016
 415  2716.194
 416  3837.823
 417  4171.294
 418  3339.781
 419  2354.064
 420  1782.098
 421  1986.584
 422  2139.396
 423  3619.031
 424  5183.365
 425  5667.059
 426  5624.8
 427  3705.61
 428  3061.182
 429  3267.954
 430  3042.302
 431  2700.655
 432  3295.723
 433  4374.037
 434  3873.477
 435  2830.81
 436  1429.46
 437  1592.918
 438  1869.449
 439  2835.819
 440  4751.733
 441  5312.799
 442  5950.83
 443  4255.163
 444  3520.717
 445  2956.528
 446  2941.101
 447  2784.539
 448  2665.7
 449  4427.242
 450  4591.75
 451  3731.444
 452  1939.188
 453  1917.104
 454  1582.828
 455  2025.975
 456  3904.595
 457  5025.844
 458  6151.181
 459  4990.625
 460  4364.983
 461  2958.036
 462  2512.242
 463  2387.013
 464  2080.739
 465  3388.02
 466  4059.49
 467  4463.202
 468  2661.125
 469  2192.656
 470  1974.658
 471  1609.928
 472  2426.715
 473  3705.557
 474  5397.92
 475  5742.799
 476  4918.898
 477  3508.826
 478  2925.055
 479  2341.635
 480  1938.233
 481  2573.193
 482  3818.716
 483  4287.752
 484  3105.787
 485  2452.354
 486  1861.118
 487  1813.861
 488  2329.465
 489  3274.795
 490  4838.002
 491  5477.835
 492  4972.7
 493  4532.646
 494  3238.652
 495  3082.735
 496  2566.384
 497  2182.389
 498  3062.07
 499  4125.328
 500  3988.703
 501  2274.294
 502  1697.988
 503  1538.765
 504  1858.174
 505  2652.12
 506  3804.772
 507  5583.911
 508  5153.134
 509  4247.648
 510  3107.911
 511  3064.457
