# Input file       =  1208498346.111598_cleaned.dat
# Candidate        =  PSR_0332+5434
# Telescope        =  AR
# Epoch_topo       =  58231.249596199050
# Epoch_bary       =  N/A
# T_sample         =  0.002
# Data Folded      =  7208960
# Data Avg         =  0.268377500793642
# Data StdDev      =  6.21577315261835 
# Profile Bins     =  512
# Profile Avg      =  3778.80907003358 
# Profile StdDev   =  737.558519209249 
# Reduced chi-sqr  =  1.235
# Prob(Noise)      <  0.000213   (~3.5 sigma)
# P_topo (ms)      =  714.553473920977  +/- 6.86e-05
# P'_topo (s/s)    =  -0                +/- 3.68e-11
# P''_topo (s/s^2) =  0                 +/- 1.66e-14
# P_bary (ms)      =  N/A
# P'_bary (s/s)    =  N/A
# P''_bary (s/s^2) =  N/A
# P_orb (s)        =  N/A
# asin(i)/c (s)    =  N/A
# eccentricity     =  N/A
# w (rad)          =  N/A
# T_peri           =  N/A
######################################################
   0  4336.022
   1  3722.126
   2  3479.982
   3  3547.235
   4  3647.934
   5  3684.799
   6  3755.278
   7  3285.157
   8  3191.645
   9  3087.924
  10  2593.283
  11  2243.263
  12  3171.767
  13  3294.01
  14  3662.817
  15  4475.49
  16  4938.768
  17  4166.992
  18  3184.664
  19  3142.629
  20  3169.462
  21  3649.118
  22  3237.061
  23  3687.21
  24  3226.062
  25  3014.323
  26  3618.646
  27  3028.948
  28  4017.162
  29  3909.729
  30  3840.838
  31  3439.548
  32  3409.557
  33  4337.938
  34  4067.21
  35  3973.856
  36  3916.317
  37  3987.753
  38  3950.136
  39  3520.6
  40  3466.409
  41  2921.082
  42  3431.645
  43  3358.756
  44  3492.234
  45  3729.149
  46  3861.829
  47  3872.856
  48  3975.632
  49  4196.453
  50  4298.752
  51  3967.344
  52  3729.64
  53  3952.365
  54  3769.416
  55  3950.863
  56  3609.29
  57  3594.56
  58  3847.787
  59  3386.744
  60  2687.714
  61  2913.559
  62  3635.602
  63  3552.55
  64  3459.525
  65  4046.857
  66  4465.47
  67  3855.682
  68  3458.543
  69  3565.392
  70  3702.27
  71  3992.197
  72  3942.772
  73  4281.962
  74  3982.64
  75  3462.646
  76  2871.962
  77  2617.243
  78  2670.055
  79  3319.711
  80  3770.44
  81  4241.878
  82  5004.297
  83  4427.851
  84  3548.769
  85  3140.32
  86  3363.234
  87  3624.588
  88  3717.048
  89  3249.238
  90  3560.869
  91  3730.568
  92  3284.63
  93  2986.813
  94  3041.708
  95  3813.433
  96  3893.002
  97  3852.974
  98  3950.768
  99  4782.393
 100  4710.262
 101  3932.418
 102  3422.038
 103  3730.458
 104  4135.093
 105  3831.742
 106  3821.817
 107  4005.251
 108  3606.387
 109  2703.154
 110  2470.786
 111  3450.036
 112  3565.658
 113  3979.835
 114  4134.422
 115  4049.106
 116  4158.447
 117  3581.353
 118  3739.948
 119  4038.49
 120  4437.271
 121  4396.412
 122  3617.178
 123  3579.357
 124  3448.415
 125  3128.329
 126  3353.949
 127  3868.81
 128  3756.275
 129  4525.62
 130  4528.26
 131  4110.58
 132  3937.912
 133  4698.205
 134  4925.371
 135  4554.637
 136  4370.256
 137  4655.946
 138  4258.633
 139  3428.276
 140  2819.11
 141  3441.678
 142  3295.475
 143  3695.925
 144  4370.254
 145  4465.781
 146  4002.392
 147  4131.711
 148  4500.383
 149  4232.492
 150  4212.999
 151  4030.953
 152  3904.387
 153  4195.916
 154  3884.378
 155  3707.151
 156  3668.262
 157  3873.589
 158  3812.023
 159  2962.847
 160  3102.626
 161  3348.518
 162  3778.992
 163  4093.911
 164  4385.055
 165  4955.099
 166  4132.146
 167  4205.099
 168  3657.2
 169  3735.088
 170  3199.545
 171  2625.417
 172  2735.192
 173  3590.337
 174  4156.64
 175  3630.434
 176  3036.3
 177  2907.933
 178  3389.905
 179  3627.112
 180  3423.012
 181  4159.733
 182  4416.631
 183  4645.444
 184  4135.983
 185  3660.737
 186  3159.214
 187  2759.323
 188  3211.448
 189  3012.269
 190  3595.72
 191  3903.12
 192  3939.331
 193  3329.557
 194  3309.599
 195  3347.119
 196  3283.36
 197  3649.821
 198  4583.797
 199  5208.358
 200  4717.263
 201  3765.344
 202  3170.471
 203  3300.021
 204  3428.916
 205  3829.461
 206  3728.268
 207  4019.13
 208  3447.11
 209  3427.95
 210  3669.714
 211  3766.136
 212  3859.206
 213  4109.403
 214  4486.394
 215  5346.255
 216  5202.648
 217  4484.838
 218  4071.561
 219  3978.384
 220  3811.38
 221  3609.763
 222  4225.409
 223  3799.885
 224  3417.961
 225  2463.721
 226  2899.547
 227  3501.56
 228  4017.64
 229  4394.847
 230  4798.648
 231  4696.875
 232  4477.03
 233  3704.362
 234  3342.451
 235  3666.32
 236  3691.616
 237  4345.997
 238  5118.396
 239  4701.587
 240  3608.86
 241  2785.935
 242  2132.524
 243  3179.818
 244  3774.646
 245  4457.433
 246  4476.39
 247  4710.209
 248  4659.357
 249  3863.882
 250  3594.233
 251  3449.973
 252  3483.08
 253  3403.679
 254  3883.174
 255  3688.997
 256  4136.61
 257  4431.569
 258  4163.669
 259  3920.08
 260  3445.532
 261  3251.833
 262  3844.054
 263  5186.793
 264  6606.006
 265  6898.526
 266  6729.639
 267  5169.681
 268  4244.715
 269  3293.914
 270  3771.75
 271  3976.632
 272  4017.862
 273  4397.623
 274  3536.064
 275  3373.298
 276  3122.61
 277  3734.549
 278  4007.512
 279  4028.601
 280  4351.469
 281  4630.31
 282  4536.227
 283  3952.34
 284  3551.086
 285  3503.798
 286  3695.127
 287  3745.209
 288  4011.14
 289  3943.654
 290  3333.971
 291  2823.223
 292  2955.162
 293  4111.119
 294  3978.796
 295  3844.05
 296  4182.739
 297  4532.156
 298  4596.103
 299  4309.097
 300  4238.399
 301  4627.069
 302  4071.693
 303  3884.035
 304  3695.123
 305  3659.219
 306  3457.587
 307  3357.446
 308  3656.167
 309  3931.527
 310  3956.021
 311  3956.757
 312  3698.083
 313  4056.119
 314  3950.57
 315  4195.034
 316  3664.086
 317  3339.523
 318  3823.567
 319  3286.176
 320  3470.338
 321  3307.297
 322  3312.445
 323  3563.635
 324  3202.525
 325  2861.575
 326  3183.423
 327  3702.061
 328  3822.899
 329  4022.178
 330  4056.516
 331  3969.6
 332  3659.717
 333  3495.097
 334  3727.439
 335  3606.251
 336  3347.173
 337  2579.159
 338  3034.198
 339  3080.275
 340  3001.079
 341  2672.018
 342  2810.125
 343  2916.737
 344  2879.42
 345  3496.737
 346  3848.358
 347  4482.424
 348  3672.018
 349  3498.325
 350  3440.38
 351  3923.77
 352  3239.966
 353  3422.082
 354  3238.729
 355  3349.677
 356  3525.835
 357  3342.515
 358  3960.946
 359  3183.206
 360  3680.377
 361  3941.087
 362  4219.582
 363  4608.639
 364  4084.961
 365  3916.08
 366  3781.525
 367  4524.478
 368  4333.87
 369  3699.057
 370  3298.216
 371  3303.722
 372  3804.036
 373  3385.935
 374  3591.998
 375  3299.441
 376  3676.79
 377  3501.805
 378  3763.135
 379  4237.696
 380  4836.521
 381  4873.024
 382  3872.282
 383  3937.838
 384  3972.935
 385  4015.982
 386  4271.204
 387  3733.207
 388  3674.66
 389  3555.701
 390  3272.701
 391  3332.981
 392  4502.562
 393  4784.644
 394  4633.232
 395  4425.4
 396  4310.269
 397  4349.443
 398  3709.918
 399  3753.754
 400  3677.95
 401  3561.27
 402  3503.419
 403  3334.76
 404  3487.017
 405  3789.248
 406  3414.194
 407  3281.129
 408  3373.403
 409  3866.23
 410  4086.149
 411  3618.902
 412  4010.127
 413  3922.107
 414  3664.519
 415  3347.252
 416  3736.148
 417  4051.323
 418  3137.096
 419  2648.034
 420  2746.078
 421  3365.496
 422  3656.739
 423  3664.29
 424  3630.833
 425  3941.361
 426  3552.989
 427  3241.85
 428  3141.976
 429  3865.045
 430  4896.956
 431  3927.677
 432  4023.779
 433  3752.228
 434  3317.609
 435  3072.794
 436  2900.882
 437  2853.335
 438  3634.077
 439  4160.287
 440  3425.2
 441  3495.199
 442  3265.448
 443  3367.296
 444  4042.029
 445  4234.109
 446  4456.968
 447  4278.982
 448  3991.788
 449  3646.797
 450  4354.43
 451  4651.385
 452  4011.518
 453  4044.571
 454  3950.945
 455  4183.369
 456  3593.379
 457  4083.996
 458  4107.948
 459  4613.829
 460  4255.711
 461  4175.162
 462  4819.405
 463  4620.798
 464  4527.465
 465  4000.524
 466  4578.209
 467  4239.975
 468  3731.986
 469  3645.042
 470  3019.035
 471  2933.576
 472  2520.121
 473  2532.322
 474  3375.942
 475  4115.325
 476  4096.525
 477  4023.123
 478  4187.022
 479  4186.679
 480  4287.354
 481  3846.217
 482  3616.153
 483  4039.658
 484  4613.009
 485  4287.641
 486  3707.486
 487  3262.561
 488  3048.88
 489  2791.457
 490  2683.85
 491  3142.739
 492  4295.174
 493  4584.161
 494  4649.342
 495  4612.566
 496  4428.616
 497  3553.349
 498  2834.726
 499  2998.03
 500  3791.365
 501  4333.924
 502  4406.103
 503  3910.794
 504  3394.738
 505  2393.146
 506  2355.003
 507  2293.928
 508  3381.891
 509  4050.822
 510  4589.4
 511  4546.416
