# Input file       =  1208426804.106366-PSRB0329-2ms-sampling-dd.dat
# Candidate        =  PSR_0332+5434
# Telescope        =  AR
# Epoch_topo       =  58230.421563731084
# Epoch_bary       =  N/A
# T_sample         =  0.002
# Data Folded      =  7340032
# Data Avg         =  -4.9000956654273e-10
# Data StdDev      =  6.16319443816585 
# Profile Bins     =  512
# Profile Avg      =  -3.23332896655265
# Profile StdDev   =  737.937983861995 
# Reduced chi-sqr  =  0.606
# Prob(Noise)      <  1   (~0.0 sigma)
# P_topo (ms)      =  714.554195587571  +/- 0.00103
# P'_topo (s/s)    =  -0                +/- 5.42e-10
# P''_topo (s/s^2) =  0                 +/- 2.39e-13
# P_bary (ms)      =  N/A
# P'_bary (s/s)    =  N/A
# P''_bary (s/s^2) =  N/A
# P_orb (s)        =  N/A
# asin(i)/c (s)    =  N/A
# eccentricity     =  N/A
# w (rad)          =  N/A
# T_peri           =  N/A
######################################################
   0  -460.6815
   1  -135.4749
   2  -208.7224
   3  3.324576
   4  -57.4184
   5  92.21065
   6  -143.3705
   7  -2.612937
   8  3.604182
   9  54.88891
  10  151.3214
  11  345.1895
  12  -43.22535
  13  -2.427398
  14  -262.5026
  15  -666.704
  16  -951.4524
  17  -700.0515
  18  -438.971
  19  -542.8802
  20  -205.4236
  21  -290.8541
  22  -185.0128
  23  -239.6122
  24  -800.0461
  25  -686.9979
  26  -803.6271
  27  -237.6365
  28  -6.026404
  29  -11.27885
  30  -423.7303
  31  -302.5102
  32  180.3684
  33  244.4406
  34  -142.1267
  35  -181.5033
  36  18.63832
  37  73.34908
  38  59.39347
  39  359.9084
  40  201.9647
  41  48.87201
  42  -244.835
  43  16.23703
  44  38.02749
  45  428.8422
  46  543.2944
  47  379.0228
  48  233.8598
  49  381.3632
  50  273.6295
  51  414.0272
  52  601.9343
  53  666.7953
  54  771.1685
  55  782.4476
  56  649.4365
  57  582.1989
  58  488.9993
  59  816.0012
  60  653.3019
  61  457.7668
  62  177.6121
  63  202.3405
  64  349.4936
  65  640.8203
  66  512.878
  67  592.7241
  68  574.0623
  69  550.6231
  70  455.5357
  71  469.0962
  72  438.2246
  73  278.3631
  74  308.9615
  75  319.2566
  76  276.3034
  77  410.0492
  78  416.5102
  79  457.6801
  80  420.6995
  81  301.0891
  82  -3.786298
  83  173.9267
  84  434.5286
  85  541.442
  86  216.5396
  87  121.9644
  88  343.6181
  89  231.587
  90  -7.61657
  91  -24.51969
  92  -57.09142
  93  108.8601
  94  298.1121
  95  -18.2959
  96  -138.0793
  97  20.65376
  98  279.11
  99  370.261
 100  304.471
 101  76.028
 102  288.97
 103  405.6269
 104  686.8035
 105  230.4799
 106  280.4082
 107  349.6611
 108  157.2442
 109  353.4736
 110  521.6312
 111  512.4769
 112  744.0947
 113  521.9078
 114  470.629
 115  669.0962
 116  1073.138
 117  1011.947
 118  899.5522
 119  872.9128
 120  752.0515
 121  664.9748
 122  576.5767
 123  717.8416
 124  649.1941
 125  213.5627
 126  134.3463
 127  510.2
 128  555.6813
 129  496.2263
 130  316.0786
 131  158.2381
 132  -92.58633
 133  226.1791
 134  219.5755
 135  385.6364
 136  159.0382
 137  299.2452
 138  668.3723
 139  284.9578
 140  226.1511
 141  147.1507
 142  266.6724
 143  348.3179
 144  253.584
 145  1.691752
 146  -4.194962
 147  298.466
 148  314.5795
 149  224.7321
 150  96.89149
 151  -336.9992
 152  -415.9178
 153  -14.12601
 154  403.5399
 155  162.5323
 156  -367.1793
 157  -184.1494
 158  35.30613
 159  62.89752
 160  -0.7522177
 161  66.289
 162  434.9074
 163  476.1039
 164  541.0932
 165  672.3962
 166  605.3541
 167  565.4012
 168  425.1159
 169  571.272
 170  743.9248
 171  327.4898
 172  251.2696
 173  417.4028
 174  465.4269
 175  288.2024
 176  394.9781
 177  440.2686
 178  390.8924
 179  -157.781
 180  -265.889
 181  70.75245
 182  148.1338
 183  -121.6856
 184  -242.294
 185  -358.9977
 186  -232.1249
 187  -429.7978
 188  -186.8591
 189  -120.377
 190  -369.5657
 191  -382.7407
 192  -423.1693
 193  -206.5614
 194  6.714679
 195  356.7511
 196  112.7983
 197  162.0067
 198  257.2925
 199  448.2672
 200  227.2045
 201  39.0357
 202  67.23421
 203  5.71422
 204  -159.5246
 205  -70.45679
 206  234.7876
 207  167.764
 208  -173.1045
 209  98.4407
 210  355.5962
 211  312.7726
 212  239.3338
 213  58.94243
 214  202.5914
 215  322.4025
 216  30.18612
 217  -120.7383
 218  -92.93702
 219  -179.9855
 220  -216.4086
 221  183.5121
 222  -282.2455
 223  -369.8118
 224  -293.173
 225  -262.5374
 226  -201.7037
 227  -310.8367
 228  -344.2225
 229  -307.7691
 230  -89.71954
 231  -118.4457
 232  -235.8223
 233  -265.3549
 234  -232.5397
 235  -310.2617
 236  -308.261
 237  -421.0372
 238  -251.1921
 239  -602.304
 240  -162.3429
 241  -19.85958
 242  176.735
 243  178.6004
 244  -105.0929
 245  -249.1868
 246  -63.75233
 247  312.8813
 248  135.504
 249  -188.9812
 250  -448.4093
 251  -208.0836
 252  186.3136
 253  -26.94457
 254  -402.8953
 255  -214.9937
 256  -199.9693
 257  -254.3257
 258  -97.11975
 259  -317.6119
 260  -493.4654
 261  -355.8542
 262  -286.0106
 263  -370.0107
 264  -507.2623
 265  -558.3747
 266  -327.7544
 267  -210.4986
 268  -80.455
 269  20.84237
 270  -122.3881
 271  -528.1206
 272  -663.6168
 273  -525.5878
 274  -170.8594
 275  -332.7213
 276  -200.6918
 277  -196.0398
 278  -481.2745
 279  -982.53
 280  -760.5715
 281  -493.8089
 282  -596.217
 283  -355.9377
 284  -448.4037
 285  -308.2555
 286  -575.7386
 287  -360.2861
 288  -217.4281
 289  -301.691
 290  -341.7428
 291  -410.7163
 292  -0.4595833
 293  71.90223
 294  -161.2929
 295  -115.8813
 296  -26.78891
 297  -82.63171
 298  -489.2924
 299  -757.0673
 300  -346.4319
 301  -111.133
 302  -104.7711
 303  -197.2284
 304  -189.6075
 305  -6.165707
 306  -122.3952
 307  105.5282
 308  -130.5469
 309  -118.5888
 310  35.88554
 311  -277.9325
 312  -650.4418
 313  -503.514
 314  -84.00665
 315  -306.0267
 316  -306.3721
 317  -118.1262
 318  -433.7428
 319  -321.9471
 320  -875.4716
 321  -331.9565
 322  102.4405
 323  -108.9276
 324  -376.799
 325  -77.57121
 326  -284.1679
 327  -452.2809
 328  -477.618
 329  -343.9188
 330  -175.2627
 331  -235.844
 332  -122.9246
 333  -259.8407
 334  -366.4396
 335  -108.9572
 336  -4.352009
 337  22.3624
 338  211.9838
 339  75.29919
 340  -250.6761
 341  -105.4615
 342  -255.6593
 343  -128.0579
 344  122.9954
 345  278.1509
 346  628.6601
 347  713.6378
 348  466.1398
 349  750.0217
 350  892.59
 351  1391.989
 352  1667.811
 353  2237.671
 354  2529.877
 355  1812.368
 356  1126.376
 357  251.9272
 358  -201.3557
 359  -78.75659
 360  -104.9177
 361  -303.6765
 362  -291.0778
 363  -437.3293
 364  -39.96371
 365  344.571
 366  200.4591
 367  8.19061
 368  245.0129
 369  -31.51765
 370  59.40697
 371  112.1316
 372  -84.74345
 373  -354.4473
 374  -139.5419
 375  -26.50215
 376  -178.2835
 377  -365.5149
 378  -292.9852
 379  -220.5952
 380  66.58025
 381  540.0749
 382  275.3625
 383  118.3245
 384  -36.13573
 385  -76.87488
 386  -58.74342
 387  -268.3985
 388  -371.5265
 389  -410.7919
 390  -462.7719
 391  -599.1507
 392  -244.0885
 393  -158.1324
 394  -473.4659
 395  -530.0201
 396  -717.41
 397  -548.9715
 398  -321.9138
 399  -204.8077
 400  -513.776
 401  -588.8098
 402  -741.1227
 403  -674.2694
 404  -688.0734
 405  -519.1287
 406  -125.187
 407  -68.61461
 408  34.31909
 409  -399.4392
 410  -351.4906
 411  -235.7822
 412  47.74644
 413  638.7878
 414  525.2858
 415  440.2016
 416  196.8227
 417  96.89467
 418  467.8803
 419  27.9583
 420  109.5995
 421  226.7114
 422  179.9236
 423  -161.6315
 424  -162.3673
 425  137.9018
 426  308.8113
 427  411.2282
 428  184.7326
 429  265.4074
 430  175.3295
 431  309.0769
 432  198.0053
 433  227.2963
 434  141.969
 435  68.63942
 436  163.3261
 437  -146.2972
 438  -427.5679
 439  -534.564
 440  -102.8067
 441  -219.8729
 442  -335.7568
 443  -527.7838
 444  -343.8916
 445  -316.7679
 446  -573.9193
 447  -267.2784
 448  -154.075
 449  -373.8913
 450  -417.5187
 451  -468.2054
 452  -100.6653
 453  -369.0196
 454  -212.9002
 455  117.6322
 456  -198.3607
 457  -321.1536
 458  -481.1546
 459  -462.8177
 460  -633.8065
 461  -858.2607
 462  -893.7772
 463  -785.1279
 464  -531.8629
 465  -221.0186
 466  -421.4772
 467  -532.8817
 468  -300.6719
 469  -355.0051
 470  -377.8103
 471  -245.03
 472  106.6932
 473  218.853
 474  -33.85785
 475  -34.59912
 476  -140.786
 477  -247.7908
 478  -160.1644
 479  -390.4
 480  -232.3832
 481  -205.2491
 482  -284.198
 483  -480.6064
 484  -540.862
 485  -312.6624
 486  -288.7885
 487  -279.0412
 488  -146.6404
 489  -197.9885
 490  -161.9156
 491  -143.7961
 492  -487.5879
 493  -644.0364
 494  -457.2877
 495  -61.91615
 496  102.9226
 497  165.1109
 498  -46.327
 499  -126.2334
 500  -56.14328
 501  124.34
 502  243.062
 503  105.318
 504  -50.79412
 505  -105.7148
 506  -55.50642
 507  -127.6727
 508  -293.9423
 509  -294.1813
 510  -246.1612
 511  -353.632
