# Input file       =  1208958230.109069_cleaned.dat
# Candidate        =  PSR_0332+5434
# Telescope        =  AR
# Epoch_topo       =  58236.572327651265
# Epoch_bary       =  N/A
# T_sample         =  0.002
# Data Folded      =  7340032
# Data Avg         =  0.211067483884109
# Data StdDev      =  5.30035335816338 
# Profile Bins     =  512
# Profile Avg      =  3025.84261460994 
# Profile StdDev   =  634.62740144269  
# Reduced chi-sqr  =  1.286
# Prob(Noise)      <  1.26e-05   (~4.2 sigma)
# P_topo (ms)      =  714.549225688157  +/- 0.000344
# P'_topo (s/s)    =  -0                +/- 1.82e-10
# P''_topo (s/s^2) =  0                 +/- 8.02e-14
# P_bary (ms)      =  N/A
# P'_bary (s/s)    =  N/A
# P''_bary (s/s^2) =  N/A
# P_orb (s)        =  N/A
# asin(i)/c (s)    =  N/A
# eccentricity     =  N/A
# w (rad)          =  N/A
# T_peri           =  N/A
######################################################
   0  2866.561
   1  3197.533
   2  3287.088
   3  3262.376
   4  3095.828
   5  3303.527
   6  3649.835
   7  3838.056
   8  3737.907
   9  3729.409
  10  3612.34
  11  3562.377
  12  3314.495
  13  3517.913
  14  3237.245
  15  2920.293
  16  3369.789
  17  3458.532
  18  3465.247
  19  3490.795
  20  3396.44
  21  3266.453
  22  3458.07
  23  3362.435
  24  2991.694
  25  2942.951
  26  2956.213
  27  2899.368
  28  3417.077
  29  3338.42
  30  3045.73
  31  2915.639
  32  2986.726
  33  3051.881
  34  3103.727
  35  2805.042
  36  3116.691
  37  3184.729
  38  3398.603
  39  3448.12
  40  3471.464
  41  3288.061
  42  2877.323
  43  2769.2
  44  3038.381
  45  3094.694
  46  3147.568
  47  2837.85
  48  2302.274
  49  2375.335
  50  2342.398
  51  2717.871
  52  2743.209
  53  2257.131
  54  2353.693
  55  2357.598
  56  2065.448
  57  2008.37
  58  2112.236
  59  2071.35
  60  2378.107
  61  2449.875
  62  2280.562
  63  2050.277
  64  2006.683
  65  2193.501
  66  2009.678
  67  2218.799
  68  2283.812
  69  2321.562
  70  2563.208
  71  2776.22
  72  2411.947
  73  2396.064
  74  2635.59
  75  2920.879
  76  3062.117
  77  2963.468
  78  3136.409
  79  3249.142
  80  3120.783
  81  3199.329
  82  3457.436
  83  3187.993
  84  3188.878
  85  3581.323
  86  3301.79
  87  3313.598
  88  3989.369
  89  3793.575
  90  3440.18
  91  3695.877
  92  4041.092
  93  4032.212
  94  3406.607
  95  3537.19
  96  3565.806
  97  3490.548
  98  3395.607
  99  3003.567
 100  2867.336
 101  3323.487
 102  3671.567
 103  3534.369
 104  2812.983
 105  2977.333
 106  3085.599
 107  2589.871
 108  2898.035
 109  2871.841
 110  2751.863
 111  3057.826
 112  3142.454
 113  3242.203
 114  2911.827
 115  2744.874
 116  2724.577
 117  2577.715
 118  2502.595
 119  2436.245
 120  2394.173
 121  2108.559
 122  1842.285
 123  2039.258
 124  2103.143
 125  2185.432
 126  2297.076
 127  2416.535
 128  2041.568
 129  2271.774
 130  2484.167
 131  2088.245
 132  2109.256
 133  2423.862
 134  2410.073
 135  2167.111
 136  1953.274
 137  2288.135
 138  2318.551
 139  2410.402
 140  2567.753
 141  2277.067
 142  2133.936
 143  2360.784
 144  2704.332
 145  2977.3
 146  2803.473
 147  2772.949
 148  2781.009
 149  2779.667
 150  2799.786
 151  2986.061
 152  2993.462
 153  2970.256
 154  2835.713
 155  3010.109
 156  2717.016
 157  2884.601
 158  3167.071
 159  3090.011
 160  3301.459
 161  3467.744
 162  3477.178
 163  3462.979
 164  3432.969
 165  3318.606
 166  3126.193
 167  2852.92
 168  3061.813
 169  2984.103
 170  3127.293
 171  3414.138
 172  3194.32
 173  2915.605
 174  2866.182
 175  3116.066
 176  3112.21
 177  3321.436
 178  3011.354
 179  3213.371
 180  3202.859
 181  3307.074
 182  2973.587
 183  2750.815
 184  2837.723
 185  2970.338
 186  3331.21
 187  3321.717
 188  3230.042
 189  2847.203
 190  2369.433
 191  2166.726
 192  2493.669
 193  2925.551
 194  2656.153
 195  2677.248
 196  3147.735
 197  2934.112
 198  2875.99
 199  2660.675
 200  2541.531
 201  2774.235
 202  3013.708
 203  3550.305
 204  4512.429
 205  5157.115
 206  4957.177
 207  4525.335
 208  4189.139
 209  3933.533
 210  3399.898
 211  3306.089
 212  3332.326
 213  3399.529
 214  3558.405
 215  3269.56
 216  3411.482
 217  3230.729
 218  2818.736
 219  2910.283
 220  3099.436
 221  3348.921
 222  2884.148
 223  2813.63
 224  3135.839
 225  3380.347
 226  3791.3
 227  3626.462
 228  3512.053
 229  3767.738
 230  3568.58
 231  3539.165
 232  3452.1
 233  3395.715
 234  3431.524
 235  3921.01
 236  4062.48
 237  4116.706
 238  4189.162
 239  4176.223
 240  3908.47
 241  4136.837
 242  4109.852
 243  3507.419
 244  3750.464
 245  4072.774
 246  3779.056
 247  3411.575
 248  3349.591
 249  3571.096
 250  3572.839
 251  3380.483
 252  3174.188
 253  2937.659
 254  3521.098
 255  3575.111
 256  3748.323
 257  3605.988
 258  3679.504
 259  3810.627
 260  3930.235
 261  4077.695
 262  3947.304
 263  3369.167
 264  3258.473
 265  3209.144
 266  3472.829
 267  3269.727
 268  3213.257
 269  3377.479
 270  3608.599
 271  3335.247
 272  3137.775
 273  2868.245
 274  2950.74
 275  2874.381
 276  2853.928
 277  2598.191
 278  2376.622
 279  2524.41
 280  2678.839
 281  2696.497
 282  2571.412
 283  2846.564
 284  3070.605
 285  2683.91
 286  2439.126
 287  2998.66
 288  3179.503
 289  3428.609
 290  3574.319
 291  3610.93
 292  3614.508
 293  3645.26
 294  3705.321
 295  3792.583
 296  3851.659
 297  3775.626
 298  3671.826
 299  3663.339
 300  3459.684
 301  3527.96
 302  3517.025
 303  3752.223
 304  3805.504
 305  3407.073
 306  2868.377
 307  2787.823
 308  3257.581
 309  3649.403
 310  3481.701
 311  3484.462
 312  3534.695
 313  3478.709
 314  2994.611
 315  3045.563
 316  3199.621
 317  3148.127
 318  2913.156
 319  3079.783
 320  3010.656
 321  2822.676
 322  2290.805
 323  2647.765
 324  2724.069
 325  2688.644
 326  2606.04
 327  2731.581
 328  2727.361
 329  2662.549
 330  3034.252
 331  3006.262
 332  3276.097
 333  2988.972
 334  3283.249
 335  2857.67
 336  2696.864
 337  2871.773
 338  2853.173
 339  3208.714
 340  3231.026
 341  3129.756
 342  3265.19
 343  2964.424
 344  2792.567
 345  2620.188
 346  2561.922
 347  3050.267
 348  2968.943
 349  2681.975
 350  3023.492
 351  3081.91
 352  3175.859
 353  3156.69
 354  3048.812
 355  2757.867
 356  2959.285
 357  2937.109
 358  2998.827
 359  2805.857
 360  2633.053
 361  2767.477
 362  2845.186
 363  2880.982
 364  2613.781
 365  2612.395
 366  2539.247
 367  2567.077
 368  2655.975
 369  2523.612
 370  2476.607
 371  2728.345
 372  2907.613
 373  2745.349
 374  2843.065
 375  3091.121
 376  2683.131
 377  2738.586
 378  3017.354
 379  3112.403
 380  2904.674
 381  2642.48
 382  2555.094
 383  2608.655
 384  2908.127
 385  2787.492
 386  2788.664
 387  2661.062
 388  2123.479
 389  2194.694
 390  2382.429
 391  2692.097
 392  2505.464
 393  2681.423
 394  2787.18
 395  2790.603
 396  3124.287
 397  2754.699
 398  2638.258
 399  3101.615
 400  3113.082
 401  2328.646
 402  2398.195
 403  2624.288
 404  2929.65
 405  3083.422
 406  3161.545
 407  2492.024
 408  2938.055
 409  2942.266
 410  2681.277
 411  2621.668
 412  2612.366
 413  3003.302
 414  3068.272
 415  3090.416
 416  3106.225
 417  2652.493
 418  2897.423
 419  2669.96
 420  2567.388
 421  2926.438
 422  2872.528
 423  2702.519
 424  2673.802
 425  2600.66
 426  2800.451
 427  2751.041
 428  2964.414
 429  2754.045
 430  2490.936
 431  2320.418
 432  2331.802
 433  2361.521
 434  2453.518
 435  2099.706
 436  2554.848
 437  2488.8
 438  2451.38
 439  2875.782
 440  3091.614
 441  3160.31
 442  3133.586
 443  3334.709
 444  2997.12
 445  3355.933
 446  3666.927
 447  3978.209
 448  3759.917
 449  3634.615
 450  3789.904
 451  3852.449
 452  3830.373
 453  3783.498
 454  3706.794
 455  3886.769
 456  3883.494
 457  3905.573
 458  3821.902
 459  3700.793
 460  3536.642
 461  3634.229
 462  3633.702
 463  3631.537
 464  3585.125
 465  3569.665
 466  3283.284
 467  3215.05
 468  3351.778
 469  3429.645
 470  3455.012
 471  3718.415
 472  3548.975
 473  3682.338
 474  3950.037
 475  3752.758
 476  3454.476
 477  3184.484
 478  3123.518
 479  3202.025
 480  3203.887
 481  2798.282
 482  2494.513
 483  2486.948
 484  2342.6
 485  2213.548
 486  1971.247
 487  2063.288
 488  2494.848
 489  2621.978
 490  2305.217
 491  2060.687
 492  2280.064
 493  2130.976
 494  2143.437
 495  2380.471
 496  2280.154
 497  2311.719
 498  2161.949
 499  2121.415
 500  2284.938
 501  2542.401
 502  2105.4
 503  1842.471
 504  2495.252
 505  2869.804
 506  2754.251
 507  2793.789
 508  2880.687
 509  2944.105
 510  2989.756
 511  3186.037
