# Input file       =  1208756838.127308_cleaned.dat
# Candidate        =  PSR_0332+5434
# Telescope        =  AR
# Epoch_topo       =  58234.241401936437
# Epoch_bary       =  N/A
# T_sample         =  0.002
# Data Folded      =  7208960
# Data Avg         =  0.138963679636998
# Data StdDev      =  5.50248574593447 
# Profile Bins     =  256
# Profile Avg      =  3912.79293792436 
# Profile StdDev   =  923.368917962593 
# Reduced chi-sqr  =  0.620
# Prob(Noise)      <  1   (~0.0 sigma)
# P_topo (ms)      =  714.550912384282  +/- 0.000121
# P'_topo (s/s)    =  -0                +/- 6.52e-11
# P''_topo (s/s^2) =  0                 +/- 2.93e-14
# P_bary (ms)      =  N/A
# P'_bary (s/s)    =  N/A
# P''_bary (s/s^2) =  N/A
# P_orb (s)        =  N/A
# asin(i)/c (s)    =  N/A
# eccentricity     =  N/A
# w (rad)          =  N/A
# T_peri           =  N/A
######################################################
   0  3696.927
   1  3167.261
   2  4103.583
   3  3535.188
   4  3611.324
   5  3553.231
   6  3577.447
   7  3135.77
   8  3744.534
   9  4304.378
  10  3869.572
  11  3345.608
  12  4111.164
  13  4143.23
  14  3515.073
  15  3186.354
  16  3954.957
  17  3666.598
  18  4105.141
  19  4260.868
  20  3127.325
  21  3531.8
  22  3803.478
  23  3289.666
  24  4383.715
  25  4239.541
  26  3887.628
  27  3981.46
  28  4566.268
  29  4079.201
  30  3992.608
  31  3722.264
  32  4194.098
  33  3315.44
  34  3379.621
  35  4261.681
  36  3644.976
  37  3760.542
  38  3547.691
  39  3696.866
  40  3467.443
  41  3641.661
  42  3220.35
  43  3613.17
  44  4280.537
  45  4073.248
  46  4591.255
  47  3850.62
  48  3195.71
  49  3711.101
  50  4895.724
  51  4011.253
  52  3383.108
  53  3583.794
  54  4009.038
  55  4132.641
  56  3995.127
  57  4451.544
  58  3009.358
  59  3510.229
  60  4067.177
  61  4223.912
  62  3916.967
  63  3603.544
  64  3621.565
  65  2996.518
  66  4060.616
  67  3491.203
  68  3787.16
  69  4252.263
  70  4039.626
  71  3380.154
  72  3466.079
  73  3563.383
  74  3374.807
  75  3549.334
  76  4586.298
  77  4325.34
  78  3680.883
  79  3936.687
  80  3569.025
  81  3727.978
  82  4012.468
  83  3748.289
  84  3748.348
  85  3951.94
  86  3665.494
  87  5228.247
  88  3954.74
  89  3807.469
  90  3950.066
  91  3694.456
  92  4726.516
  93  3421.832
  94  4011.386
  95  4474.294
  96  3687.3
  97  3347.671
  98  4192.561
  99  4329.941
 100  3448.85
 101  3584.414
 102  3949.41
 103  3462.912
 104  4039.832
 105  4428.557
 106  3418.921
 107  3978.211
 108  3627.134
 109  4968.495
 110  2792.229
 111  3793.584
 112  4109.084
 113  4779.67
 114  4003.578
 115  4304.751
 116  3937.316
 117  3700.528
 118  3744.177
 119  4914.801
 120  4150.168
 121  4270.892
 122  4218.007
 123  3926.289
 124  4089.069
 125  4334.547
 126  3583.267
 127  2955.021
 128  4779.683
 129  5059.217
 130  4243.123
 131  4046.599
 132  3815.292
 133  3481.752
 134  3660.607
 135  4734.126
 136  3561.717
 137  3871.925
 138  4022.162
 139  4091.195
 140  3490.68
 141  4190.841
 142  4360.5
 143  4260.32
 144  3742.673
 145  4100.188
 146  4939.571
 147  4309.206
 148  5037.671
 149  6010.601
 150  8731.797
 151  8000.053
 152  5011.07
 153  5007.421
 154  4493.028
 155  3671.246
 156  3358.347
 157  4939.449
 158  4699.727
 159  4176.647
 160  3428.712
 161  4773.007
 162  4429.981
 163  3754.364
 164  4212
 165  4165.289
 166  4120.521
 167  4323.578
 168  4527.51
 169  3524.571
 170  3704.166
 171  4241.384
 172  3522.962
 173  3564.879
 174  3259.839
 175  4455.018
 176  3731.456
 177  4125.875
 178  3953.048
 179  3687.438
 180  3533.837
 181  3178.932
 182  3230.55
 183  3966.16
 184  3625.075
 185  3472.27
 186  3818.547
 187  4158.166
 188  3301.048
 189  3524.58
 190  4257.677
 191  2930.902
 192  3699.531
 193  3070.099
 194  4170.264
 195  4173.545
 196  4136.781
 197  3011.54
 198  3483.64
 199  4677.572
 200  3606.278
 201  3057.998
 202  3817.094
 203  3923.851
 204  3594.437
 205  3527.777
 206  3941.087
 207  3174.963
 208  3556.458
 209  3849.045
 210  4222.729
 211  4142.893
 212  4042.215
 213  3589.805
 214  3536.01
 215  3724.25
 216  4350.783
 217  4053.822
 218  4257.962
 219  4025.726
 220  4473.856
 221  3251.015
 222  2884.494
 223  3438.46
 224  3971.208
 225  3424.61
 226  3231.615
 227  4303.958
 228  3720.656
 229  3753.533
 230  3275.555
 231  3391.476
 232  4386.421
 233  4510.073
 234  3851.845
 235  4507.374
 236  3763.638
 237  3335.807
 238  4332.015
 239  3985.709
 240  3530.751
 241  3488.646
 242  4275.163
 243  4026.099
 244  3231.343
 245  3019.592
 246  3657.242
 247  4470.752
 248  3661.797
 249  3823.132
 250  3473.633
 251  3988.653
 252  3256.293
 253  3400.364
 254  3384.893
 255  3065.158
