# Input file       =  1208355544.109267-PSRB0329-2ms-sampling-dd.dat
# Candidate        =  PSR_0332+5434
# Telescope        =  AR
# Epoch_topo       =  58229.596795246143
# Epoch_bary       =  N/A
# T_sample         =  0.002
# Data Folded      =  7340032
# Data Avg         =  5.20614441711461e-11
# Data StdDev      =  8.15279862955739 
# Profile Bins     =  512
# Profile Avg      =  -0.0646207582631975
# Profile StdDev   =  976.159334885244 
# Reduced chi-sqr  =  0.488
# Prob(Noise)      <  1   (~0.0 sigma)
# P_topo (ms)      =  714.555224376912  +/- 0.000841
# P'_topo (s/s)    =  -0                +/- 4.44e-10
# P''_topo (s/s^2) =  0                 +/- 1.96e-13
# P_bary (ms)      =  N/A
# P'_bary (s/s)    =  N/A
# P''_bary (s/s^2) =  N/A
# P_orb (s)        =  N/A
# asin(i)/c (s)    =  N/A
# eccentricity     =  N/A
# w (rad)          =  N/A
# T_peri           =  N/A
######################################################
   0  -6.128255
   1  -367.3626
   2  -484.6459
   3  -312.9312
   4  -422.9828
   5  -608.3633
   6  -657.6465
   7  -427.2715
   8  -263.2536
   9  -502.7273
  10  -439.9461
  11  -282.0266
  12  -246.9561
  13  -551.146
  14  -507.8368
  15  45.1961
  16  127.5864
  17  289.6185
  18  -15.56314
  19  -293.5414
  20  -226.9865
  21  29.12004
  22  -327.824
  23  1.131372
  24  333.2314
  25  -494.6772
  26  -631.0323
  27  -761.7622
  28  -740.6597
  29  -392.6233
  30  -236.9989
  31  69.60642
  32  -84.8782
  33  -225.9193
  34  -360.7183
  35  -209.5879
  36  4.051541
  37  -167.7053
  38  376.9486
  39  459.9973
  40  321.4741
  41  275.9049
  42  1027.115
  43  879.4462
  44  356.9397
  45  739.3323
  46  412.888
  47  -128.8489
  48  -564.8174
  49  445.9461
  50  1123.344
  51  1056.466
  52  953.8241
  53  1182.535
  54  1249.782
  55  2073.201
  56  2046.349
  57  1973.647
  58  970.3387
  59  189.5233
  60  -24.69963
  61  408.1929
  62  648.9574
  63  1173.93
  64  1364.7
  65  1272.72
  66  183.964
  67  -347.6863
  68  -122.8007
  69  143.8297
  70  43.24656
  71  170.5827
  72  732.44
  73  624.9833
  74  424.2933
  75  610.5898
  76  -324.898
  77  -205.1687
  78  -47.38082
  79  479.9919
  80  325.687
  81  63.73924
  82  -292.0084
  83  -664.7396
  84  -526.8661
  85  -354.2268
  86  -330.6063
  87  -665.4719
  88  -512.0339
  89  -486.1578
  90  -216.1178
  91  -306.213
  92  -264.7833
  93  -470.3698
  94  -406.2333
  95  -33.3932
  96  91.6896
  97  57.47835
  98  -627.118
  99  -357.5301
 100  -619.077
 101  -327.8163
 102  -280.4958
 103  -320.1105
 104  -101.713
 105  -146.8046
 106  -58.49744
 107  -337.7268
 108  -254.1342
 109  -169.9183
 110  -288.2659
 111  -491.9752
 112  -448.5569
 113  -361.5862
 114  -407.7471
 115  -756.8936
 116  -907.1258
 117  -858.8389
 118  -824.0222
 119  -715.5272
 120  -470.6522
 121  -598.458
 122  -675.3301
 123  -97.80863
 124  -12.14683
 125  -489.1536
 126  -701.3014
 127  -642.1786
 128  -411.2909
 129  -467.2431
 130  -660.4066
 131  -520.4566
 132  -373.4306
 133  -326.2625
 134  -48.02858
 135  -436.3533
 136  -183.0145
 137  -238.1461
 138  34.99352
 139  272.9735
 140  300.9942
 141  41.68316
 142  -197.7068
 143  -263.8486
 144  -214.525
 145  -144.0171
 146  -339.2704
 147  -509.5612
 148  -506.8806
 149  -716.5914
 150  -833.4729
 151  -761.9061
 152  -681.9766
 153  -547.4677
 154  -24.74725
 155  -377.5433
 156  -512.3541
 157  -404.0832
 158  -178.7641
 159  -518.8724
 160  -477.5366
 161  55.79075
 162  145.2307
 163  -135.3905
 164  -351.5266
 165  -268.3948
 166  302.1487
 167  447.522
 168  678.5263
 169  664.8181
 170  143.7023
 171  223.5704
 172  304.3767
 173  499.5472
 174  321.2462
 175  670.6017
 176  851.9922
 177  702.9592
 178  336.1562
 179  145.0369
 180  555.9895
 181  582.9538
 182  395.2657
 183  -143.9698
 184  -336.1212
 185  -932.5555
 186  -459.8431
 187  -184.6587
 188  -353.7267
 189  118.4032
 190  -38.51839
 191  -244.4706
 192  -504.49
 193  -334.8376
 194  -407.3775
 195  13.01642
 196  180.3132
 197  -134.6844
 198  -200.0661
 199  -290.0605
 200  -231.8218
 201  -114.8243
 202  12.74985
 203  -404.0814
 204  -357.4127
 205  -64.55967
 206  -75.26798
 207  -471.1278
 208  127.8681
 209  -306.2272
 210  160.65
 211  46.64816
 212  -283.0785
 213  -227.6865
 214  -46.33826
 215  50.33973
 216  149.7126
 217  -187.7986
 218  -537.5964
 219  -147.3051
 220  -117.4609
 221  338.2873
 222  545.8621
 223  823.3708
 224  894.5002
 225  409.6492
 226  337.0394
 227  367.4777
 228  391.9184
 229  178.9113
 230  338.7847
 231  492.7411
 232  234.7995
 233  -381.6848
 234  -354.1304
 235  -211.335
 236  -350.35
 237  -239.295
 238  -313.5751
 239  -245.5305
 240  -591.6595
 241  -497.3586
 242  -359.8968
 243  -208.6422
 244  367.3075
 245  81.41141
 246  -206.8449
 247  14.13225
 248  311.2771
 249  193.5246
 250  -85.26245
 251  -12.22069
 252  -301.243
 253  -529.8269
 254  -550.9752
 255  -458.9
 256  -487.002
 257  -371.1826
 258  -113.0039
 259  -301.055
 260  -328.7375
 261  39.19442
 262  -608.9897
 263  -764.2236
 264  -436.2097
 265  -355.5829
 266  -607.6712
 267  -351.3348
 268  -646.082
 269  -963.9984
 270  -1133.863
 271  -702.4458
 272  -500.9153
 273  -512.6404
 274  -556.871
 275  -741.382
 276  -790.14
 277  -813.9738
 278  -324.0667
 279  -183.3583
 280  -460.4745
 281  -380.6915
 282  -377.0687
 283  -339.4378
 284  -598.137
 285  -316.4795
 286  -229.4037
 287  -382.0075
 288  -286.6653
 289  34.76325
 290  260.2687
 291  -29.37683
 292  -20.23141
 293  263.9027
 294  214.8555
 295  175.1238
 296  157.5157
 297  -127.6888
 298  -267.7209
 299  -414.9251
 300  -343.7422
 301  -79.07603
 302  -208.9291
 303  46.6563
 304  -6.083131
 305  -8.185282
 306  152.4741
 307  245.938
 308  152.6491
 309  147.8183
 310  143.8192
 311  19.36581
 312  307.504
 313  145.1265
 314  60.94286
 315  90.86672
 316  115.8245
 317  32.72927
 318  -89.04848
 319  -206.8703
 320  1.614429
 321  -24.00126
 322  10.32696
 323  283.847
 324  431.3628
 325  118.8689
 326  -228.0545
 327  -75.74894
 328  202.0058
 329  90.77928
 330  -189.5114
 331  -169.3627
 332  -528.4639
 333  -252.6758
 334  -363.5019
 335  -403.7703
 336  -43.95388
 337  -161.2703
 338  -242.1655
 339  -386.1414
 340  -351.4615
 341  -164.832
 342  -395.6919
 343  -2.690229
 344  13.52728
 345  49.33902
 346  -105.0141
 347  288.7906
 348  296.3677
 349  217.0457
 350  -56.56664
 351  367.0318
 352  827.2462
 353  594.5106
 354  625.7634
 355  565.295
 356  -208.5922
 357  174.9844
 358  803.3615
 359  1054.98
 360  292.4549
 361  243.1254
 362  501.2763
 363  -447.2166
 364  -293.5569
 365  87.70019
 366  32.94246
 367  -405.1116
 368  -183.4147
 369  -333.3452
 370  36.31574
 371  314.5804
 372  211.0257
 373  131.2456
 374  89.49185
 375  38.17032
 376  12.46201
 377  -85.00519
 378  285.2722
 379  442.9821
 380  669.9656
 381  112.1308
 382  -170.3559
 383  189.1099
 384  1108.8
 385  1228.617
 386  1608.26
 387  1601.542
 388  879.9965
 389  224.3383
 390  513.2111
 391  225.328
 392  291.3357
 393  136.1887
 394  128.4878
 395  -199.9986
 396  -324.9445
 397  -120.6424
 398  -226.4362
 399  -244.2997
 400  225.06
 401  303.6994
 402  118.5747
 403  226.4202
 404  365.765
 405  331.539
 406  136.2731
 407  -198.9937
 408  151.7553
 409  102.2618
 410  244.6093
 411  -246.0892
 412  105.6622
 413  298.7288
 414  143.0469
 415  -228.3138
 416  -460.8789
 417  -115.386
 418  267.9053
 419  510.2783
 420  -58.56021
 421  36.31664
 422  -385.332
 423  -383.2743
 424  -370.1721
 425  -740.7094
 426  -610.2894
 427  -438.3753
 428  -613.4572
 429  -225.3025
 430  577.6937
 431  968.8024
 432  673.0835
 433  -145.5844
 434  -34.54695
 435  945.8405
 436  1170.191
 437  1195.727
 438  1015.583
 439  578.5898
 440  279.7056
 441  -297.8725
 442  -154.6684
 443  -152.9735
 444  -44.13245
 445  182.6154
 446  -218.4954
 447  153.7612
 448  -13.86842
 449  -128.1736
 450  -359.3366
 451  -605.5178
 452  -254.3834
 453  48.56508
 454  189.4609
 455  302.4221
 456  193.8074
 457  -348.1352
 458  -124.2842
 459  478.5245
 460  719.6592
 461  1552.013
 462  1379.461
 463  571.1218
 464  340.821
 465  603.2223
 466  963.2686
 467  651.4316
 468  1026.981
 469  1188.155
 470  624.9312
 471  984.6917
 472  683.7363
 473  257.4979
 474  266.461
 475  37.04523
 476  -49.26015
 477  28.51649
 478  -21.50033
 479  -143.9842
 480  -80.72495
 481  582.3348
 482  454.7123
 483  764.0474
 484  931.9229
 485  296.2869
 486  -573.4486
 487  -768.6962
 488  -64.6209
 489  831.4724
 490  818.4259
 491  866.9552
 492  471.1041
 493  -419.6836
 494  -442.5973
 495  -540.3907
 496  -641.2925
 497  -782.5078
 498  -354.8538
 499  -344.253
 500  -242.8688
 501  -76.27049
 502  30.05001
 503  533.4584
 504  17.13959
 505  -193.3873
 506  -144.8551
 507  -337.2222
 508  45.52521
 509  444.8503
 510  542.1705
 511  677.8925
