# Input file       =  1208756838.127308_cleaned.dat
# Candidate        =  PSR_0332+5434
# Telescope        =  AR
# Epoch_topo       =  58234.241401936437
# Epoch_bary       =  N/A
# T_sample         =  0.002
# Data Folded      =  7208960
# Data Avg         =  0.017035423052452
# Data StdDev      =  0.99998338979869 
# Profile Bins     =  512
# Profile Avg      =  239.773015450023 
# Profile StdDev   =  118.657204840733 
# Reduced chi-sqr  =  1.981
# Prob(Noise)      <  2.59e-35   (~12.3 sigma)
# P_topo (ms)      =  714.550912393901  +/- 0.00025
# P'_topo (s/s)    =  -0                +/- 1.34e-10
# P''_topo (s/s^2) =  0                 +/- 6.03e-14
# P_bary (ms)      =  N/A
# P'_bary (s/s)    =  N/A
# P''_bary (s/s^2) =  N/A
# P_orb (s)        =  N/A
# asin(i)/c (s)    =  N/A
# eccentricity     =  N/A
# w (rad)          =  N/A
# T_peri           =  N/A
######################################################
   0  333.8571
   1  284.2829
   2  239.6764
   3  239.3048
   4  235.2666
   5  198.4365
   6  285.1179
   7  249.7444
   8  155.5117
   9  134.7108
  10  227.8646
  11  234.205
  12  230.0685
  13  270.2233
  14  269.6059
  15  155.0158
  16  201.3789
  17  267.3523
  18  149.7874
  19  225.9544
  20  229.3512
  21  276.938
  22  176.4373
  23  243.9116
  24  224.727
  25  261.0836
  26  191.4843
  27  253.0866
  28  220.8495
  29  263.1315
  30  169.0735
  31  268.9174
  32  280.4509
  33  231.5572
  34  144.4492
  35  199.0813
  36  213.4442
  37  182.7796
  38  159.5322
  39  135.8159
  40  237.6817
  41  213.8298
  42  374.3752
  43  411.6112
  44  348.9658
  45  431.907
  46  221.449
  47  229.8511
  48  239.9942
  49  168.3664
  50  135.4998
  51  70.38219
  52  122.0349
  53  83.41705
  54  169.4003
  55  181.5321
  56  190.4382
  57  309.0567
  58  223.4725
  59  -11.2408
  60  124.3458
  61  164.068
  62  155.4931
  63  245.2531
  64  242.0251
  65  149.8162
  66  108.2474
  67  214.8323
  68  170.8883
  69  118.8006
  70  102.3125
  71  247.7834
  72  295.0686
  73  306.5563
  74  308.2746
  75  268.1666
  76  173.2212
  77  313.3491
  78  350.5517
  79  318.1826
  80  268.4231
  81  101.0069
  82  101.4572
  83  243.7614
  84  331.1336
  85  286.1062
  86  192.5349
  87  261.8889
  88  249.0177
  89  238.0952
  90  132.9041
  91  157.015
  92  186.0636
  93  261.1039
  94  189.5992
  95  100.0553
  96  139.8194
  97  173.8308
  98  90.41126
  99  117.3912
 100  132.5183
 101  188.9952
 102  351.2908
 103  182.9059
 104  180.1876
 105  229.9557
 106  237.9332
 107  215.8301
 108  236.0924
 109  192.7249
 110  193.7847
 111  244.0661
 112  209.9582
 113  10.02136
 114  89.8507
 115  156.8991
 116  133.6285
 117  96.29131
 118  48.10419
 119  153.2073
 120  222.5897
 121  239.2833
 122  179.869
 123  67.37437
 124  162.9729
 125  321.5435
 126  306.9379
 127  174.744
 128  220.0269
 129  232.0493
 130  145.0159
 131  171.3792
 132  166.0812
 133  123.0547
 134  217.1956
 135  222.1916
 136  93.07548
 137  240.5209
 138  341.9054
 139  321.1713
 140  317.2227
 141  173.8374
 142  191.1663
 143  236.337
 144  302.2694
 145  247.819
 146  226.039
 147  236.6765
 148  204.0302
 149  153.4476
 150  99.04283
 151  110.3362
 152  222.5914
 153  356.6175
 154  288.1516
 155  137.2491
 156  243.7708
 157  302.3289
 158  226.3591
 159  213.7826
 160  130.689
 161  149.9183
 162  235.5119
 163  197.1384
 164  214.8947
 165  177.7742
 166  172.7964
 167  123.3536
 168  197.6899
 169  301.4743
 170  289.2764
 171  321.9072
 172  300.0117
 173  344.4602
 174  275.903
 175  236.7712
 176  207.7175
 177  191.1791
 178  230.1129
 179  172.2575
 180  236.2367
 181  231.9209
 182  247.8053
 183  261.2361
 184  263.4485
 185  131.6921
 186  198.1065
 187  88.79655
 188  134.9649
 189  143.5935
 190  209.2892
 191  239.5183
 192  236.8045
 193  207.4665
 194  152.2497
 195  182.5492
 196  171.5875
 197  75.61326
 198  84.24786
 199  97.15782
 200  107.0664
 201  126.1344
 202  161.5219
 203  214.5098
 204  166.9722
 205  78.73721
 206  199.5826
 207  193.705
 208  332.4044
 209  367.7129
 210  276.9522
 211  243.9142
 212  236.6481
 213  260.3703
 214  194.5685
 215  187.0412
 216  141.6411
 217  103.2373
 218  181.6938
 219  259.4474
 220  296.6941
 221  284.7072
 222  273.9919
 223  245.4056
 224  157.5864
 225  125.6986
 226  119.9371
 227  56.02857
 228  127.1892
 229  218.0326
 230  291.1795
 231  260.9914
 232  295.1633
 233  228.5792
 234  206.8496
 235  260.6037
 236  124.7563
 237  49.83502
 238  223.3676
 239  235.0835
 240  290.118
 241  239.2993
 242  283.6865
 243  228.0666
 244  202.7264
 245  333.5278
 246  265.647
 247  279.5199
 248  142.9809
 249  132.5801
 250  37.64883
 251  39.88108
 252  293.1753
 253  318.647
 254  131.0664
 255  168.6934
 256  295.6882
 257  170.6241
 258  293.7684
 259  350.4818
 260  241.1473
 261  170.8042
 262  130.7513
 263  195.1078
 264  81.29268
 265  142.6641
 266  196.7984
 267  218.6864
 268  206.2498
 269  209.5937
 270  208.5974
 271  170.3266
 272  303.3653
 273  353.7165
 274  386.6932
 275  339.0639
 276  222.7009
 277  157.6064
 278  223.8468
 279  318.0985
 280  186.8017
 281  262.366
 282  345.7744
 283  286.2912
 284  331.5573
 285  280.4834
 286  234.8197
 287  187.362
 288  142.8392
 289  161.3736
 290  319.3751
 291  279.4534
 292  180.5226
 293  254.3347
 294  434.6412
 295  329.5773
 296  224.7028
 297  260.8635
 298  298.7949
 299  277.328
 300  325.5356
 301  279.5457
 302  237.136
 303  174.6927
 304  380.9792
 305  285.4091
 306  128.1741
 307  140.2637
 308  278.9149
 309  250.5858
 310  250.5525
 311  315.6811
 312  218.9212
 313  196.9247
 314  155.8597
 315  156.5078
 316  303.4427
 317  347.3395
 318  310.2236
 319  284.859
 320  224.7309
 321  143.6779
 322  99.65685
 323  151.1584
 324  235.1342
 325  135.6558
 326  142.9753
 327  97.94042
 328  200.2316
 329  234.7454
 330  218.7276
 331  321.2816
 332  253.4793
 333  222.2652
 334  318.3426
 335  330.1613
 336  236.4044
 337  182.9366
 338  255.2035
 339  269.2756
 340  140.7515
 341  103.0646
 342  225.2062
 343  291.5422
 344  252.0197
 345  296.8886
 346  369.3086
 347  337.5988
 348  342.1429
 349  306.4739
 350  323.1159
 351  311.2133
 352  286.0569
 353  227.3824
 354  225.3963
 355  219.8517
 356  152.1499
 357  142.9472
 358  388.9883
 359  322.2841
 360  255.1868
 361  204.0774
 362  293.7423
 363  316.128
 364  397.4734
 365  371.439
 366  328.7215
 367  327.2556
 368  306.3727
 369  293.916
 370  287.4877
 371  227.7703
 372  265.2165
 373  184.9968
 374  145.1194
 375  286.9537
 376  390.3024
 377  348.9071
 378  334.0908
 379  376.2142
 380  306.3853
 381  295.4789
 382  235.8337
 383  303.0543
 384  304.3785
 385  137.9547
 386  182.7338
 387  229.0041
 388  248.3888
 389  195.9767
 390  347.3208
 391  347.8076
 392  157.6614
 393  148.8155
 394  285.5485
 395  221.9514
 396  193.5058
 397  251.9601
 398  257.7033
 399  247.4099
 400  154.2481
 401  95.36115
 402  161.3626
 403  250.6377
 404  255.2296
 405  307.7596
 406  283.4686
 407  232.3012
 408  147.9422
 409  229.7252
 410  300.3636
 411  209.2908
 412  374.3156
 413  369.9357
 414  447.5786
 415  387.1389
 416  370.9885
 417  563.8585
 418  699.4501
 419  850.5689
 420  1178.332
 421  1254.459
 422  1229.313
 423  886.4744
 424  591.4296
 425  324.5648
 426  389.7978
 427  509.1121
 428  381.1269
 429  354.9823
 430  404.4671
 431  368.0503
 432  263.9991
 433  297.6648
 434  338.3181
 435  432.0995
 436  353.9214
 437  258.3144
 438  326.1022
 439  331.321
 440  287.9008
 441  290.6735
 442  285.1743
 443  249.396
 444  327.2381
 445  253.5261
 446  192.6659
 447  206.2448
 448  372.7602
 449  196.9741
 450  271.4226
 451  453.5802
 452  336.8875
 453  221.934
 454  281.7784
 455  273.1454
 456  393.9045
 457  362.38
 458  208.7785
 459  170.9823
 460  195.9509
 461  329.7453
 462  201.2239
 463  272.215
 464  235.5854
 465  201.9554
 466  140.0353
 467  280.8368
 468  109.8047
 469  113.2446
 470  262.7553
 471  297.4249
 472  262.9714
 473  130.7642
 474  234.937
 475  295.6102
 476  279.7843
 477  288.7837
 478  262.9246
 479  154.3367
 480  69.68067
 481  198.0543
 482  251.9078
 483  110.9411
 484  117.5217
 485  150.6056
 486  148.657
 487  171.9702
 488  222.1001
 489  126.5391
 490  260.364
 491  218.3253
 492  199.9407
 493  197.3677
 494  297.2513
 495  299.4142
 496  144.018
 497  83.5721
 498  162.2814
 499  261.0913
 500  316.9363
 501  200.0501
 502  103.9396
 503  84.60453
 504  217.4875
 505  254.9972
 506  76.29991
 507  156.4096
 508  194.6038
 509  201.9955
 510  235.0911
 511  234.4784
