# Input file       =  1208441724.10273_cleaned.dat
# Candidate        =  PSR_0332+5434
# Telescope        =  AR
# Epoch_topo       =  58230.594248874193
# Epoch_bary       =  N/A
# T_sample         =  0.002
# Data Folded      =  7340032
# Data Avg         =  0.0304728074247913
# Data StdDev      =  1.0000727992353  
# Profile Bins     =  512
# Profile Avg      =  436.870918419342 
# Profile StdDev   =  119.741752850254 
# Reduced chi-sqr  =  1.553
# Prob(Noise)      <  1.36e-14   (~7.6 sigma)
# P_topo (ms)      =  714.554390055776  +/- 0.000301
# P'_topo (s/s)    =  -0                +/- 1.59e-10
# P''_topo (s/s^2) =  0                 +/- 7.02e-14
# P_bary (ms)      =  N/A
# P'_bary (s/s)    =  N/A
# P''_bary (s/s^2) =  N/A
# P_orb (s)        =  N/A
# asin(i)/c (s)    =  N/A
# eccentricity     =  N/A
# w (rad)          =  N/A
# T_peri           =  N/A
######################################################
   0  378.2745
   1  435.7393
   2  423.194
   3  404.3078
   4  328.9335
   5  327.0818
   6  423.6956
   7  272.2904
   8  454.6405
   9  511.2807
  10  518.4399
  11  479.9099
  12  360.478
  13  427.4304
  14  532.6541
  15  423.2354
  16  410.2637
  17  492.056
  18  466.9242
  19  484.6191
  20  470.9978
  21  463.9523
  22  419.1832
  23  437.5527
  24  334.3105
  25  388.6457
  26  450.8878
  27  531.0167
  28  560.164
  29  528.6567
  30  475.3867
  31  523.4304
  32  488.9455
  33  365.1556
  34  425.5261
  35  349.9293
  36  385.1774
  37  423.6284
  38  401.602
  39  425.9324
  40  409.5419
  41  434.9977
  42  555.9725
  43  443.2386
  44  448.0673
  45  508.3612
  46  591.9104
  47  543.7357
  48  441.1176
  49  538.85
  50  505.9264
  51  441.9868
  52  478.8589
  53  503.6327
  54  509.3527
  55  478.0391
  56  500.7062
  57  437.0967
  58  349.2195
  59  418.9178
  60  509.5165
  61  504.9435
  62  504.1823
  63  393.0282
  64  476.2575
  65  580.9701
  66  613.8531
  67  453.1134
  68  463.9652
  69  536.8929
  70  391.8735
  71  366.3698
  72  333.9486
  73  422.5329
  74  485.2493
  75  353.2231
  76  323.8873
  77  301.7646
  78  403.8923
  79  394.7487
  80  381.5385
  81  449.2471
  82  402.3194
  83  328.7994
  84  394.869
  85  408.1983
  86  496.7303
  87  564.0974
  88  417.7907
  89  481.1138
  90  446.0153
  91  437.1785
  92  538.5965
  93  548.2707
  94  510.9659
  95  473.0681
  96  515.0074
  97  538.6901
  98  546.8958
  99  582.0582
 100  533.0019
 101  398.949
 102  516.8718
 103  516.0767
 104  616.1405
 105  600.6154
 106  555.3339
 107  496.6534
 108  481.1332
 109  566.5663
 110  487.2148
 111  524.3517
 112  563.1989
 113  480.0921
 114  563.1321
 115  620.713
 116  601.0439
 117  615.0444
 118  456.692
 119  508.8771
 120  391.8718
 121  474.3481
 122  560.831
 123  556.6901
 124  553.5131
 125  449.0664
 126  283.9379
 127  400.3345
 128  527.1577
 129  516.4256
 130  382.5591
 131  436.3751
 132  496.4437
 133  480.6542
 134  427.8733
 135  447.9344
 136  491.0558
 137  439.2091
 138  402.5523
 139  545.8679
 140  475.1508
 141  354.9688
 142  313.9185
 143  361.6355
 144  407.3409
 145  353.9904
 146  337.0352
 147  373.9739
 148  376.1574
 149  333.6676
 150  347.7926
 151  365.5897
 152  335.0018
 153  259.8711
 154  344.7339
 155  459.7035
 156  381.3151
 157  494.4897
 158  519.5512
 159  463.9068
 160  402.8828
 161  368.2468
 162  384.1932
 163  393.3473
 164  516.7278
 165  475.9392
 166  565.1586
 167  610.8438
 168  492.0753
 169  489.4763
 170  562.6716
 171  559.6076
 172  487.9588
 173  456.7628
 174  397.3005
 175  576.6489
 176  596.1193
 177  460.9604
 178  524.6338
 179  602.1081
 180  525.657
 181  475.2582
 182  507.8222
 183  483.5463
 184  539.426
 185  539.5798
 186  537.2535
 187  344.5618
 188  423.8597
 189  386.9841
 190  292.0223
 191  550.3884
 192  524.502
 193  419.7261
 194  369.0182
 195  405.0374
 196  468.2335
 197  419.4416
 198  483.8764
 199  425.4376
 200  332.2543
 201  427.0013
 202  302.2014
 203  284.0784
 204  367.8352
 205  458.9871
 206  332.3676
 207  269.8083
 208  407.9863
 209  385.034
 210  325.1349
 211  322.4284
 212  345.5102
 213  268.9262
 214  299.5278
 215  351.0901
 216  349.3791
 217  292.8126
 218  228.6249
 219  393.6589
 220  351.893
 221  357.3337
 222  255.7382
 223  256.3773
 224  336.6
 225  298.1779
 226  310.8466
 227  289.3958
 228  314.5215
 229  364.6534
 230  296.1678
 231  320.4876
 232  341.2216
 233  453.9127
 234  376.1896
 235  249.2483
 236  269.3301
 237  404.2477
 238  431.5483
 239  445.7966
 240  485.8633
 241  354.4357
 242  288.6352
 243  307.2325
 244  403.5248
 245  300.1699
 246  330.7526
 247  500.0705
 248  390.8467
 249  377.4449
 250  505.9015
 251  335.9069
 252  373.1656
 253  289.5496
 254  363.8597
 255  280.34
 256  338.3639
 257  456.5098
 258  377.1054
 259  465.3839
 260  479.1743
 261  508.3203
 262  504.6745
 263  506.6717
 264  443.657
 265  520.3994
 266  490.4662
 267  403.378
 268  375.4644
 269  352.9979
 270  485.1806
 271  433.6351
 272  489.6937
 273  494.8972
 274  517.6613
 275  527.5849
 276  579.6674
 277  766.1975
 278  969.1641
 279  1014.917
 280  1030.95
 281  1089.177
 282  986.6164
 283  659.182
 284  431.6358
 285  360.7504
 286  395.5763
 287  463.0629
 288  362.8578
 289  436.3706
 290  336.3315
 291  259.0463
 292  319.1643
 293  326.186
 294  342.3686
 295  249.1737
 296  261.2089
 297  297.2021
 298  242.7726
 299  211.9436
 300  245.565
 301  260.7451
 302  235.3615
 303  346.7937
 304  353.6505
 305  344.6826
 306  265.3175
 307  227.6939
 308  454.5576
 309  397.9078
 310  468.6619
 311  519.2289
 312  495.8705
 313  563.4751
 314  369.0933
 315  334.2126
 316  308.4644
 317  262.0383
 318  423.8229
 319  477.4632
 320  465.2473
 321  510.7066
 322  405.8678
 323  486.0633
 324  516.8674
 325  570.0542
 326  461.6497
 327  428.2141
 328  436.5178
 329  501.8314
 330  544.4474
 331  525.9022
 332  470.2013
 333  532.9723
 334  494.9271
 335  431.6925
 336  543.4254
 337  490.5054
 338  495.9226
 339  458.0058
 340  439.5054
 341  407.007
 342  476.7853
 343  520.1729
 344  486.2031
 345  367.69
 346  335.1137
 347  341.1182
 348  364.6207
 349  362.6052
 350  339.1382
 351  227.7144
 352  243.2149
 353  282.2518
 354  147.8502
 355  315.8358
 356  388.7354
 357  463.0663
 358  453.0997
 359  455.633
 360  398.0865
 361  359.6913
 362  400.4533
 363  452.6872
 364  405.1646
 365  255.2079
 366  263.4001
 367  276.7857
 368  303.3987
 369  351.5107
 370  314.4626
 371  328.846
 372  297.1133
 373  342.7538
 374  376.1023
 375  324.7368
 376  354.59
 377  390.4035
 378  426.0825
 379  489.9362
 380  528.5665
 381  490.7546
 382  512.6897
 383  409.3601
 384  457.7184
 385  530.4789
 386  501.4392
 387  435.2197
 388  477.3699
 389  523.9641
 390  546.4319
 391  508.6036
 392  477.1151
 393  519.9334
 394  509.8768
 395  563.4014
 396  575.913
 397  499.3316
 398  445.7506
 399  504.7132
 400  558.3325
 401  492.6556
 402  428.3048
 403  544.3076
 404  527.4756
 405  566.5898
 406  570.4344
 407  504.5658
 408  400.0007
 409  414.7415
 410  455.0913
 411  532.6099
 412  523.4727
 413  500.6115
 414  457.1263
 415  522.6157
 416  413.6207
 417  349.8853
 418  365.7228
 419  376.5406
 420  484.341
 421  568.837
 422  465.7429
 423  510.6761
 424  453.7527
 425  403.0131
 426  440.5805
 427  344.8178
 428  444.917
 429  488.5142
 430  448.5029
 431  491.0738
 432  350.6705
 433  367.9337
 434  503.5212
 435  399.2607
 436  429.864
 437  357.3479
 438  465.4152
 439  540.6618
 440  463.6978
 441  327.2706
 442  245.193
 443  323.3952
 444  384.6085
 445  375.439
 446  452.7288
 447  554.8213
 448  632.4136
 449  525.9359
 450  605.2679
 451  519.2292
 452  400.5438
 453  375.6046
 454  366.9621
 455  271.757
 456  315.0413
 457  462.19
 458  500.8945
 459  488.3766
 460  510.0234
 461  488.458
 462  554.2404
 463  427.892
 464  384.6669
 465  437.6019
 466  453.7454
 467  367.9227
 468  422.5505
 469  387.0292
 470  481.3142
 471  462.3676
 472  356.3739
 473  490.7686
 474  468.3537
 475  514.558
 476  517.5566
 477  456.8001
 478  444.4551
 479  482.4462
 480  566.7979
 481  605.7243
 482  461.1754
 483  418.1208
 484  483.9769
 485  557.4771
 486  447.8208
 487  345.3287
 488  273.973
 489  318.2788
 490  395.7621
 491  457.3852
 492  478.222
 493  482.6911
 494  399.7139
 495  323.5368
 496  377.7823
 497  440.811
 498  560.868
 499  453.5977
 500  467.1862
 501  529.8499
 502  358.694
 503  296.6758
 504  387.2307
 505  344.8987
 506  256.2383
 507  269.2197
 508  395.4036
 509  333.5975
 510  254.1137
 511  287.0862
