# Input file       =  1208700228.101068-PSRB0329-2ms-sampling-dd.dat
# Candidate        =  PSR_0332+5434
# Telescope        =  AR
# Epoch_topo       =  58233.586193299401
# Epoch_bary       =  N/A
# T_sample         =  0.002
# Data Folded      =  7340032
# Data Avg         =  -1.14956774302719e-09
# Data StdDev      =  8.39472706085193 
# Profile Bins     =  512
# Profile Avg      =  -0.26965737810248
# Profile StdDev   =  1005.12616055001 
# Reduced chi-sqr  =  0.592
# Prob(Noise)      <  1   (~0.0 sigma)
# P_topo (ms)      =  714.551842311918  +/- 0.000589
# P'_topo (s/s)    =  -0                +/- 3.11e-10
# P''_topo (s/s^2) =  0                 +/- 1.37e-13
# P_bary (ms)      =  N/A
# P'_bary (s/s)    =  N/A
# P''_bary (s/s^2) =  N/A
# P_orb (s)        =  N/A
# asin(i)/c (s)    =  N/A
# eccentricity     =  N/A
# w (rad)          =  N/A
# T_peri           =  N/A
######################################################
   0  -1.784065
   1  432.9165
   2  378.7643
   3  437.4028
   4  555.7936
   5  672.386
   6  636.099
   7  765.4676
   8  1258.62
   9  1354.973
  10  1677.378
  11  1574.332
  12  1115.206
  13  969.5999
  14  1071.927
  15  1218.712
  16  1019.401
  17  1019.157
  18  767.8138
  19  461.3237
  20  443.8376
  21  -112.8857
  22  -363.4206
  23  72.7375
  24  -131.4876
  25  -114.4384
  26  -111.2678
  27  -63.00359
  28  69.14395
  29  -141.611
  30  -163.7052
  31  -625.1406
  32  -873.2557
  33  -707.1319
  34  -942.1575
  35  -530.2625
  36  -609.7177
  37  -366.0377
  38  -195.5622
  39  -80.45106
  40  -63.30964
  41  52.11753
  42  -140.4922
  43  414.3409
  44  192.2536
  45  16.60062
  46  -105.5224
  47  398.1501
  48  381.0016
  49  522.4076
  50  647.3848
  51  364.7425
  52  9.898693
  53  -106.5753
  54  -543.473
  55  -426.046
  56  -292.381
  57  -550.4241
  58  -463.2697
  59  -50.62716
  60  40.55756
  61  -103.9181
  62  254.9358
  63  -161.2212
  64  -522.2175
  65  -459.1197
  66  -117.4072
  67  17.40387
  68  292.931
  69  -247.8912
  70  -283.0693
  71  8.199527
  72  -410.5399
  73  -309.4521
  74  -172.9823
  75  108.8756
  76  263.4044
  77  342.7975
  78  -307.3456
  79  -687.0519
  80  -311.133
  81  -32.51934
  82  -7.703187
  83  316.0638
  84  534.0717
  85  138.9088
  86  238.0208
  87  46.19324
  88  -295.0297
  89  -340.5045
  90  158.1552
  91  414.4345
  92  303.5697
  93  249.4921
  94  1.203276
  95  -44.4407
  96  65.87622
  97  115.1196
  98  379.8777
  99  795.5048
 100  937.9078
 101  782.4019
 102  715.178
 103  520.7711
 104  214.9845
 105  160.8559
 106  500.2238
 107  614.8983
 108  849.1219
 109  834.4582
 110  702.0761
 111  450.9324
 112  339.2544
 113  555.3374
 114  506.6739
 115  721.2156
 116  260.4272
 117  472.3043
 118  380.0607
 119  8.377001
 120  -313.1931
 121  71.80045
 122  -349.4291
 123  -527.381
 124  76.48697
 125  211.8542
 126  -74.79984
 127  118.6735
 128  412.3524
 129  204.1391
 130  236.1676
 131  264.0548
 132  524.7491
 133  308.3731
 134  103.7401
 135  274.4862
 136  160.4665
 137  437.8212
 138  125.2816
 139  -525.4362
 140  -249.36
 141  -292.6479
 142  -631.4738
 143  -428.343
 144  -241.971
 145  -95.41219
 146  -466.1082
 147  -445.9018
 148  -758.8373
 149  -938.5592
 150  -859.04
 151  -355.391
 152  -34.39044
 153  22.93118
 154  240.0708
 155  -315.3049
 156  -330.9976
 157  -336.6391
 158  163.1561
 159  925.6273
 160  869.2912
 161  1054.395
 162  1154.214
 163  804.0379
 164  608.0942
 165  877.5745
 166  1277.529
 167  1517.263
 168  1136.3
 169  621.7609
 170  600.0082
 171  442.7476
 172  380.7643
 173  236.9812
 174  771.3235
 175  686.062
 176  989.207
 177  834.3654
 178  797.0293
 179  1003.935
 180  878.2087
 181  1135.833
 182  1078.079
 183  1492.044
 184  1950.132
 185  2264.579
 186  2343.394
 187  2086.869
 188  1231.309
 189  551.0194
 190  398.8252
 191  283.4748
 192  -152.3304
 193  -41.4309
 194  141.0316
 195  215.4122
 196  -193.5957
 197  -257.3214
 198  -90.77733
 199  -174.5067
 200  -66.50419
 201  -61.54718
 202  1.324044
 203  -217.5118
 204  -434.3276
 205  -852.2217
 206  -542.5768
 207  -916.0414
 208  -96.12642
 209  -85.24073
 210  -391.6847
 211  -139.4711
 212  -7.92426
 213  90.03359
 214  47.0918
 215  -57.89886
 216  -170.4957
 217  -187.0728
 218  -57.27782
 219  433.8496
 220  -10.8478
 221  -208.2258
 222  -479.4401
 223  -380.0937
 224  -566.7581
 225  -187.5681
 226  -146.4422
 227  -190.8627
 228  -314.8516
 229  -564.2689
 230  -452.6542
 231  -217.3671
 232  -109.0733
 233  -22.85211
 234  -97.87759
 235  -149.2839
 236  -507.1663
 237  -827.6424
 238  -582.9187
 239  -492.0193
 240  -325.2984
 241  -249.416
 242  -488.7278
 243  -591.9294
 244  -665.2529
 245  -762.2291
 246  -813.0685
 247  -338.9543
 248  -193.2624
 249  -444.9359
 250  -726.0082
 251  -845.3702
 252  -632.239
 253  -598.9734
 254  -423.0555
 255  -480.2173
 256  -796.8009
 257  -682.2532
 258  -1105.796
 259  -1230.659
 260  -750.8281
 261  -749.1633
 262  -929.83
 263  -906.5328
 264  -1160.172
 265  -569.3465
 266  -590.796
 267  -296.1664
 268  -328.0447
 269  -383.1468
 270  115.515
 271  -130.1144
 272  -32.46993
 273  -126.5876
 274  -198.2388
 275  -179.3965
 276  -781.9633
 277  -627.4741
 278  -848.9725
 279  -1077.53
 280  -484.4089
 281  -716.9233
 282  -635.7695
 283  -1068.58
 284  -736.0149
 285  -380.4578
 286  -420.8203
 287  -558.6926
 288  -501.6102
 289  -164.5151
 290  -67.69565
 291  94.9062
 292  146.3307
 293  25.42272
 294  58.29751
 295  216.6057
 296  43.67366
 297  84.70629
 298  -235.2398
 299  -62.63163
 300  26.19089
 301  215.0558
 302  461.4584
 303  615.6406
 304  583.6239
 305  465.3269
 306  522.7863
 307  919.2172
 308  788.4702
 309  560.3399
 310  602.4517
 311  407.6389
 312  820.7264
 313  748.4262
 314  860.3245
 315  723.5394
 316  757.2853
 317  413.3383
 318  407.0998
 319  462.7606
 320  692.9477
 321  575.1536
 322  499.8436
 323  544.2383
 324  236.9439
 325  -259.969
 326  -428.4044
 327  114.7763
 328  296.6743
 329  222.9441
 330  68.17708
 331  367.2108
 332  242.4811
 333  578.9135
 334  604.5995
 335  826.3561
 336  1109.236
 337  957.9256
 338  602.3452
 339  618.8129
 340  580.3612
 341  633.996
 342  629.8755
 343  674.4313
 344  338.0752
 345  154.4398
 346  11.93478
 347  -38.43591
 348  -70.16929
 349  -94.04072
 350  341.1422
 351  343.7744
 352  250.6322
 353  45.24482
 354  12.66905
 355  294.2096
 356  34.44605
 357  76.86179
 358  -54.57693
 359  -98.37098
 360  -378.7795
 361  -592.6123
 362  -779.2632
 363  -388.3705
 364  -320.0843
 365  -584.3602
 366  -892.9135
 367  -780.5879
 368  -596.2303
 369  -480.5954
 370  -716.043
 371  -579.7266
 372  -592.6688
 373  -633.9079
 374  -461.7434
 375  28.67525
 376  -31.56265
 377  -90.05986
 378  -97.29987
 379  -199.6394
 380  -499.1118
 381  -602.8796
 382  -504.3508
 383  -111.2636
 384  211.483
 385  456.706
 386  -123.095
 387  -200.347
 388  -288.4725
 389  -107.5099
 390  29.6216
 391  -261.6932
 392  -330.6622
 393  -388.0173
 394  -498.2207
 395  -651.9619
 396  -646.1426
 397  -247.4906
 398  -549.0464
 399  -486.6125
 400  -332.6666
 401  -134.3055
 402  -333.4714
 403  -7.019966
 404  123.9854
 405  201.7939
 406  169.5574
 407  -312.8861
 408  -596.3026
 409  -557.9036
 410  -210.985
 411  -141.7263
 412  -60.28112
 413  191.4662
 414  -58.94627
 415  -116.1891
 416  -77.08918
 417  -57.78826
 418  -276.2357
 419  227.5309
 420  705.6228
 421  589.5013
 422  584.6309
 423  479.6288
 424  180.3979
 425  220.9351
 426  349.3661
 427  314.8661
 428  121.3946
 429  -59.00205
 430  103.78
 431  -81.70823
 432  -302.7115
 433  -256.3314
 434  -258.2437
 435  -269.0207
 436  -530.2748
 437  -533.6398
 438  -438.394
 439  -555.9963
 440  -785.2235
 441  -779.0942
 442  -299.0404
 443  -518.8788
 444  -316.37
 445  -272.0924
 446  -368.9771
 447  -550.7538
 448  -809.1071
 449  -735.3699
 450  -787.3009
 451  -688.4852
 452  -389.8881
 453  -580.7445
 454  -177.103
 455  -167.993
 456  -244.4492
 457  -223.4911
 458  -360.2033
 459  -268.8856
 460  -381.114
 461  -855.1938
 462  -1011.2
 463  -890.9809
 464  -722.3886
 465  -698.0553
 466  -607.2883
 467  -535.9493
 468  -732.0326
 469  -1045.959
 470  -1105.32
 471  -535.0712
 472  -258.3337
 473  -86.87076
 474  -629.58
 475  -454.9758
 476  -408.1912
 477  -514.6517
 478  -566.7188
 479  -555.5178
 480  -724.363
 481  -842.9417
 482  -494.0721
 483  -634.5572
 484  -562.6998
 485  38.83719
 486  63.33079
 487  164.0418
 488  646.2969
 489  806.6934
 490  444.6122
 491  820.2099
 492  537.5831
 493  610.8355
 494  575.2185
 495  592.497
 496  490.2519
 497  625.5677
 498  564.2253
 499  83.58128
 500  151.32
 501  -116.3641
 502  -145.0942
 503  -314.2747
 504  -258.4312
 505  -415.918
 506  -636.6021
 507  -235.6971
 508  51.70098
 509  132.0764
 510  177.3005
 511  165.9658
