# Input file       =  1208527894.109575-PSRB0329-2ms-sampling-dd.dat
# Candidate        =  PSR_0332+5434
# Telescope        =  AR
# Epoch_topo       =  58231.591586916380
# Epoch_bary       =  N/A
# T_sample         =  0.002
# Data Folded      =  7340032
# Data Avg         =  -2.79495843420072e-09
# Data StdDev      =  9.25016344171267 
# Profile Bins     =  512
# Profile Avg      =  0.25343697294178 
# Profile StdDev   =  1107.55015585761 
# Reduced chi-sqr  =  0.704
# Prob(Noise)      <  1   (~0.0 sigma)
# P_topo (ms)      =  714.553547890776  +/- 0.000983
# P'_topo (s/s)    =  -0                +/- 5.19e-10
# P''_topo (s/s^2) =  0                 +/- 2.29e-13
# P_bary (ms)      =  N/A
# P'_bary (s/s)    =  N/A
# P''_bary (s/s^2) =  N/A
# P_orb (s)        =  N/A
# asin(i)/c (s)    =  N/A
# eccentricity     =  N/A
# w (rad)          =  N/A
# T_peri           =  N/A
######################################################
   0  -1576.815
   1  -1084.108
   2  -867.8169
   3  -1222.45
   4  -1187.198
   5  -480.788
   6  -502.8705
   7  -362.3623
   8  15.85606
   9  4.982696
  10  -83.88195
  11  8.825297
  12  58.62636
  13  -92.97698
  14  -42.97768
  15  -448.0806
  16  -758.709
  17  -589.2893
  18  -930.1432
  19  -902.6859
  20  -1208.478
  21  -855.5142
  22  -1012.287
  23  -1250.691
  24  -1024.956
  25  -946.7136
  26  -771.9957
  27  -621.593
  28  -644.6097
  29  -496.0365
  30  -587.7691
  31  -399.6621
  32  -498.7192
  33  -622.8331
  34  -552.9451
  35  -170.4796
  36  -33.82694
  37  -464.771
  38  -494.0918
  39  -453.642
  40  -184.7726
  41  -299.4048
  42  -307.1519
  43  -541.8193
  44  -712.1108
  45  -1197.428
  46  -837.8747
  47  -643.5494
  48  -386.8191
  49  -202.9101
  50  -278.2375
  51  -416.6736
  52  -748.6345
  53  -1089.838
  54  -777.4674
  55  -688.9592
  56  -25.42916
  57  -173.6362
  58  -354.5504
  59  -604.0973
  60  -470.0922
  61  -213.8475
  62  -674.4619
  63  -490.2937
  64  181.3166
  65  117.288
  66  -224.6535
  67  -777.7955
  68  -190.1744
  69  340.1875
  70  222.0922
  71  626.7212
  72  1091.426
  73  763.5602
  74  372.5358
  75  715.9592
  76  1124.602
  77  782.1878
  78  918.9026
  79  661.1188
  80  706.5608
  81  1106.614
  82  1176.144
  83  1751.157
  84  1929.077
  85  1614.661
  86  1647.865
  87  1535.105
  88  1668.548
  89  1969.925
  90  1583.026
  91  1168.175
  92  1099.233
  93  1287.629
  94  1242.979
  95  924.064
  96  799.9346
  97  1051.883
  98  942.1359
  99  666.1182
 100  591.9814
 101  836.2766
 102  836.0082
 103  809.7302
 104  792.6132
 105  1076.14
 106  277.1343
 107  172.1488
 108  -47.59218
 109  128.3966
 110  493.2702
 111  189.0368
 112  94.30226
 113  266.0023
 114  903.5479
 115  1199.399
 116  351.7293
 117  386.2065
 118  419.8653
 119  35.06255
 120  -101.1795
 121  18.62151
 122  342.0722
 123  -253.2852
 124  -378.9924
 125  -562.4327
 126  -765.7556
 127  -454.1087
 128  -671.6048
 129  -564.8016
 130  -363.829
 131  -487.242
 132  -691.2547
 133  -1125.567
 134  -902.8021
 135  -544.2203
 136  -304.3157
 137  46.50776
 138  155.0909
 139  -218.5952
 140  -158.4655
 141  -241.3515
 142  243.317
 143  -115.3183
 144  -318.5987
 145  -193.3017
 146  -161.0542
 147  356.8367
 148  66.9797
 149  -473.5883
 150  -852.5566
 151  -588.9193
 152  -280.3069
 153  -61.83192
 154  -62.3086
 155  -25.33486
 156  37.89364
 157  -509.5558
 158  -593.3896
 159  -239.8067
 160  -241.0155
 161  -514.2443
 162  -607.5891
 163  -348.6887
 164  -294.9887
 165  -602.7906
 166  -710.1985
 167  -368.7789
 168  -301.3625
 169  -183.7027
 170  -106.2986
 171  -452.8665
 172  -253.0446
 173  -386.724
 174  -397.0396
 175  -380.8011
 176  273.968
 177  234.9228
 178  317.7562
 179  498.9535
 180  298.3229
 181  454.9514
 182  392.3094
 183  323.4984
 184  559.2485
 185  417.3325
 186  544.3539
 187  546.3558
 188  353.6006
 189  198.3762
 190  312.7002
 191  141.9373
 192  9.858208
 193  645.5117
 194  620.0225
 195  192.6629
 196  321.7632
 197  190.9199
 198  290.1783
 199  2.728535
 200  406.1081
 201  538.6585
 202  1093.051
 203  883.8333
 204  938.8735
 205  783.5981
 206  934.0365
 207  917.4153
 208  1192.556
 209  1054.696
 210  864.4378
 211  1032.948
 212  1179.424
 213  1161.188
 214  1111.691
 215  858.3362
 216  553.9767
 217  475.2682
 218  744.2427
 219  434.8569
 220  820.6128
 221  880.8679
 222  419.2685
 223  576.1499
 224  164.9066
 225  131.0345
 226  49.65751
 227  192.3211
 228  179.3282
 229  40.85652
 230  -253.3448
 231  -387.8306
 232  -428.5083
 233  -409.4336
 234  -190.7423
 235  -306.9751
 236  -191.5271
 237  -226.0774
 238  -229.703
 239  230.904
 240  -57.29895
 241  -189.2811
 242  183.0403
 243  82.09727
 244  166.9946
 245  -108.3148
 246  -120.3881
 247  96.20197
 248  337.6526
 249  -322.7194
 250  -282.1372
 251  -518.3282
 252  262.4106
 253  -33.92654
 254  -315.72
 255  -96.11104
 256  -447.2119
 257  -134.9862
 258  -336.1584
 259  -448.7916
 260  -160.2092
 261  66.70568
 262  -259.599
 263  -306.8726
 264  172.198
 265  -97.19311
 266  116.9243
 267  688.9666
 268  631.0989
 269  543.2031
 270  348.5671
 271  593.9476
 272  669.1735
 273  488.0472
 274  892.6461
 275  576.3641
 276  464.0899
 277  45.76871
 278  -308.4057
 279  -353.7799
 280  -166.2508
 281  228.7418
 282  305.7742
 283  93.79106
 284  103.4764
 285  212.6258
 286  268.3941
 287  165.1143
 288  -150.0028
 289  219.0673
 290  296.1317
 291  92.36703
 292  -232.3899
 293  -269.2007
 294  -180.3442
 295  272.1559
 296  241.9198
 297  140.1747
 298  -255.8613
 299  80.33938
 300  132.136
 301  36.76288
 302  0.1745073
 303  -497.4888
 304  -713.7957
 305  -649.72
 306  -317.8151
 307  -607.6285
 308  -510.4521
 309  -748.8699
 310  -906.4507
 311  -772.0969
 312  -513.9731
 313  -547.824
 314  -840.4928
 315  -831.0323
 316  -656.5716
 317  -643.4708
 318  -594.1241
 319  -543.6761
 320  -501.4569
 321  -867.7411
 322  -979.364
 323  -890.4026
 324  -331.5775
 325  -773.507
 326  -392.3839
 327  -294.8856
 328  -1044.36
 329  -450.3123
 330  -301.4716
 331  -416.1753
 332  -768.6019
 333  -199.2288
 334  37.87428
 335  -435.3278
 336  -457.2428
 337  -618.3214
 338  -810.9598
 339  -607.963
 340  -591.4869
 341  -642.5962
 342  -507.5102
 343  -593.5611
 344  -799.5889
 345  -1060.198
 346  -1255.844
 347  -558.5198
 348  -379.7941
 349  -361.9221
 350  -95.76771
 351  184.1367
 352  -60.58812
 353  -370.6747
 354  86.34585
 355  381.3274
 356  714.5704
 357  1322.023
 358  1121.972
 359  921.4915
 360  755.5593
 361  900.3986
 362  1067.439
 363  1372.754
 364  1323.174
 365  1234.176
 366  1176.96
 367  1054.798
 368  1081.802
 369  1059.83
 370  1280.519
 371  952.9566
 372  622.7896
 373  618.1117
 374  428.5686
 375  835.3229
 376  644.9778
 377  424.5251
 378  245.5675
 379  262.7852
 380  343.109
 381  322.3633
 382  683.2524
 383  805.9728
 384  393.6652
 385  465.3647
 386  169.8001
 387  270.5913
 388  39.71743
 389  479.7076
 390  392.3722
 391  234.7024
 392  264.5213
 393  100.2073
 394  -40.05498
 395  313.2319
 396  969.4102
 397  905.5961
 398  881.625
 399  599.0668
 400  778.2532
 401  1013.128
 402  1155.119
 403  1134.392
 404  560.6851
 405  320.4612
 406  740.0643
 407  1139.322
 408  637.114
 409  688.7367
 410  599.8593
 411  483.5616
 412  395.8742
 413  339.0583
 414  350.9697
 415  612.0564
 416  789.355
 417  1277.436
 418  1892.191
 419  2165.807
 420  2218.831
 421  1598.298
 422  748.2253
 423  177.2379
 424  266.3735
 425  295.3313
 426  152.8381
 427  -273.9843
 428  -557.0505
 429  -374.9561
 430  59.97505
 431  28.43872
 432  64.15279
 433  -88.18798
 434  -179.8794
 435  -309.3493
 436  -441.1011
 437  -500.7682
 438  -613.5202
 439  -485.6007
 440  -296.8244
 441  -363.7406
 442  -24.6591
 443  -11.73705
 444  -12.7967
 445  -413.3584
 446  -141.6707
 447  18.29804
 448  81.63673
 449  -276.8067
 450  -195.8747
 451  119.374
 452  -44.27193
 453  182.8589
 454  222.2471
 455  109.6007
 456  -165.3815
 457  -129.1932
 458  -33.66925
 459  -181.3475
 460  -237.4286
 461  -676.1572
 462  -286.0829
 463  -224.3214
 464  89.46484
 465  361.7326
 466  229.3828
 467  -232.0228
 468  -157.6498
 469  41.84707
 470  -322.7441
 471  -430.7279
 472  -237.6647
 473  -270.2526
 474  -638.4486
 475  -602.2715
 476  -468.3942
 477  -422.0304
 478  -665.1046
 479  -946.7687
 480  -999.6027
 481  -917.9453
 482  -1129.699
 483  -1116.274
 484  -861.5337
 485  -929.2216
 486  -988.6655
 487  -1104.877
 488  -778.4137
 489  -925.3281
 490  -572.2028
 491  -248.9061
 492  -264.3541
 493  -963.6299
 494  -1544.923
 495  -1297.978
 496  -1011.683
 497  -958.9493
 498  -524.4421
 499  -457.2979
 500  -1039.054
 501  -1184.496
 502  -1071.139
 503  -968.4841
 504  -1117.08
 505  -1106.254
 506  -641.0864
 507  -942.0306
 508  -1388.408
 509  -1151.515
 510  -1154.83
 511  -1417.183
