# Input file       =  1208857737.106156-PSRB0329-2ms-sampling-dd.dat
# Candidate        =  PSR_0332+5434
# Telescope        =  AR
# Epoch_topo       =  58235.409214191619
# Epoch_bary       =  N/A
# T_sample         =  0.002
# Data Folded      =  7340032
# Data Avg         =  -2.00295404725414e-09
# Data StdDev      =  8.91282527778205 
# Profile Bins     =  512
# Profile Avg      =  0.355931945096752
# Profile StdDev   =  1067.15963320444 
# Reduced chi-sqr  =  0.648
# Prob(Noise)      <  1   (~0.0 sigma)
# P_topo (ms)      =  714.549921335877  +/- 0.00086
# P'_topo (s/s)    =  -0                +/- 4.54e-10
# P''_topo (s/s^2) =  0                 +/- 2e-13
# P_bary (ms)      =  N/A
# P'_bary (s/s)    =  N/A
# P''_bary (s/s^2) =  N/A
# P_orb (s)        =  N/A
# asin(i)/c (s)    =  N/A
# eccentricity     =  N/A
# w (rad)          =  N/A
# T_peri           =  N/A
######################################################
   0  -1176.891
   1  -1148.842
   2  -1071.326
   3  -1062.335
   4  -772.4004
   5  -746.5065
   6  -1075.419
   7  -1206.588
   8  -936.1254
   9  -653.9956
  10  -639.3652
  11  -701.5961
  12  -681.6909
  13  -606.2569
  14  -500.1387
  15  -743.4268
  16  -815.0044
  17  -690.5355
  18  -841.3969
  19  -616.7468
  20  -750.4988
  21  -441.3335
  22  -474.933
  23  -618.1057
  24  -499.3935
  25  -581.9958
  26  -199.9557
  27  111.2588
  28  55.16817
  29  -274.6708
  30  -326.3881
  31  -348.1556
  32  -515.8392
  33  -281.3373
  34  -260.6034
  35  -44.43885
  36  -400.1963
  37  -664.1545
  38  -322.0829
  39  -149.2052
  40  -11.71564
  41  214.6584
  42  -406.7238
  43  -747.4198
  44  -517.6309
  45  -545.1023
  46  -278.4935
  47  -627.0162
  48  -543.8344
  49  -651.8023
  50  -789.2286
  51  -268.0568
  52  -157.4952
  53  106.7003
  54  241.0775
  55  173.1184
  56  282.3222
  57  42.38147
  58  226.617
  59  518.7016
  60  666.3682
  61  936.7734
  62  965.0889
  63  794.0928
  64  622.7823
  65  455.8471
  66  503.0158
  67  214.6007
  68  282.7449
  69  711.7355
  70  699.6694
  71  719.9225
  72  677.1979
  73  315.5338
  74  384.3088
  75  331.3864
  76  343.4967
  77  379.8651
  78  -96.66004
  79  298.9001
  80  935.0438
  81  1357.412
  82  1216.735
  83  1245.643
  84  616.7884
  85  1203.401
  86  786.583
  87  939.145
  88  1462.711
  89  440.099
  90  1416.75
  91  2032.033
  92  2731.877
  93  2667.879
  94  1905.573
  95  694.4652
  96  232.8197
  97  635.6353
  98  2118.18
  99  2263.85
 100  1974.007
 101  1484.87
 102  722.049
 103  606.1718
 104  624.5251
 105  440.9635
 106  591.8252
 107  606.1625
 108  107.1668
 109  549.955
 110  238.4395
 111  227.1859
 112  -167.8539
 113  -132.5249
 114  229.3226
 115  -96.05847
 116  -245.9392
 117  90.58634
 118  -27.49632
 119  -224.6394
 120  -120.1058
 121  -412.9935
 122  35.42181
 123  21.15245
 124  -101.3128
 125  131.9223
 126  215.193
 127  -4.118213
 128  95.47596
 129  106.1696
 130  768.1035
 131  649.7225
 132  751.6157
 133  352.9323
 134  330.6328
 135  364.0518
 136  738.79
 137  292.1958
 138  417.1251
 139  433.2044
 140  -275.7537
 141  -142.5914
 142  256.9409
 143  201.496
 144  168.261
 145  125.4097
 146  156.5859
 147  86.1647
 148  311.5964
 149  625.6553
 150  997.6978
 151  1046.021
 152  970.8957
 153  659.3554
 154  732.954
 155  491.529
 156  968.2477
 157  879.8427
 158  635.1456
 159  697.9965
 160  800.1512
 161  660.03
 162  142.1405
 163  916.5959
 164  875.5669
 165  689.2144
 166  719.0063
 167  645.0472
 168  442.9044
 169  -195.2137
 170  -440.7106
 171  -70.56355
 172  270.2111
 173  315.2132
 174  337.071
 175  3.836283
 176  -284.6994
 177  -1077.936
 178  -166.6263
 179  94.54112
 180  511.9185
 181  631.4587
 182  710.1722
 183  359.611
 184  -722.1754
 185  -774.7186
 186  -689.0244
 187  -284.2319
 188  -445.6442
 189  -226.7762
 190  87.03205
 191  -333.4774
 192  33.31899
 193  377.5796
 194  -270.9862
 195  -524.4343
 196  558.576
 197  998.0571
 198  1242.884
 199  842.2063
 200  489.0528
 201  1.266517
 202  59.95236
 203  159.9925
 204  282.354
 205  274.6422
 206  64.3678
 207  206.8682
 208  261.9229
 209  -52.76656
 210  -482.9862
 211  -368.2711
 212  -215.7342
 213  71.96175
 214  -67.48685
 215  -315.0663
 216  -593.5735
 217  -566.4441
 218  -526.8044
 219  -93.18752
 220  -200.0607
 221  -496.5386
 222  -712.2645
 223  -764.7551
 224  -685.1591
 225  -516.7964
 226  -228.7785
 227  37.84765
 228  -25.01103
 229  191.2785
 230  63.04137
 231  575.5184
 232  711.9699
 233  978.4683
 234  872.595
 235  934.9728
 236  290.1731
 237  201.9422
 238  215.1378
 239  556.6395
 240  776.2977
 241  584.8861
 242  138.3351
 243  139.6602
 244  329.4336
 245  200.146
 246  13.92485
 247  -415.3153
 248  -423.9333
 249  -517.7874
 250  -306.7183
 251  9.794613
 252  -363.5032
 253  -495.266
 254  -500.0023
 255  -410.6751
 256  -21.92478
 257  -367.7926
 258  -528.0621
 259  -641.5748
 260  -469.38
 261  -923.9694
 262  -829.2693
 263  -766.5054
 264  -906.8201
 265  -790.2407
 266  -764.0659
 267  -805.957
 268  -250.5822
 269  -380.0273
 270  -761.9097
 271  -1106.185
 272  -531.2755
 273  -78.19549
 274  -176.1363
 275  -152.4056
 276  198.2997
 277  172.5294
 278  519.6423
 279  550.7533
 280  466.2981
 281  448.5304
 282  335.527
 283  305.8258
 284  171.7753
 285  -58.86412
 286  159.1998
 287  92.14855
 288  162.6236
 289  180.3046
 290  52.34242
 291  143.1511
 292  -167.7567
 293  -518.015
 294  -351.9935
 295  -165.0886
 296  -550.3189
 297  -564.2161
 298  71.06036
 299  -48.64036
 300  -57.11247
 301  366.7274
 302  930.8357
 303  354.9977
 304  335.7468
 305  148.0442
 306  120.8535
 307  633.7764
 308  453.5466
 309  240.8947
 310  77.3819
 311  -294.1438
 312  -415.3742
 313  -425.909
 314  -222.8269
 315  -497.4855
 316  169.0926
 317  463.4921
 318  486.9129
 319  904.4858
 320  1171.687
 321  1531.685
 322  1996.524
 323  1946.937
 324  2316.897
 325  2255.502
 326  1360.26
 327  668.1887
 328  156.284
 329  -133.7898
 330  -663.8553
 331  -613.932
 332  -322.3631
 333  13.79018
 334  282.5286
 335  536.0702
 336  459.9292
 337  179.8109
 338  74.22861
 339  22.82299
 340  15.82697
 341  -434.36
 342  -362.5275
 343  -369.6334
 344  -524.8116
 345  -703.2502
 346  -841.7728
 347  -579.7856
 348  -161.9006
 349  -219.5139
 350  -383.4675
 351  -501.4384
 352  -352.3445
 353  -526.0806
 354  -507.614
 355  -355.8848
 356  -461.4202
 357  -447.0947
 358  -582.2366
 359  -545.1032
 360  -254.8964
 361  -287.0618
 362  -493.0827
 363  -501.5044
 364  -825.2692
 365  -370.117
 366  -519.0416
 367  -615.6061
 368  -732.4105
 369  -686.6474
 370  -746.2742
 371  -617.2599
 372  -767.2369
 373  -622.4686
 374  -917.944
 375  -927.4618
 376  -854.7819
 377  -1003.577
 378  -567.6188
 379  -798.409
 380  -899.6381
 381  -1009.694
 382  -802.1757
 383  -917.7222
 384  -930.5025
 385  -841.8039
 386  -756.0239
 387  -743.4987
 388  -320.4086
 389  -443.3058
 390  -687.1104
 391  -771.1525
 392  -569.5001
 393  -346.1718
 394  -307.8145
 395  -131.2228
 396  -474.7008
 397  -793.2682
 398  -779.1844
 399  -584.8616
 400  -526.0334
 401  -162.0192
 402  -254.5878
 403  -388.066
 404  -696.6232
 405  -746.3231
 406  -351.2009
 407  -337.8832
 408  142.3681
 409  0.3697952
 410  133.5647
 411  -135.7886
 412  -259.5854
 413  -165.8003
 414  -162.4471
 415  -77.6253
 416  -173.6954
 417  -173.9492
 418  -389.2219
 419  -707.0793
 420  -476.919
 421  -244.329
 422  -64.30495
 423  123.669
 424  -61.15744
 425  -137.2282
 426  -347.4557
 427  -255.9272
 428  -143.3383
 429  251.0356
 430  345.547
 431  100.1673
 432  184.5772
 433  -338.7014
 434  -207.2237
 435  413.2395
 436  285.8351
 437  296.6967
 438  26.37875
 439  137.0584
 440  295.1302
 441  6.628017
 442  278.8841
 443  87.18304
 444  127.8168
 445  324.1796
 446  132.6499
 447  191.5939
 448  123.0097
 449  240.9917
 450  409.1376
 451  365.3555
 452  253.7716
 453  724.368
 454  1237.766
 455  743.9521
 456  435.9883
 457  463.434
 458  1203.868
 459  629.6335
 460  282.7494
 461  -552.0434
 462  -801.329
 463  -270.0618
 464  -47.58116
 465  228.537
 466  38.12925
 467  -572.7029
 468  -661.8667
 469  -431.2522
 470  -276.2507
 471  -201.568
 472  53.63129
 473  28.353
 474  -229.933
 475  -306.2124
 476  -557.9935
 477  -505.4571
 478  -157.7035
 479  47.14243
 480  -503.9159
 481  -338.1822
 482  -533.2921
 483  -458.2263
 484  -221.0739
 485  -105.2566
 486  21.04257
 487  25.87828
 488  -100.2521
 489  -168.8187
 490  39.9837
 491  151.8506
 492  280.7171
 493  -109.7381
 494  -247.3318
 495  -456.2622
 496  -493.8593
 497  -596.3254
 498  -599.3517
 499  -530.2173
 500  -128.614
 501  -168.6891
 502  -372.9385
 503  -666.841
 504  -449.0576
 505  -129.2307
 506  254.278
 507  98.24286
 508  -21.6351
 509  -238.3416
 510  -479.5258
 511  -774.7749
