# Input file       =  1208857737.106156_cleaned.dat
# Candidate        =  PSR_0332+5434
# Telescope        =  AR
# Epoch_topo       =  58235.409214191619
# Epoch_bary       =  N/A
# T_sample         =  0.002
# Data Folded      =  7340032
# Data Avg         =  0.29912357017955 
# Data StdDev      =  6.2453157175541  
# Profile Bins     =  512
# Profile Avg      =  4288.24308221332 
# Profile StdDev   =  747.770613994294 
# Reduced chi-sqr  =  0.765
# Prob(Noise)      <  1   (~0.0 sigma)
# P_topo (ms)      =  714.549921409433  +/- 0.000413
# P'_topo (s/s)    =  -0                +/- 2.18e-10
# P''_topo (s/s^2) =  0                 +/- 9.63e-14
# P_bary (ms)      =  N/A
# P'_bary (s/s)    =  N/A
# P''_bary (s/s^2) =  N/A
# P_orb (s)        =  N/A
# asin(i)/c (s)    =  N/A
# eccentricity     =  N/A
# w (rad)          =  N/A
# T_peri           =  N/A
######################################################
   0  4090.128
   1  4125.449
   2  4154.602
   3  4380.855
   4  4604.432
   5  4739.764
   6  4453.371
   7  4362.044
   8  4254.137
   9  4003.988
  10  3864.981
  11  4114.265
  12  4196.272
  13  4314.093
  14  3835.531
  15  3825.606
  16  4047.554
  17  4080.569
  18  4325.554
  19  4419.639
  20  3929.128
  21  4106.857
  22  4108.116
  23  4261.001
  24  4407.939
  25  4096.066
  26  4361.822
  27  4201.779
  28  4478.021
  29  4906.301
  30  4773.904
  31  4891.02
  32  4829.331
  33  4923.007
  34  4804.103
  35  4807.219
  36  5251.655
  37  5409.543
  38  5352.815
  39  5396.542
  40  5232.828
  41  4993.616
  42  4671.304
  43  4710.161
  44  4730.753
  45  4494.372
  46  4692.112
  47  4786.866
  48  4868.653
  49  5040.856
  50  4625.82
  51  4522.918
  52  4423.241
  53  4349.657
  54  4512.875
  55  4492.802
  56  4477.337
  57  4816.343
  58  4987.921
  59  4809.201
  60  4739.002
  61  4426.287
  62  4343.727
  63  4549.009
  64  4554.753
  65  4423.572
  66  4738.655
  67  4424.366
  68  4129.272
  69  4168.652
  70  4445.66
  71  4243.028
  72  4276.422
  73  4481.725
  74  4200.45
  75  4067.186
  76  4539.959
  77  4436.74
  78  4505.613
  79  4612.438
  80  4618.216
  81  4178.57
  82  4215
  83  4466.249
  84  4542.838
  85  4070.781
  86  3890.251
  87  4236.229
  88  3967.76
  89  4194.097
  90  3928.868
  91  4179.746
  92  4216.768
  93  3958.332
  94  4215.782
  95  4524.88
  96  4300.325
  97  4278.329
  98  4408.701
  99  4315.089
 100  4811.068
 101  4639.385
 102  4893.617
 103  5010.465
 104  4632.45
 105  4739.344
 106  4811.991
 107  4938.221
 108  4938.759
 109  4825.395
 110  4950.673
 111  4929.584
 112  4936.84
 113  5105.772
 114  4964.291
 115  4739.8
 116  4821.196
 117  4275.025
 118  4267.07
 119  4706.49
 120  4884.545
 121  4839.02
 122  4765.84
 123  4718.046
 124  4555.222
 125  4653.36
 126  4845.964
 127  5067.198
 128  4802.618
 129  4942.951
 130  4697.352
 131  4780.412
 132  5170.174
 133  5449.112
 134  5538.95
 135  4969.557
 136  4684.666
 137  4638.006
 138  4643.061
 139  4643.684
 140  5082.791
 141  5233.648
 142  4906.218
 143  4502.745
 144  4515.907
 145  4455.974
 146  4190.628
 147  4063.899
 148  3912.679
 149  3801.242
 150  3330.35
 151  3266.691
 152  3130.209
 153  3144.782
 154  3056.672
 155  3140.162
 156  3844.666
 157  3444.601
 158  3399.352
 159  3752.791
 160  3834.97
 161  3508.148
 162  3287.972
 163  3701.475
 164  3598.872
 165  3478.582
 166  3625.14
 167  3620.42
 168  3588.286
 169  3463.624
 170  4183.844
 171  4107.558
 172  3889.94
 173  3974.172
 174  4273.001
 175  4318.433
 176  4731.894
 177  4645.006
 178  4524.716
 179  4764.877
 180  4857.557
 181  4741.912
 182  4435.176
 183  4149.772
 184  4110.037
 185  4266.05
 186  4487.029
 187  4133.138
 188  3890.854
 189  3879.988
 190  4111.476
 191  4349.128
 192  4259.341
 193  4171.714
 194  4090.467
 195  4213.723
 196  4280.75
 197  4505.408
 198  4386.069
 199  4156.487
 200  4008.475
 201  3863.483
 202  3913.201
 203  4069.618
 204  4317.496
 205  4601.782
 206  4653.514
 207  4513.789
 208  4560.386
 209  4801.043
 210  4950.278
 211  4829.848
 212  5195.567
 213  4927.833
 214  4502.132
 215  4398.757
 216  4537.689
 217  4544.38
 218  4727.157
 219  4354.359
 220  4191.034
 221  4395.124
 222  4457.251
 223  4212.066
 224  4035.104
 225  3749.573
 226  3879.703
 227  3727.293
 228  3873.597
 229  4042.734
 230  3759.275
 231  3890.836
 232  3639.473
 233  4036.375
 234  4189.706
 235  3818.025
 236  3763.615
 237  4086.444
 238  3833.897
 239  3591.938
 240  3952.976
 241  3953.681
 242  4022.175
 243  4195.779
 244  4130.735
 245  4082.239
 246  4588.817
 247  4478.907
 248  4131.301
 249  3940.209
 250  4663.991
 251  4775.675
 252  4572.557
 253  4869.213
 254  4808.349
 255  4742.641
 256  4754.198
 257  4882.423
 258  4667.155
 259  4939.778
 260  4929.89
 261  4968.841
 262  4421.927
 263  4493.516
 264  4346.273
 265  4226.556
 266  4360.691
 267  4168.205
 268  4297.357
 269  4299.939
 270  4118.367
 271  3833.879
 272  4199.171
 273  4042.717
 274  3780.702
 275  4266.452
 276  4494.067
 277  4232.298
 278  4260.342
 279  4704.664
 280  4685.132
 281  4493.062
 282  4717.615
 283  4272.608
 284  4223.139
 285  4291.338
 286  4201.316
 287  4294.476
 288  4283.589
 289  4005.9
 290  4198.227
 291  4276.437
 292  4092.15
 293  4081.437
 294  4683.034
 295  4607.445
 296  4498.649
 297  4686.583
 298  5087.558
 299  5800.74
 300  6056.791
 301  6195.885
 302  6078.83
 303  5655.677
 304  4914.791
 305  4159.826
 306  4050.141
 307  3610.302
 308  3251.078
 309  3347.34
 310  3468.458
 311  4060.753
 312  4427.117
 313  4570.684
 314  4311.438
 315  4150.066
 316  4310.249
 317  4503.6
 318  4504.921
 319  4532.218
 320  4722.049
 321  4571.296
 322  4372.953
 323  4109.848
 324  4211.921
 325  4636.602
 326  4900.273
 327  4490.973
 328  4222.878
 329  4185.735
 330  4324.375
 331  4042.972
 332  4116.495
 333  4005.768
 334  4244.646
 335  4204.078
 336  4200.105
 337  4203.771
 338  4414.619
 339  4088.975
 340  4126.438
 341  3892.141
 342  3905.42
 343  4084.327
 344  3628.787
 345  3587.583
 346  3621.727
 347  3824.085
 348  3974.594
 349  4098.238
 350  4085.935
 351  4084.649
 352  3693.085
 353  3723.281
 354  3550.556
 355  3788.881
 356  4127.784
 357  3936.316
 358  3793.678
 359  3649.239
 360  3537.345
 361  3282.322
 362  3511.916
 363  3523.725
 364  3655.975
 365  3828.46
 366  4105.721
 367  3646.911
 368  3339.21
 369  3344.452
 370  3473.862
 371  3577.606
 372  3811.615
 373  3897.357
 374  3361.707
 375  3270.483
 376  3441.073
 377  3639.644
 378  3896.136
 379  4077.192
 380  4189.975
 381  3903.549
 382  3714.115
 383  3810.306
 384  4149.913
 385  4344.036
 386  4416.874
 387  4346.962
 388  4592.135
 389  4510.574
 390  4423.822
 391  4411.501
 392  4132.733
 393  4464.348
 394  4482.936
 395  4629.676
 396  4099.275
 397  4264.204
 398  4386.442
 399  4673.725
 400  4933.71
 401  4884.451
 402  4592.461
 403  4435.973
 404  4450.659
 405  4353.897
 406  4448.319
 407  4685.196
 408  4462.167
 409  4574.228
 410  4159.644
 411  3856.009
 412  4313.684
 413  4305.873
 414  3936.78
 415  4053.643
 416  4104.891
 417  3967.113
 418  3660.167
 419  3529.93
 420  3909.099
 421  3930.567
 422  4466.778
 423  4666.289
 424  4376.67
 425  4421.213
 426  4398.718
 427  4293.647
 428  4527.812
 429  4678.846
 430  4466.004
 431  4719.999
 432  4799.34
 433  4416.275
 434  4123.328
 435  4082.436
 436  3975
 437  3450.93
 438  3491.717
 439  3272.734
 440  3555.573
 441  4166.249
 442  4294.978
 443  4393.062
 444  4002.934
 445  3584.424
 446  3596.812
 447  3810.442
 448  3867.443
 449  3875.459
 450  4108.591
 451  3914.726
 452  3720.621
 453  3605.123
 454  3561.217
 455  3845.431
 456  4322.436
 457  4346.546
 458  4253.432
 459  4336.117
 460  4168.11
 461  4412.715
 462  4443.284
 463  4716.778
 464  4884.817
 465  4877.868
 466  4792.15
 467  4857.519
 468  5004.913
 469  5178.249
 470  4817.583
 471  4692.795
 472  4671.308
 473  4644.097
 474  4543.915
 475  4294.68
 476  4172.771
 477  4382.302
 478  4275.145
 479  3920.861
 480  4012.031
 481  3861.683
 482  3922.733
 483  3850.073
 484  3882.364
 485  3476.919
 486  3639.9
 487  3839.608
 488  3867.982
 489  3687.11
 490  3648.102
 491  3829.761
 492  3885.061
 493  4034.952
 494  4242.623
 495  3979.279
 496  3534.184
 497  3444.439
 498  3864.861
 499  4006.512
 500  4038.421
 501  3918.409
 502  4232.793
 503  4214.162
 504  4246.233
 505  4219.481
 506  4489.986
 507  4390.174
 508  4233.797
 509  4418.032
 510  4230.228
 511  4306.752
