# Input file       =  1208498346.111598_cleaned.dat
# Candidate        =  PSR_0332+5434
# Telescope        =  AR
# Epoch_topo       =  58231.249596199050
# Epoch_bary       =  N/A
# T_sample         =  0.002
# Data Folded      =  7208960
# Data Avg         =  0.0299575849172529
# Data StdDev      =  1.00020954804028 
# Profile Bins     =  512
# Profile Avg      =  421.820171026128 
# Profile StdDev   =  118.684040591279 
# Reduced chi-sqr  =  1.767
# Prob(Noise)      <  3.83e-24   (~10.1 sigma)
# P_topo (ms)      =  714.553473920977  +/- 0.000142
# P'_topo (s/s)    =  -0                +/- 7.63e-11
# P''_topo (s/s^2) =  0                 +/- 3.43e-14
# P_bary (ms)      =  N/A
# P'_bary (s/s)    =  N/A
# P''_bary (s/s^2) =  N/A
# P_orb (s)        =  N/A
# asin(i)/c (s)    =  N/A
# eccentricity     =  N/A
# w (rad)          =  N/A
# T_peri           =  N/A
######################################################
   0  379.0803
   1  374.4875
   2  478.6065
   3  496.6047
   4  464.8107
   5  422.7665
   6  465.218
   7  286.0187
   8  235.3761
   9  299.8203
  10  282.1197
  11  238.921
  12  267.8555
  13  337.0434
  14  391.0113
  15  482.7969
  16  601.6852
  17  520.7042
  18  357.5801
  19  322.1408
  20  389.6759
  21  365.1341
  22  229.273
  23  364.2634
  24  395.4718
  25  426.0654
  26  395.9672
  27  329.8567
  28  428.2559
  29  387.7339
  30  345.1881
  31  270.2489
  32  249.0766
  33  507.4955
  34  479.4795
  35  298.7426
  36  366.0477
  37  417.0819
  38  254.7504
  39  224.4776
  40  364.4195
  41  313.1084
  42  426.3972
  43  457.3024
  44  419.2797
  45  426.6409
  46  298.7097
  47  347.6339
  48  408.3509
  49  487.952
  50  468.2407
  51  427.1339
  52  444.485
  53  549.5226
  54  515.22
  55  473.1475
  56  375.5028
  57  459.7455
  58  487.3566
  59  436.7483
  60  298.1712
  61  339.221
  62  371.5771
  63  385.2527
  64  312.6444
  65  388.255
  66  474.2326
  67  345.8883
  68  300.3723
  69  501.4517
  70  425.7845
  71  413.9101
  72  300.2605
  73  473.845
  74  480.4484
  75  401.4073
  76  428.7087
  77  399.4944
  78  366.8256
  79  268.4961
  80  349.5831
  81  479.2646
  82  605.8738
  83  523.4103
  84  403.7222
  85  393.467
  86  467.1478
  87  481.0576
  88  392.7403
  89  195.557
  90  335.3467
  91  398.9238
  92  405.2609
  93  392.8798
  94  470.1432
  95  523.3784
  96  400.4595
  97  445.9687
  98  423.0577
  99  488.1037
 100  494.2215
 101  416.3385
 102  419.804
 103  464.3803
 104  443.8427
 105  453.4026
 106  489.0116
 107  486.1469
 108  358.9521
 109  218.1994
 110  256.4494
 111  317.4043
 112  357.6945
 113  411.2758
 114  403.5141
 115  426.8553
 116  437.433
 117  433.3609
 118  506.1768
 119  524.5477
 120  466.9557
 121  517.1137
 122  343.2323
 123  443.9314
 124  422.0531
 125  376.3695
 126  469.1076
 127  463.7505
 128  456.6577
 129  591.0208
 130  532.1545
 131  463.2454
 132  427.4555
 133  590.9401
 134  623.1183
 135  564.5842
 136  374.7937
 137  495.0786
 138  495.1242
 139  395.5198
 140  235.1964
 141  299.7049
 142  318.7671
 143  437.6249
 144  529.5236
 145  543.0945
 146  428.4289
 147  400.5434
 148  434.9404
 149  333.7119
 150  424.4477
 151  500.1962
 152  471.6166
 153  464.8847
 154  417.9346
 155  466.331
 156  529.6022
 157  580.244
 158  518.5555
 159  322.4969
 160  333.7873
 161  399.8578
 162  447.2009
 163  527.4161
 164  577.5393
 165  593.7093
 166  477.3863
 167  576.464
 168  453.7369
 169  465.1582
 170  385.8033
 171  282.1211
 172  268.1641
 173  355.2166
 174  431.167
 175  456.5477
 176  314.8115
 177  363.1681
 178  563.535
 179  601.7324
 180  518.5206
 181  451.8956
 182  407.5423
 183  445.3811
 184  410.1333
 185  382.7942
 186  329.3305
 187  221.2422
 188  347.5314
 189  249.9248
 190  190.1285
 191  425.8
 192  472.0481
 193  379.2792
 194  349.8513
 195  437.0163
 196  447.4024
 197  349.7238
 198  420.1028
 199  525.4868
 200  586.9386
 201  424.8549
 202  384.7008
 203  486.798
 204  436.6555
 205  536.0235
 206  551.6621
 207  656.9861
 208  397.5273
 209  328.4871
 210  419.1918
 211  486.562
 212  470.09
 213  429.7585
 214  474.3481
 215  510.8927
 216  528.0931
 217  425.1351
 218  428.3578
 219  591.7057
 220  433.1598
 221  329.3203
 222  406.3346
 223  413.3431
 224  381.9062
 225  328.3645
 226  414.1244
 227  388.0656
 228  406.6783
 229  527.0059
 230  589.9704
 231  509.5679
 232  542.7696
 233  460.1539
 234  427.0052
 235  462.7061
 236  383.3916
 237  471.1988
 238  476.9347
 239  511.3622
 240  439.9791
 241  241.3534
 242  205.1892
 243  457.5195
 244  497.9734
 245  446.6689
 246  400.6479
 247  546.3256
 248  520.6882
 249  414.4659
 250  394.8915
 251  377.3379
 252  413.6808
 253  403.7639
 254  507.4396
 255  393.4824
 256  419.1854
 257  564.9493
 258  591.3553
 259  536.106
 260  558.8766
 261  430.7833
 262  542.9545
 263  853.0369
 264  1083.119
 265  1231.009
 266  1300.899
 267  1109.521
 268  826.7626
 269  563.8211
 270  529.4021
 271  479.2601
 272  498.3167
 273  486.1526
 274  360.7726
 275  292.6314
 276  259.197
 277  519.241
 278  536.0395
 279  396.6599
 280  447.7223
 281  540.2585
 282  507.5621
 283  403.0661
 284  427.9391
 285  446.438
 286  484.6041
 287  455.1744
 288  469.5657
 289  454.3806
 290  245.9929
 291  199.3872
 292  360.3258
 293  621.8538
 294  534.3527
 295  399.7681
 296  421.2973
 297  453.618
 298  417.3442
 299  473.6625
 300  539.8422
 301  532.6633
 302  465.2829
 303  290.5045
 304  282.9226
 305  344.0923
 306  323.8181
 307  358.5009
 308  472.4081
 309  554.3224
 310  449.7783
 311  479.1682
 312  370.0241
 313  333.6208
 314  282.9927
 315  421.4657
 316  478.0902
 317  341.5224
 318  468.4578
 319  382.3891
 320  418.9163
 321  298.2668
 322  297.4487
 323  429.1033
 324  405.0273
 325  320.812
 326  303.5597
 327  392.3326
 328  456.1291
 329  474.192
 330  386.2196
 331  392.6451
 332  403.0384
 333  305.5782
 334  293.7077
 335  369.3868
 336  372.4054
 337  215.8897
 338  295.6736
 339  299.519
 340  348.5627
 341  390.5763
 342  382.6985
 343  330.2323
 344  179.7592
 345  353.7713
 346  402.3826
 347  474.0015
 348  308.3047
 349  360.4425
 350  324.2334
 351  329.2978
 352  229.8588
 353  352.4224
 354  349.0533
 355  327.5324
 356  357.3235
 357  449.6107
 358  531.2828
 359  359.4374
 360  358.1989
 361  468.1386
 362  489.5126
 363  493.3459
 364  444.6037
 365  352.068
 366  407.5122
 367  506.6629
 368  473.1142
 369  360.3588
 370  366.725
 371  405.7007
 372  413.7813
 373  338.7862
 374  421.2954
 375  402.6991
 376  450.522
 377  331.7589
 378  371.7661
 379  447.4582
 380  591.0784
 381  622.7249
 382  438.7833
 383  445.9853
 384  403.2088
 385  397.2242
 386  522.5219
 387  479.6942
 388  408.518
 389  394.9447
 390  376.0779
 391  375.4936
 392  553.0946
 393  632.6884
 394  493.526
 395  469.9076
 396  421.8372
 397  432.6603
 398  284.3734
 399  317.1167
 400  356.5316
 401  331.6161
 402  284.9102
 403  285.2804
 404  395.9107
 405  494.6371
 406  404.8057
 407  347.8943
 408  361.0001
 409  430.8848
 410  459.5271
 411  409.4112
 412  387.2947
 413  402.0186
 414  326.1654
 415  374.2249
 416  471.8282
 417  432.2641
 418  323.2727
 419  340.1615
 420  345.6013
 421  334.5666
 422  389.32
 423  362.1639
 424  346.0994
 425  336.5009
 426  327.7039
 427  314.5902
 428  286.3816
 429  382.4365
 430  454.2959
 431  341.6475
 432  333.5439
 433  414.8596
 434  395.9751
 435  368.6444
 436  313.196
 437  227.0657
 438  333.4331
 439  435.0064
 440  368.2938
 441  354.9644
 442  329.6471
 443  280.4788
 444  356.2356
 445  430.6018
 446  483.5757
 447  481.8398
 448  507.8432
 449  536.2634
 450  540.4888
 451  504.0041
 452  426.1631
 453  446.1557
 454  531.3276
 455  535.2781
 456  451.6372
 457  463.114
 458  480.4959
 459  586.5308
 460  536.9283
 461  477.4894
 462  549.7362
 463  516.6699
 464  560.298
 465  494.7614
 466  485.293
 467  432.9721
 468  345.906
 469  408.5249
 470  291.5862
 471  335.8496
 472  246.0809
 473  263.2973
 474  380.73
 475  401.3293
 476  395.5225
 477  378.6246
 478  360.2879
 479  394.9732
 480  531.6464
 481  446.0414
 482  373.9995
 483  451.4358
 484  463.876
 485  382.9241
 486  372.4553
 487  341.1358
 488  321.5803
 489  402.2808
 490  478.6132
 491  451.4494
 492  572.5547
 493  489.1247
 494  454.5198
 495  421.1175
 496  375.5379
 497  300.9141
 498  271.2292
 499  281.6784
 500  409.6106
 501  480.3885
 502  453.1734
 503  421.4706
 504  232.7387
 505  108.0387
 506  281.9075
 507  297.1234
 508  349.2037
 509  416.4779
 510  498.2544
 511  410.9346
