# Input file       =  1208584535.106913-PSRB0329-2ms-sampling-dd.dat
# Candidate        =  PSR_0332+5434
# Telescope        =  AR
# Epoch_topo       =  58232.247154015196
# Epoch_bary       =  N/A
# T_sample         =  0.002
# Data Folded      =  7208960
# Data Avg         =  1.44144060541122e-09
# Data StdDev      =  7.12725100667338 
# Profile Bins     =  512
# Profile Avg      =  -0.332200848913839
# Profile StdDev   =  845.713730125475 
# Reduced chi-sqr  =  1.113
# Prob(Noise)      <  0.0388   (~1.8 sigma)
# P_topo (ms)      =  714.552626593343  +/- 3.42e-05
# P'_topo (s/s)    =  -0                +/- 1.84e-11
# P''_topo (s/s^2) =  0                 +/- 8.26e-15
# P_bary (ms)      =  N/A
# P'_bary (s/s)    =  N/A
# P''_bary (s/s^2) =  N/A
# P_orb (s)        =  N/A
# asin(i)/c (s)    =  N/A
# eccentricity     =  N/A
# w (rad)          =  N/A
# T_peri           =  N/A
######################################################
   0  -296.8592
   1  -63.93145
   2  515.0732
   3  507.3182
   4  477.1974
   5  -137.959
   6  -991.3517
   7  -1117.198
   8  -1509.192
   9  -1628.099
  10  -694.5001
  11  492.7498
  12  515.3481
  13  -526.5621
  14  -328.5045
  15  -619.4595
  16  -869.2249
  17  -385.9995
  18  486.6305
  19  793.9272
  20  888.8807
  21  179.5329
  22  -783.5303
  23  -1307.461
  24  -836.5988
  25  -597.2727
  26  -647.7638
  27  67.83134
  28  196.441
  29  -680.9953
  30  -1249.501
  31  -892.531
  32  -735.3733
  33  -345.318
  34  180.5626
  35  719.3838
  36  785.6223
  37  35.27712
  38  -920.9269
  39  -1501.905
  40  -739.1886
  41  -324.2283
  42  -384.3239
  43  -173.7551
  44  732.5433
  45  623.5724
  46  -41.7933
  47  -461.2921
  48  -287.3827
  49  -88.25819
  50  210.5921
  51  692.0779
  52  1023.217
  53  698.573
  54  545.0795
  55  -159.5039
  56  -5.356475
  57  -73.63008
  58  137.4195
  59  395.4049
  60  915.894
  61  1973.6
  62  2256.698
  63  1958.334
  64  2236.989
  65  1855.861
  66  1564.615
  67  1222.784
  68  833.5021
  69  742.2928
  70  497.419
  71  180.4229
  72  -265.179
  73  -384.8268
  74  -164.1262
  75  -572.5986
  76  -98.48032
  77  681.0282
  78  641.9517
  79  167.0581
  80  -84.52157
  81  -188.3171
  82  -243.4407
  83  -350.9901
  84  496.1006
  85  1104.383
  86  1491.998
  87  816.3398
  88  -209.6613
  89  -990.3834
  90  -847.4029
  91  -1373.334
  92  -1029.387
  93  106.4875
  94  927.2267
  95  216.4053
  96  -207.7592
  97  -786.8559
  98  -929.473
  99  -456.0027
 100  -359.8113
 101  389.6514
 102  864.9196
 103  1052.665
 104  101.0511
 105  -608.7909
 106  -682.2299
 107  -954.8574
 108  -801.2131
 109  -364.7749
 110  105.5332
 111  166.5564
 112  -413.0805
 113  -298.8396
 114  -116.8001
 115  -396.4894
 116  -368.9198
 117  -240.2661
 118  71.68274
 119  794.4457
 120  342.0482
 121  -428.1725
 122  -886.1535
 123  -498.5522
 124  -546.2194
 125  -689.9977
 126  -56.96183
 127  51.68428
 128  -175.4228
 129  -798.2446
 130  -691.905
 131  -223.841
 132  -377.0131
 133  169.0148
 134  400.3903
 135  473.6942
 136  402.4702
 137  -76.58668
 138  -882.543
 139  6.409355
 140  496.1676
 141  -237.1801
 142  -294.741
 143  646.4428
 144  236.1221
 145  -296.1397
 146  -1088.523
 147  -383.7252
 148  314.3977
 149  418.0038
 150  1217.533
 151  1037.376
 152  1244.71
 153  682.8836
 154  -183.637
 155  -438.2333
 156  -341.1625
 157  -354.5546
 158  -618.3025
 159  -228.8194
 160  458.6583
 161  387.3006
 162  -658.9053
 163  -585.9058
 164  -89.59519
 165  -356.1776
 166  48.03366
 167  411.3469
 168  1360.349
 169  1013.835
 170  446.4501
 171  -309.48
 172  -521.3538
 173  -499.2957
 174  -1233.614
 175  -733.6807
 176  366.6188
 177  867.253
 178  450.4648
 179  219.8193
 180  -167.6492
 181  -44.40789
 182  172.7795
 183  -180.9983
 184  127.7916
 185  603.1993
 186  251.0536
 187  -433.1896
 188  -522.5408
 189  -141.1018
 190  -878.4048
 191  -980.9553
 192  93.94942
 193  318.3088
 194  -22.22931
 195  -397.1223
 196  -276.3671
 197  169.2153
 198  357.821
 199  67.28841
 200  331.0475
 201  368.6834
 202  696.0244
 203  113.9824
 204  -579.5255
 205  -412.2643
 206  -653.0869
 207  -607.2454
 208  -377.087
 209  189.2974
 210  508.253
 211  -281.2262
 212  -298.9109
 213  -65.79535
 214  22.88743
 215  285.2878
 216  1042.61
 217  1321.848
 218  1155.698
 219  639.9095
 220  -293.6568
 221  -691.6188
 222  -179.1243
 223  -131.0014
 224  -171.0528
 225  294.1702
 226  1228.317
 227  182.9806
 228  -619.7469
 229  -370.3444
 230  -57.73882
 231  398.9865
 232  445.7619
 233  1046.179
 234  1487.634
 235  1269.959
 236  597.1401
 237  -77.15065
 238  160.9473
 239  228.0477
 240  132.6734
 241  627.2004
 242  1320.562
 243  1215.359
 244  697.9445
 245  -2.424545
 246  126.9705
 247  156.7163
 248  -1.973396
 249  596.5905
 250  1122.272
 251  1928.638
 252  1176.836
 253  -55.88445
 254  -438.3046
 255  -361.9199
 256  -268.9843
 257  -386.5763
 258  -267.077
 259  -10.76514
 260  -218.1986
 261  -375.8564
 262  -277.5925
 263  -83.28438
 264  -80.25449
 265  255.7328
 266  571.6234
 267  392.554
 268  282.4825
 269  -147.0732
 270  -746.8068
 271  -548.3329
 272  -106.6668
 273  -205.1517
 274  -604.5295
 275  -294.9659
 276  127.756
 277  -437.2556
 278  -68.06757
 279  -423.8254
 280  -739.2559
 281  -176.9819
 282  -62.94166
 283  174.8491
 284  -128.6333
 285  -37.4346
 286  -415.8882
 287  -522.0845
 288  -423.2513
 289  -821.0294
 290  -1495.143
 291  -1115.428
 292  -130.1086
 293  -148.827
 294  -710.4015
 295  -839.5006
 296  -141.4213
 297  -183.1304
 298  466.3373
 299  355.8445
 300  600.6769
 301  736.6567
 302  -322.8658
 303  -861.4035
 304  -1154.736
 305  -861.1495
 306  -918.5386
 307  -603.1285
 308  320.5891
 309  674.855
 310  -139.9838
 311  -424.5867
 312  -180.7516
 313  181.4072
 314  427.3215
 315  334.8163
 316  802.6566
 317  964.8834
 318  391.0259
 319  -434.7141
 320  -736.7639
 321  -286.5095
 322  8.098736
 323  106.3531
 324  171.7357
 325  816.7907
 326  267.5766
 327  -641.0718
 328  -989.8799
 329  -678.7314
 330  -215.7441
 331  81.05366
 332  491.9809
 333  925.3465
 334  1013.815
 335  146.4049
 336  -867.1993
 337  -780.2386
 338  -439.6516
 339  -1077.578
 340  -411.3675
 341  657.4839
 342  804.6617
 343  214.261
 344  -53.93894
 345  -401.4198
 346  -290.6455
 347  200.7449
 348  38.87421
 349  146.4993
 350  548.9799
 351  -75.11767
 352  -870.9626
 353  -1219.959
 354  -1049.539
 355  -776.0414
 356  -1162.635
 357  -585.9229
 358  -83.592
 359  -23.69484
 360  -49.25478
 361  -426.1169
 362  -557.8306
 363  -822.1935
 364  -657.0355
 365  -364.9872
 366  327.5155
 367  306.3142
 368  -180.8664
 369  -876.8273
 370  -972.9019
 371  -668.2159
 372  -952.7327
 373  -589.8929
 374  141.0849
 375  56.13883
 376  -920.4868
 377  -1136.223
 378  -367.1906
 379  66.26519
 380  377.259
 381  786.4376
 382  952.3994
 383  1064.767
 384  806.8829
 385  -583.6252
 386  -1007.945
 387  -265.8555
 388  -382.5182
 389  -135.4901
 390  374.4867
 391  900.5213
 392  555.9646
 393  -264.0303
 394  -389.4669
 395  -343.1382
 396  24.83794
 397  796.3505
 398  801.9489
 399  1079.692
 400  1046.717
 401  436.1724
 402  -526.8971
 403  -647.0719
 404  -633.8864
 405  -527.9394
 406  -184.6385
 407  391.7125
 408  1348.262
 409  462.2468
 410  -210.7718
 411  -407.5442
 412  -357.64
 413  360.5422
 414  459.1406
 415  1024.657
 416  1298.873
 417  1171.813
 418  51.63319
 419  -370.1837
 420  150.7238
 421  -163.2005
 422  -663.3345
 423  167.4543
 424  1150.584
 425  907.3044
 426  730.9188
 427  70.32431
 428  65.61562
 429  39.82314
 430  -159.8803
 431  302.2734
 432  174.2265
 433  782.4418
 434  131.8193
 435  -416.1609
 436  -528.5838
 437  -518.7053
 438  -867.3678
 439  -922.6682
 440  -136.003
 441  239.495
 442  204.8449
 443  -235.7998
 444  -122.8955
 445  -32.2781
 446  -68.0231
 447  597.8881
 448  862.0518
 449  987.9594
 450  778.4505
 451  -62.67476
 452  -719.8382
 453  -808.9773
 454  -379.8648
 455  -140.1942
 456  -99.79877
 457  192.0111
 458  -54.90014
 459  -520.6335
 460  -902.3413
 461  -427.9859
 462  -52.29216
 463  248.5877
 464  364.4911
 465  680.656
 466  851.0545
 467  37.57223
 468  -683.3435
 469  -713.3062
 470  109.8089
 471  -19.6542
 472  -458.3554
 473  363.424
 474  559.4771
 475  158.7138
 476  -772.588
 477  -403.6649
 478  -98.06255
 479  255.7088
 480  953.7341
 481  1222.691
 482  1364.39
 483  974.5483
 484  152.8148
 485  -591.3094
 486  -574.8169
 487  -121.6667
 488  -156.1516
 489  508.5579
 490  989.9186
 491  445.9027
 492  -603.3009
 493  -757.0994
 494  -227.2191
 495  -191.4452
 496  404.7449
 497  771.4133
 498  933.8568
 499  554.473
 500  -2.30965
 501  -266.647
 502  -759.9027
 503  127.6959
 504  -261.9854
 505  -294.2399
 506  417.174
 507  559.3599
 508  -204.6961
 509  -405.8571
 510  -807.7747
 511  -496.6624
