# Input file       =  1208614060.115285_cleaned.dat
# Candidate        =  PSR_0332+5434
# Telescope        =  AR
# Epoch_topo       =  58232.588878649134
# Epoch_bary       =  N/A
# T_sample         =  0.002
# Data Folded      =  7340032
# Data Avg         =  0.0339105423044897
# Data StdDev      =  1.00006015921408 
# Profile Bins     =  512
# Profile Avg      =  486.023585795258 
# Profile StdDev   =  119.740239422134 
# Reduced chi-sqr  =  1.507
# Prob(Noise)      <  8.8e-13   (~7.1 sigma)
# P_topo (ms)      =  714.552697877519  +/- 0.000228
# P'_topo (s/s)    =  -0                +/- 1.2e-10
# P''_topo (s/s^2) =  0                 +/- 5.31e-14
# P_bary (ms)      =  N/A
# P'_bary (s/s)    =  N/A
# P''_bary (s/s^2) =  N/A
# P_orb (s)        =  N/A
# asin(i)/c (s)    =  N/A
# eccentricity     =  N/A
# w (rad)          =  N/A
# T_peri           =  N/A
######################################################
   0  1106.937
   1  1032.496
   2  914.3057
   3  714.868
   4  607.7989
   5  443.9047
   6  449.2719
   7  481.2466
   8  601.3907
   9  440.6889
  10  417.9953
  11  583.7216
  12  687.0941
  13  616.707
  14  628.7934
  15  567.8408
  16  486.3321
  17  539.7541
  18  600.7524
  19  604.8356
  20  591.3293
  21  520.457
  22  390.9953
  23  367.8617
  24  435.2103
  25  349.768
  26  423.515
  27  359.2378
  28  378.4055
  29  401.5504
  30  317.6203
  31  305.7308
  32  349.7535
  33  428.2702
  34  472.9789
  35  410.9572
  36  499.577
  37  478.9388
  38  509.2086
  39  531.9161
  40  459.0771
  41  407.3087
  42  408.1273
  43  385.0358
  44  370.9099
  45  521.1276
  46  582.0837
  47  498.194
  48  465.0325
  49  407.5458
  50  355.5668
  51  398.3013
  52  445.0573
  53  409.7702
  54  452.1105
  55  482.8837
  56  459.3941
  57  415.3145
  58  379.9567
  59  302.446
  60  367.029
  61  406.4905
  62  464.5847
  63  508.3576
  64  526.8339
  65  470.6468
  66  344.2386
  67  354.6777
  68  430.624
  69  353.1536
  70  294.5751
  71  334.1468
  72  420.3547
  73  497.0655
  74  542.6841
  75  408.3562
  76  421.9821
  77  437.5677
  78  380.7031
  79  456.247
  80  458.7209
  81  362.5178
  82  361.4001
  83  365.8127
  84  460.0138
  85  580.356
  86  489.7616
  87  484.7449
  88  504.3793
  89  547.6912
  90  489.8558
  91  446.8013
  92  455.5894
  93  492.523
  94  432.6501
  95  473.691
  96  571.5174
  97  548.4788
  98  558.5997
  99  484.6815
 100  504.1912
 101  444.6054
 102  383.3416
 103  369.2051
 104  541.6708
 105  497.1595
 106  537.3555
 107  571.3019
 108  542.617
 109  419.1265
 110  350.1889
 111  508.4305
 112  538.1512
 113  441.5175
 114  407.2746
 115  416.3337
 116  487.8306
 117  535.4024
 118  408.5076
 119  354.2241
 120  364.6698
 121  446.7796
 122  502.7422
 123  433.1661
 124  515.188
 125  453.9188
 126  377.4044
 127  500.7071
 128  494.7261
 129  436.8253
 130  569.3751
 131  458.611
 132  308.1717
 133  312.2027
 134  446.587
 135  407.5272
 136  449.6879
 137  480.6631
 138  534.7343
 139  500.5134
 140  460.0408
 141  400.0395
 142  364.8646
 143  294.3373
 144  356.6465
 145  435.3116
 146  423.2784
 147  409.8993
 148  293.3187
 149  453.334
 150  437.9539
 151  402.4477
 152  416.8336
 153  301.1039
 154  316.9855
 155  213.7312
 156  273.4019
 157  349.6612
 158  426.58
 159  536.9095
 160  640.0065
 161  470.3975
 162  357.1677
 163  348.5345
 164  463.4001
 165  377.749
 166  404.4922
 167  464.3199
 168  464.1288
 169  416.2064
 170  552.3732
 171  540.3198
 172  520.4065
 173  462.8802
 174  398.9792
 175  445.224
 176  467.7148
 177  437.981
 178  566.9162
 179  487.513
 180  498.6678
 181  473.5235
 182  391.459
 183  365.3751
 184  432.9756
 185  383.7681
 186  511.5691
 187  568.2333
 188  542.4783
 189  468.0203
 190  433.6758
 191  563.137
 192  630.2891
 193  578.8607
 194  607.6808
 195  578.92
 196  564.5236
 197  631.8369
 198  586.5513
 199  584.0035
 200  494.75
 201  468.6235
 202  434.6101
 203  501.7578
 204  580.2547
 205  489.0181
 206  436.4697
 207  448.0625
 208  287.195
 209  282.3995
 210  443.1807
 211  436.536
 212  398.3236
 213  368.5073
 214  328.8848
 215  348.5641
 216  351.8342
 217  255.1785
 218  291.411
 219  442.4762
 220  380.0662
 221  340.371
 222  432.5685
 223  446.0984
 224  450.1829
 225  474.6553
 226  427.254
 227  435.0369
 228  307.2144
 229  341.8919
 230  459.8425
 231  476.5527
 232  506.9627
 233  506.3551
 234  496.038
 235  470.2848
 236  550.144
 237  552.3455
 238  484.3788
 239  458.763
 240  429.5337
 241  531.0488
 242  563.4089
 243  542.753
 244  536.3746
 245  581.7496
 246  580.924
 247  632.8515
 248  510.2876
 249  436.0137
 250  483.5613
 251  622.9748
 252  705.8614
 253  524.9748
 254  437.1502
 255  513.2551
 256  562.1953
 257  558.4385
 258  537.2375
 259  467.9617
 260  420.0487
 261  354.7207
 262  263.4289
 263  306.735
 264  314.875
 265  342.7148
 266  302.8799
 267  369.9415
 268  403.9966
 269  442.6315
 270  547.1082
 271  485.6293
 272  434.9401
 273  482.1032
 274  414.4875
 275  505.9392
 276  479.0817
 277  446.8235
 278  415.4834
 279  548.2796
 280  562.4993
 281  584.6694
 282  563.7907
 283  531.7816
 284  466.6203
 285  448.8899
 286  475.2961
 287  532.3895
 288  599.8838
 289  611.8937
 290  604.0696
 291  631.6151
 292  620.9708
 293  700.5281
 294  682.223
 295  650.3646
 296  507.9849
 297  511.4825
 298  419.1047
 299  383.9192
 300  435.9536
 301  510.1636
 302  526.2051
 303  386.5399
 304  391.9216
 305  510.7399
 306  421.5724
 307  461.2513
 308  454.6266
 309  500.9566
 310  445.4704
 311  465.402
 312  545.0023
 313  546.4551
 314  389.9013
 315  487.2133
 316  566.0294
 317  601.3322
 318  624.2456
 319  452.1264
 320  392.2076
 321  448.9762
 322  507.3962
 323  493.1469
 324  578.7794
 325  698.501
 326  567.1739
 327  505.5063
 328  546.39
 329  416.9055
 330  485.0653
 331  489.0222
 332  513.8682
 333  526.1769
 334  653.0074
 335  625.6635
 336  557.0947
 337  597.4625
 338  569.1058
 339  493.3423
 340  583.1879
 341  408.0785
 342  407.5699
 343  562.0789
 344  604.8671
 345  504.8669
 346  452.9575
 347  427.5414
 348  533.908
 349  553.8925
 350  676.4675
 351  655.801
 352  454.905
 353  559.8196
 354  584.659
 355  563.2302
 356  563.2567
 357  451.2193
 358  462.5856
 359  465.8283
 360  414.3832
 361  505.7716
 362  622.9919
 363  503.8102
 364  555.3762
 365  584.5959
 366  505.213
 367  474.9961
 368  544.8104
 369  484.2391
 370  427.5941
 371  436.3251
 372  540.4324
 373  536.0721
 374  561.8453
 375  489.9468
 376  391.6331
 377  326.6729
 378  401.853
 379  367.9467
 380  486.439
 381  471.5586
 382  537.7791
 383  564.228
 384  453.3337
 385  462.9001
 386  503.5842
 387  420.2116
 388  388.5916
 389  491.4958
 390  630.8996
 391  608.1971
 392  508.2836
 393  447.1165
 394  284.4936
 395  374.2413
 396  446.3954
 397  426.196
 398  410.2319
 399  509.8547
 400  443.9617
 401  410.7376
 402  493.3593
 403  499.9602
 404  501.4839
 405  576.1716
 406  518.8768
 407  450.7079
 408  474.3353
 409  415.5238
 410  354.6407
 411  431.1039
 412  526.6925
 413  539.1779
 414  556.6307
 415  521.6737
 416  510.3013
 417  634.7367
 418  460.2719
 419  377.6274
 420  518.9447
 421  573.6642
 422  533.4636
 423  433.2897
 424  379.7661
 425  437.9067
 426  434.0899
 427  422.9866
 428  444.8404
 429  471.5631
 430  459.0718
 431  462.9644
 432  556.6666
 433  507.7337
 434  427.4985
 435  424.9216
 436  434.7342
 437  503.5615
 438  496.7928
 439  578.6822
 440  552.9487
 441  640.0551
 442  554.8406
 443  413.6384
 444  428.1836
 445  484.0605
 446  535.1866
 447  471.5448
 448  443.2102
 449  461.2375
 450  658.079
 451  693.2325
 452  541.15
 453  574.6185
 454  537.1484
 455  584.3653
 456  413.2345
 457  550.2223
 458  585.1282
 459  471.9226
 460  410.9451
 461  527.6961
 462  559.3818
 463  559.9753
 464  533.6931
 465  527.6225
 466  499.4716
 467  439.6172
 468  470.0992
 469  483.1714
 470  454.3323
 471  384.8753
 472  419.9799
 473  523.1178
 474  476.8198
 475  430.9209
 476  455.8394
 477  552.0766
 478  501.4327
 479  423.6721
 480  497.8924
 481  487.9686
 482  454.5345
 483  545.0324
 484  594.4785
 485  513.6376
 486  467.8033
 487  608.7776
 488  526.4487
 489  506.0971
 490  481.062
 491  610.1814
 492  641.4102
 493  644.8768
 494  588.2419
 495  560.1008
 496  549.3249
 497  450.4293
 498  469.4681
 499  507.0263
 500  593.7477
 501  543.2339
 502  514.4803
 503  492.4898
 504  532.0369
 505  627.1734
 506  628.1416
 507  551.7496
 508  634.7991
 509  887.3815
 510  1129.338
 511  1245.322
