# Input file       =  1208067354.119760-PSRB0329-2ms-sampling-dd.dat
# Candidate        =  PSR_0332+5434
# Telescope        =  AR
# Epoch_topo       =  58226.261262960186
# Epoch_bary       =  N/A
# T_sample         =  0.002
# Data Folded      =  7208960
# Data Avg         =  -4.78765233386107e-10
# Data StdDev      =  6.84570541856364 
# Profile Bins     =  512
# Profile Avg      =  0.0930421360335303
# Profile StdDev   =  812.305762692068 
# Reduced chi-sqr  =  0.674
# Prob(Noise)      <  1   (~0.0 sigma)
# P_topo (ms)      =  714.557592107448  +/- 6.42e-05
# P'_topo (s/s)    =  -0                +/- 3.45e-11
# P''_topo (s/s^2) =  0                 +/- 1.55e-14
# P_bary (ms)      =  N/A
# P'_bary (s/s)    =  N/A
# P''_bary (s/s^2) =  N/A
# P_orb (s)        =  N/A
# asin(i)/c (s)    =  N/A
# eccentricity     =  N/A
# w (rad)          =  N/A
# T_peri           =  N/A
######################################################
   0  -495.1624
   1  -336.0542
   2  -175.2463
   3  27.90038
   4  -10.38206
   5  186.5288
   6  -124.2987
   7  -223.9
   8  -429.0997
   9  41.65044
  10  -32.58712
  11  -167.3073
  12  -367.7566
  13  -1036.106
  14  -658.2705
  15  -208.2917
  16  -374.5482
  17  10.1276
  18  448.002
  19  673.2854
  20  -199.9424
  21  -45.06825
  22  -83.95341
  23  209.1035
  24  -23.14212
  25  -326.5392
  26  -727.9641
  27  -298.983
  28  -216.0485
  29  -211.1526
  30  -352.6246
  31  -257.3271
  32  -249.4813
  33  34.09087
  34  400.9454
  35  216.1229
  36  56.87633
  37  -14.24648
  38  -45.78826
  39  84.65866
  40  192.0234
  41  157.6461
  42  -65.26953
  43  391.9203
  44  476.7914
  45  -341.5522
  46  -195.6673
  47  -250.932
  48  -458.2227
  49  -630.5059
  50  123.0637
  51  959.809
  52  1215.051
  53  699.8564
  54  -138.1489
  55  -59.75182
  56  -236.2447
  57  186.4241
  58  50.38474
  59  558.5081
  60  470.0112
  61  166.2042
  62  -230.6839
  63  -563.5078
  64  -51.22215
  65  -21.8803
  66  153.0858
  67  489.3843
  68  742.3021
  69  579.5286
  70  118.7272
  71  489.6662
  72  479.1901
  73  108.2163
  74  129.9855
  75  317.1144
  76  445.9662
  77  361.2336
  78  62.08555
  79  71.57008
  80  -54.8535
  81  316.5516
  82  715.1405
  83  535.4324
  84  793.1243
  85  680.4095
  86  455.1876
  87  205.6548
  88  1025.177
  89  755.9557
  90  976.0036
  91  1318.008
  92  1891.119
  93  2139.254
  94  1439.351
  95  504.5421
  96  -487.3998
  97  -642.4017
  98  -642.5757
  99  -295.1891
 100  -17.6641
 101  584.9624
 102  567.0963
 103  131.4913
 104  383.6171
 105  -118.1093
 106  121.4826
 107  -727.2361
 108  27.26052
 109  454.635
 110  774.8666
 111  415.6753
 112  -146.9192
 113  -155.7058
 114  -573.8384
 115  89.73106
 116  374.7683
 117  875.4509
 118  959.2314
 119  57.13318
 120  -128.3487
 121  -478.9666
 122  111.9804
 123  204.8286
 124  692.8625
 125  836.9309
 126  848.6162
 127  529.1797
 128  -362.463
 129  -451.0187
 130  -431.8377
 131  -345.8127
 132  301.1722
 133  542.0607
 134  398.7345
 135  834.2245
 136  827.0007
 137  683.0133
 138  777.1409
 139  58.36368
 140  106.3323
 141  70.63018
 142  290.4222
 143  510.3598
 144  145.252
 145  -304.553
 146  -200.2987
 147  209.6946
 148  -0.297567
 149  46.63884
 150  379.153
 151  473.5089
 152  116.9534
 153  9.105316
 154  80.51302
 155  -253.0872
 156  -512.7938
 157  -146.7958
 158  174.6117
 159  -47.77209
 160  -154.7764
 161  -541.9408
 162  -125.775
 163  -150.0929
 164  69.27335
 165  -55.61296
 166  43.18385
 167  385.6386
 168  227.81
 169  -28.60387
 170  37.77538
 171  525.9012
 172  433.0446
 173  204.9871
 174  -124.6358
 175  -39.09122
 176  6.005
 177  -194.6046
 178  -319.5784
 179  -431.4453
 180  -134.8839
 181  -245.286
 182  85.75571
 183  28.67058
 184  395.2903
 185  148.826
 186  -158.6776
 187  83.87131
 188  11.65825
 189  150.4233
 190  -110.4412
 191  840.5375
 192  447.8053
 193  109.9991
 194  135.1472
 195  87.21455
 196  115.8271
 197  -9.532449
 198  462.5693
 199  785.6877
 200  789.895
 201  333.0078
 202  -219.9931
 203  168.2953
 204  245.8611
 205  483.8299
 206  286.6542
 207  324.7776
 208  385.4645
 209  334.5559
 210  266.3874
 211  -51.46217
 212  -12.52858
 213  160.1183
 214  418.6537
 215  594.161
 216  982.3366
 217  1000.281
 218  646.8614
 219  318.9939
 220  -154.8626
 221  -48.28447
 222  9.859416
 223  553.9913
 224  509.5927
 225  507.4084
 226  541.7914
 227  -302.2009
 228  -537.2263
 229  -505.863
 230  -91.61234
 231  146.2751
 232  676.6151
 233  871.1971
 234  512.2579
 235  -47.06403
 236  1.361905
 237  -397.1849
 238  -521.7731
 239  -241.9369
 240  -162.7035
 241  96.77309
 242  -246.5688
 243  -553.2112
 244  -799.7686
 245  -851.6231
 246  -781.6768
 247  -305.6677
 248  -80.15067
 249  -70.23247
 250  128.6194
 251  474.9901
 252  323.0486
 253  103.0821
 254  285.7212
 255  -300.8694
 256  -132.6589
 257  -110.2821
 258  297.0946
 259  -418.5116
 260  -593.7658
 261  -177.1463
 262  -722.1547
 263  -415.4525
 264  -386.7705
 265  221.8135
 266  93.4696
 267  -16.57586
 268  -11.39464
 269  -134.9409
 270  -184.5261
 271  -568.4386
 272  311.322
 273  -83.98559
 274  -462.1319
 275  -244.8306
 276  -112.5965
 277  -659.9977
 278  -174.4311
 279  476.5345
 280  330.7394
 281  61.65937
 282  41.9994
 283  459.5715
 284  246.8178
 285  -63.18093
 286  353.7018
 287  280.2811
 288  642.955
 289  81.00443
 290  207.8111
 291  362.5737
 292  273.2306
 293  -6.794241
 294  -267.635
 295  203.702
 296  64.35338
 297  557.1927
 298  684.5078
 299  962.304
 300  1012.55
 301  137.6694
 302  321.2072
 303  91.37208
 304  96.41273
 305  77.37415
 306  527.2631
 307  113.7056
 308  262.7123
 309  132.4897
 310  -352.1964
 311  -641.7488
 312  -367.2142
 313  313.2722
 314  546.0579
 315  600.2864
 316  675.3401
 317  1204.053
 318  874.1367
 319  286.4678
 320  398.7425
 321  137.6824
 322  238.5974
 323  160.4506
 324  352.726
 325  394.9309
 326  -72.33816
 327  -178.9369
 328  -148.3947
 329  -208.8201
 330  -323.5307
 331  -72.54862
 332  449.8159
 333  321.5286
 334  6.333307
 335  -282.5898
 336  -735.3627
 337  -1001.844
 338  -918.8199
 339  -459.1453
 340  -275.3725
 341  -603.337
 342  -540.0933
 343  -673.3071
 344  -845.1614
 345  -745.3853
 346  -642.5908
 347  -420.2637
 348  -1.862967
 349  -116.2016
 350  -57.24479
 351  -6.538111
 352  -65.81742
 353  215.3694
 354  8.005508
 355  -131.4389
 356  -474.8824
 357  77.37383
 358  83.28989
 359  -143.9203
 360  -499.0517
 361  -247.1457
 362  -419.7123
 363  -350.1177
 364  67.5355
 365  80.13291
 366  235.2875
 367  -120.0829
 368  -559.7917
 369  -753.1498
 370  -923.1558
 371  -397.486
 372  -228.8118
 373  -10.83448
 374  75.57358
 375  -747.6125
 376  -915.2845
 377  -1221.298
 378  -364.5456
 379  -276.5495
 380  -513.2875
 381  86.47639
 382  370.4606
 383  -128.3845
 384  -655.8508
 385  -433.8738
 386  -414.8759
 387  159.5547
 388  -133.1037
 389  269.3589
 390  59.09027
 391  -228.6116
 392  -442.7222
 393  -624.0389
 394  -192.2358
 395  -535.9601
 396  -570.3185
 397  -271.9516
 398  358.1082
 399  717.4879
 400  702.9677
 401  -11.96533
 402  -522.8341
 403  -583.9911
 404  -319.7515
 405  -18.80635
 406  157.5583
 407  582.1572
 408  841.228
 409  -364.2813
 410  -732.2835
 411  -1128.576
 412  -589.2863
 413  -3.062998
 414  653.5736
 415  1194.389
 416  1588.906
 417  334.1975
 418  -260.6121
 419  -334.7756
 420  -258.3177
 421  -634.3417
 422  -471.5358
 423  41.63449
 424  113.6859
 425  225.815
 426  11.45769
 427  169.0261
 428  -224.9956
 429  -561.5987
 430  -557.7197
 431  -151.6936
 432  144.1144
 433  177.3251
 434  490.1439
 435  360.9007
 436  102.8715
 437  -821.1237
 438  -605.1237
 439  -862.6267
 440  -204.045
 441  -67.22208
 442  -619.0991
 443  -1021.174
 444  -773.0247
 445  -263.7256
 446  -264.1862
 447  -119.3581
 448  -88.69634
 449  -284.2885
 450  -360.9565
 451  -705.7361
 452  14.72795
 453  -150.9967
 454  -49.78312
 455  -237.7578
 456  -153.9866
 457  -20.46919
 458  -1088.776
 459  -1101.59
 460  -927.3648
 461  -545.0795
 462  -421.1642
 463  57.08422
 464  490.4114
 465  297.2057
 466  -195.3197
 467  -343.6324
 468  -244.7832
 469  -508.3857
 470  -189.1017
 471  -466.1711
 472  -631.0272
 473  -672.1956
 474  -564.1756
 475  -792.764
 476  -1109.322
 477  -788.6688
 478  -591.6631
 479  -444.7726
 480  -81.40001
 481  622.8021
 482  533.9623
 483  188.7669
 484  -576.991
 485  -1205.338
 486  -755.1025
 487  -318.9724
 488  -61.18993
 489  86.94559
 490  225.2806
 491  -164.5135
 492  -984.9015
 493  -1048.047
 494  -719.8553
 495  -302.7199
 496  75.22107
 497  1147.491
 498  902.9547
 499  537.833
 500  215.0592
 501  222.2661
 502  -295.6649
 503  -798.6021
 504  -830.5407
 505  -320.4055
 506  -36.43424
 507  202.8434
 508  249.5484
 509  -11.77442
 510  -40.45209
 511  -656.0343
