# Input file       =  1208441724.10273_cleaned.dat
# Candidate        =  PSR_0332+5434
# Telescope        =  AR
# Epoch_topo       =  58230.594248874193
# Epoch_bary       =  N/A
# T_sample         =  0.002
# Data Folded      =  7340032
# Data Avg         =  0.182748956389592
# Data StdDev      =  4.68098738784448 
# Profile Bins     =  512
# Profile Avg      =  2619.91461087473 
# Profile StdDev   =  560.468833187967 
# Reduced chi-sqr  =  1.431
# Prob(Noise)      <  5.02e-10   (~6.1 sigma)
# P_topo (ms)      =  714.554390055776  +/- 0.000238
# P'_topo (s/s)    =  -0                +/- 1.26e-10
# P''_topo (s/s^2) =  0                 +/- 5.55e-14
# P_bary (ms)      =  N/A
# P'_bary (s/s)    =  N/A
# P''_bary (s/s^2) =  N/A
# P_orb (s)        =  N/A
# asin(i)/c (s)    =  N/A
# eccentricity     =  N/A
# w (rad)          =  N/A
# T_peri           =  N/A
######################################################
   0  2252.026
   1  2406.074
   2  2263.479
   3  2208.519
   4  2163.941
   5  2266.803
   6  2432.052
   7  2067.6
   8  2653.74
   9  2863.799
  10  3010.358
  11  2780.183
  12  2428.9
  13  2752.267
  14  2855.818
  15  2776.722
  16  2853.493
  17  2968.728
  18  2790.971
  19  2805.914
  20  2740.185
  21  2618.328
  22  2547.113
  23  2735.822
  24  2445.234
  25  2664.213
  26  2823.266
  27  2999.856
  28  3141.281
  29  2935.375
  30  2734.04
  31  3073.998
  32  2952.831
  33  2579.587
  34  2593.555
  35  2422.288
  36  2571.615
  37  2776.131
  38  2747.153
  39  2758.281
  40  2746.354
  41  2882.165
  42  3258.485
  43  2996.575
  44  3072.363
  45  3251.7
  46  3542.847
  47  3530.146
  48  3201.17
  49  3423.995
  50  3399.891
  51  3289.294
  52  3271.141
  53  3204.397
  54  3011.021
  55  3045.983
  56  3211.732
  57  2924.51
  58  2573.118
  59  2823.311
  60  3113.599
  61  2973.702
  62  2855.672
  63  2588.493
  64  2845.366
  65  3192.167
  66  3319.394
  67  2743.733
  68  2582.435
  69  2715.506
  70  2252.014
  71  2181.892
  72  2277.052
  73  2430.594
  74  2447.053
  75  2037.735
  76  1868.027
  77  1817.713
  78  2139.305
  79  2158.908
  80  2022.951
  81  2235.343
  82  2198.401
  83  2330.314
  84  2568.933
  85  2560.925
  86  2770.986
  87  2980.467
  88  2568.487
  89  2667.462
  90  2680.522
  91  2789.779
  92  3060.149
  93  3075.896
  94  2882.174
  95  2730.47
  96  2856.345
  97  3066.413
  98  3015.537
  99  2984.244
 100  2914.981
 101  2544.508
 102  2991.247
 103  2847.21
 104  3216.339
 105  3074.313
 106  2962.676
 107  3025.798
 108  3036.984
 109  3144.031
 110  2848.997
 111  3128.253
 112  3404.956
 113  3046.532
 114  3455.084
 115  3640.472
 116  3546.48
 117  3511.527
 118  3155.311
 119  3336.078
 120  2931.52
 121  3175.672
 122  3268.16
 123  3289.752
 124  3294.628
 125  3081.198
 126  2472.088
 127  2675.953
 128  3162.714
 129  3256.969
 130  2814.075
 131  2911.704
 132  2973.457
 133  3004.482
 134  2733.882
 135  2556.211
 136  2726.062
 137  2540.225
 138  2431.851
 139  2931.375
 140  2793
 141  2215.775
 142  2101.522
 143  2272.738
 144  2274.522
 145  2037.741
 146  2085.899
 147  2347.24
 148  2167.867
 149  2122.409
 150  2247.394
 151  2161.335
 152  2064.761
 153  1986.38
 154  2207.185
 155  2434.603
 156  2184.949
 157  2501.735
 158  2660.592
 159  2624.512
 160  2338.432
 161  2209.918
 162  2288.718
 163  2268.05
 164  2743.026
 165  2571.978
 166  2815.974
 167  2922.992
 168  2688.88
 169  2720.14
 170  3008.745
 171  2846.854
 172  2716.565
 173  2801.958
 174  2558.317
 175  3070.192
 176  3163.448
 177  2866.529
 178  3080.951
 179  3186.306
 180  2779.539
 181  2680.235
 182  2822.538
 183  2773.614
 184  3075.525
 185  3067.664
 186  3019.854
 187  2417.776
 188  2652.597
 189  2685.661
 190  2269.886
 191  3119.452
 192  3193.021
 193  2924.701
 194  2728.729
 195  2567.938
 196  2895.656
 197  2806.772
 198  3036.503
 199  2866.088
 200  2557.818
 201  2798.778
 202  2253.096
 203  2095.327
 204  2124.199
 205  2611.676
 206  2299.654
 207  2050.981
 208  2273.361
 209  2145.591
 210  1924.764
 211  1692.397
 212  1851.782
 213  1689.317
 214  1986.013
 215  2045.794
 216  2132.067
 217  2058.41
 218  1736.225
 219  1989.033
 220  1937.544
 221  2021.893
 222  1775.81
 223  1767.93
 224  1833.761
 225  1809.332
 226  1899.381
 227  1787.607
 228  1874.518
 229  2010.055
 230  1965.502
 231  2090.073
 232  2137.562
 233  2481.158
 234  1956.752
 235  1440.083
 236  1585.594
 237  2068.841
 238  2258.947
 239  2440.593
 240  2406.382
 241  2104.484
 242  1838.405
 243  1670.938
 244  2098.558
 245  1994.725
 246  2156.154
 247  2821.225
 248  2490.547
 249  2282.915
 250  2606.503
 251  2150.219
 252  2288.455
 253  2231.559
 254  2327.202
 255  2100.878
 256  2377.332
 257  2609.859
 258  2296.87
 259  2380.681
 260  2602.778
 261  2887.346
 262  2838.494
 263  2913.457
 264  2808.705
 265  3137.17
 266  2953.233
 267  2644.693
 268  2529.214
 269  2499.158
 270  2895.492
 271  2751.058
 272  2871.786
 273  2991.202
 274  2993.792
 275  3063.788
 276  3210.065
 277  3686.64
 278  4211.488
 279  4469.288
 280  4453.076
 281  4379.208
 282  4076.522
 283  3041.111
 284  2177.125
 285  2097.322
 286  2268.176
 287  2386.813
 288  1892.31
 289  2099.707
 290  1796.964
 291  1652.05
 292  1764.078
 293  1838.616
 294  1824.659
 295  1619.712
 296  1662.932
 297  1717.286
 298  1561.091
 299  1411.417
 300  1568.811
 301  1775.317
 302  1629.629
 303  1935.637
 304  1983.888
 305  1812.453
 306  1665.02
 307  1670.888
 308  2397.085
 309  2059.494
 310  2234.56
 311  2517.656
 312  2569.613
 313  2914.497
 314  2366.043
 315  2258.351
 316  2226.95
 317  2168.989
 318  2554.905
 319  2882.219
 320  2926.105
 321  3100.781
 322  2830.531
 323  2938.458
 324  2980.783
 325  3225.798
 326  3085.658
 327  2856.75
 328  2658.585
 329  2924.865
 330  3128.981
 331  3231.413
 332  3321.82
 333  3536.474
 334  3347.433
 335  3142.32
 336  3233.075
 337  3220.356
 338  3505.067
 339  3479.455
 340  3320.408
 341  3204.085
 342  3172.806
 343  3272.292
 344  3228.771
 345  2893.886
 346  2956.411
 347  2878.447
 348  2927.377
 349  2663.444
 350  2698.121
 351  2180.473
 352  2124.17
 353  2250.333
 354  1722.867
 355  2303.266
 356  2538.776
 357  2592.33
 358  2440.282
 359  2462.175
 360  2173.526
 361  1936.774
 362  2176.418
 363  2367.844
 364  2186.121
 365  1641.712
 366  1805.201
 367  1905.42
 368  1916.302
 369  2028.948
 370  1923.675
 371  2042.56
 372  2096.616
 373  2056.086
 374  2167.915
 375  2092.765
 376  2192.319
 377  2416.955
 378  2482.873
 379  2660.255
 380  2811.696
 381  2653.25
 382  2899.25
 383  2502.534
 384  2557.055
 385  2731.026
 386  2751.936
 387  2671.614
 388  2700.279
 389  2755.758
 390  2982.549
 391  2938.147
 392  2660.555
 393  2796.542
 394  2753.958
 395  2958.508
 396  3178.617
 397  2954.217
 398  2837.884
 399  3073.709
 400  3189.994
 401  2893.812
 402  2603.131
 403  2955.981
 404  2983.88
 405  3047.68
 406  3317.877
 407  3160.135
 408  2859.205
 409  2832.374
 410  2889.561
 411  3337.068
 412  3273.368
 413  3259.675
 414  3150.227
 415  3265.709
 416  2959.277
 417  2703.605
 418  2800.756
 419  2678.834
 420  2983.126
 421  3393.783
 422  3061.971
 423  3195.118
 424  2955.736
 425  2781.04
 426  2870.035
 427  2596.633
 428  2780.966
 429  2783.896
 430  2690.084
 431  2900.931
 432  2369.247
 433  2540.763
 434  2844.657
 435  2489.271
 436  2516.295
 437  2195.124
 438  2355.959
 439  2567.508
 440  2387.013
 441  2015.004
 442  1796.483
 443  2020.237
 444  2257.674
 445  2175.346
 446  2476.803
 447  2725.401
 448  2835.682
 449  2592.445
 450  2926.87
 451  2648.221
 452  2349.183
 453  2298.667
 454  2263.257
 455  1956.632
 456  2159.247
 457  2756.015
 458  2768.098
 459  2636.663
 460  2708.191
 461  2763.212
 462  3101.402
 463  2481.691
 464  2507.53
 465  2621.969
 466  2523.794
 467  2422.452
 468  2568.811
 469  2530.262
 470  2860.196
 471  2820.584
 472  2519.233
 473  2905.811
 474  2777.431
 475  2739.637
 476  2786.971
 477  2830.526
 478  2656.286
 479  2767.973
 480  3228.548
 481  3290.508
 482  2939.84
 483  2799.98
 484  3000.915
 485  3290.014
 486  2950.3
 487  2655.564
 488  2511.917
 489  2563.056
 490  2858.373
 491  2882.172
 492  2903.987
 493  2841.489
 494  2662.19
 495  2325.927
 496  2419.47
 497  2645.367
 498  2909.23
 499  2538.017
 500  2555.821
 501  2740.074
 502  2171.214
 503  1907.621
 504  2084.947
 505  2048.846
 506  1933.845
 507  1984.236
 508  2168.273
 509  1870.154
 510  1767.906
 511  1948.824
