# Input file       =  1208771537.100019_cleaned.dat
# Candidate        =  PSR_0332+5434
# Telescope        =  AR
# Epoch_topo       =  58234.411528935401
# Epoch_bary       =  N/A
# T_sample         =  0.002
# Data Folded      =  7340032
# Data Avg         =  -0.0496005987650784
# Data StdDev      =  7.48626599687241 
# Profile Bins     =  256
# Profile Avg      =  -1423.01427356194
# Profile StdDev   =  1267.63507687702 
# Reduced chi-sqr  =  0.905
# Prob(Noise)      <  0.859   (~0.0 sigma)
# P_topo (ms)      =  714.550789820622  +/- 0.000734
# P'_topo (s/s)    =  -0                +/- 3.87e-10
# P''_topo (s/s^2) =  0                 +/- 1.71e-13
# P_bary (ms)      =  N/A
# P'_bary (s/s)    =  N/A
# P''_bary (s/s^2) =  N/A
# P_orb (s)        =  N/A
# asin(i)/c (s)    =  N/A
# eccentricity     =  N/A
# w (rad)          =  N/A
# T_peri           =  N/A
######################################################
   0  -1996.007
   1  -2300.151
   2  -2015.458
   3  -1505.823
   4  -2018.237
   5  -1086.312
   6  -1562.51
   7  -837.3294
   8  -1376.458
   9  -739.4626
  10  -766.7933
  11  -729.6265
  12  -207.7059
  13  -326.2654
  14  9.460048
  15  -41.45904
  16  -17.49317
  17  226.4147
  18  -318.9407
  19  -180.0614
  20  -255.9096
  21  -1053.834
  22  -832.1453
  23  -505.3297
  24  -576.2338
  25  -569.915
  26  -53.53704
  27  -337.611
  28  -81.48907
  29  -893.4723
  30  -1068.181
  31  -781.6868
  32  -484.8733
  33  -1304.094
  34  -798.9146
  35  -876.3736
  36  -1648.58
  37  -2413.8
  38  -2334.239
  39  -2121.464
  40  -1724.716
  41  -1405.208
  42  -2570.138
  43  -2650.893
  44  -2344.485
  45  -1958.906
  46  -2643.793
  47  -2325.304
  48  -1457.255
  49  -1260.921
  50  -1329.064
  51  -1988.454
  52  -1411.028
  53  -1225.39
  54  -1497.842
  55  -1579.796
  56  -1318.801
  57  -1343.748
  58  -840.7278
  59  -1143.803
  60  -2378.991
  61  -2534.293
  62  -2300.94
  63  -1808.889
  64  -1734.742
  65  -1430.818
  66  -1273.307
  67  -1981.706
  68  -1735.348
  69  -2208.183
  70  -1810.964
  71  -1899.649
  72  -1908.422
  73  -2196.397
  74  -2780.53
  75  -2179.445
  76  -2583.021
  77  -3388.164
  78  -3529.957
  79  -3789.439
  80  -3648.505
  81  -3028.717
  82  -4595.365
  83  -4402.305
  84  -3835.395
  85  -3415.501
  86  -3057.579
  87  -1597.897
  88  -2115.267
  89  -1314.998
  90  -658.646
  91  -1582.414
  92  -116.8447
  93  -511.2753
  94  -54.41973
  95  -337.864
  96  -54.45649
  97  256.3565
  98  -90.50103
  99  -255.0386
 100  301.9928
 101  -197.9059
 102  -907.0566
 103  -1174.503
 104  -1320.829
 105  -1061.527
 106  -1118.068
 107  -851.7581
 108  -796.0178
 109  -347.2965
 110  -476.4411
 111  -1175.423
 112  -986.7125
 113  -1159.138
 114  70.36453
 115  -1382.107
 116  -792.6841
 117  -219.4833
 118  -1883.297
 119  -1939.013
 120  -1546.655
 121  -1329.133
 122  -1252.809
 123  -1201.227
 124  53.74704
 125  -605.5497
 126  -765.0974
 127  -803.7433
 128  -1115.752
 129  -729.433
 130  -444.8297
 131  -573.2067
 132  -683.2983
 133  -128.9859
 134  -527.0878
 135  -1558.386
 136  -1779.721
 137  -715.1635
 138  -351.7903
 139  329.5121
 140  676.9323
 141  815.3626
 142  -159.5686
 143  -355.502
 144  -132.838
 145  176.3115
 146  66.59207
 147  -963.5865
 148  -545.714
 149  2025.492
 150  3044.467
 151  2040.801
 152  -614.5632
 153  -1362.496
 154  -2154.237
 155  -2602.175
 156  -3452.819
 157  -2476.455
 158  -1714.144
 159  -2276.017
 160  -2542.854
 161  -1632.913
 162  -1742.924
 163  -2054.251
 164  -2424.138
 165  -1460.446
 166  -1417.989
 167  -1479.232
 168  -1893.318
 169  -1844.163
 170  -1198.744
 171  -536.9001
 172  -1147.809
 173  -932.3636
 174  -1062.861
 175  -817.7524
 176  -817.4739
 177  -736.2341
 178  -708.1959
 179  -1535.219
 180  -1593.537
 181  -1847.532
 182  -1070.186
 183  -1675.56
 184  -741.4266
 185  -1243.317
 186  -1634.868
 187  -1429.038
 188  -1781.541
 189  -2234.49
 190  -1710.132
 191  -2503.852
 192  -1185.421
 193  -1107.833
 194  -1279.631
 195  -1828.441
 196  -1848.589
 197  -1186.79
 198  -920.7748
 199  -429.0508
 200  -833.8788
 201  -699.0051
 202  -707.0091
 203  -1724.266
 204  -1145.345
 205  -1534.607
 206  -2077.719
 207  -1576.381
 208  -1233.47
 209  -1641.044
 210  -1626.8
 211  -2507.449
 212  -2362.86
 213  -2482.523
 214  -2004.399
 215  -2484.092
 216  -3003.432
 217  -3940.318
 218  -2897.659
 219  -2667.831
 220  -3803.204
 221  -3399.167
 222  -3689.382
 223  -2718.928
 224  -2489.15
 225  -2552.318
 226  -1279.822
 227  -1698.312
 228  -2267.731
 229  -2277.922
 230  -1698.071
 231  -1587.863
 232  -1837.403
 233  -1386.98
 234  -1381.304
 235  -1904.637
 236  -1509.852
 237  -1637.186
 238  -2008.281
 239  -1882.421
 240  -1067.951
 241  -1127.734
 242  -1548.13
 243  -1111.121
 244  -1279.502
 245  -1250.455
 246  -1382.036
 247  -1855.953
 248  -1717.801
 249  -2442.088
 250  -3377.964
 251  -2615.936
 252  -2093.786
 253  -3106.542
 254  -3281.56
 255  -1853.6
