# Input file       =  1208771537.100019-PSRB0329-2ms-sampling-dd.dat
# Candidate        =  PSR_0332+5434
# Telescope        =  AR
# Epoch_topo       =  58234.411528935401
# Epoch_bary       =  N/A
# T_sample         =  0.002
# Data Folded      =  7340032
# Data Avg         =  -2.6182758900482e-09
# Data StdDev      =  10.2504179081372 
# Profile Bins     =  512
# Profile Avg      =  2.07485307996353 
# Profile StdDev   =  1227.31366027204 
# Reduced chi-sqr  =  0.668
# Prob(Noise)      <  1   (~0.0 sigma)
# P_topo (ms)      =  714.550789751822  +/- 0.000674
# P'_topo (s/s)    =  -0                +/- 3.56e-10
# P''_topo (s/s^2) =  0                 +/- 1.57e-13
# P_bary (ms)      =  N/A
# P'_bary (s/s)    =  N/A
# P''_bary (s/s^2) =  N/A
# P_orb (s)        =  N/A
# asin(i)/c (s)    =  N/A
# eccentricity     =  N/A
# w (rad)          =  N/A
# T_peri           =  N/A
######################################################
   0  46.34777
   1  -62.02651
   2  -266.344
   3  -354.0823
   4  -423.5551
   5  -369.7961
   6  -554.6613
   7  -428.8708
   8  -523.7867
   9  68.56477
  10  -313.496
  11  -395.3273
  12  -453.8286
  13  -103.0875
  14  172.0968
  15  -37.89212
  16  -157.2622
  17  464.1816
  18  1096.828
  19  2501.25
  20  2855.255
  21  2455.562
  22  1864.338
  23  -267.763
  24  724.4174
  25  2173.063
  26  3235.087
  27  1823.219
  28  856.0047
  29  523.1164
  30  598.9506
  31  777.2973
  32  584.3996
  33  158.491
  34  85.95131
  35  -97.39671
  36  -293.1332
  37  -312.3265
  38  -350.2736
  39  -329.6832
  40  -137.6609
  41  -98.36566
  42  -240.992
  43  -23.28495
  44  196.6716
  45  -195.4716
  46  -186.6977
  47  -3.487099
  48  120.7691
  49  193.0805
  50  183.6498
  51  -193.2342
  52  -560.8229
  53  -404.4906
  54  -334.3779
  55  -225.5699
  56  -561.5605
  57  -683.0037
  58  -586.5249
  59  -746.2221
  60  -392.5327
  61  -314.3897
  62  -317.1186
  63  -435.3805
  64  -374.9433
  65  -561.8658
  66  -337.2584
  67  -580.2321
  68  -817.0527
  69  -715.2859
  70  -695.1262
  71  -1126.799
  72  -1049.319
  73  -735.3748
  74  -700.5815
  75  -862.7687
  76  -781.0479
  77  -656.8384
  78  -1374.02
  79  -1730.06
  80  -1666.22
  81  -1180.527
  82  -1065.617
  83  -876.9261
  84  -667.923
  85  -1062.781
  86  -1234.598
  87  -1086.676
  88  -1057.289
  89  -1125.926
  90  -1271.137
  91  -1139.076
  92  -945.148
  93  -826.8965
  94  -832.6108
  95  -1085.581
  96  -957.1589
  97  -284.6392
  98  -290.0672
  99  -666.7495
 100  -406.7133
 101  -614.3083
 102  -755.2684
 103  -642.4065
 104  -700.3633
 105  -348.3187
 106  -467.976
 107  -679.3663
 108  -709.4963
 109  -751.3676
 110  -711.738
 111  -527.8444
 112  -409.4172
 113  -426.5156
 114  -555.033
 115  -472.6271
 116  -710.9583
 117  -548.4542
 118  -173.0436
 119  3.420388
 120  -341.3615
 121  -214.3398
 122  -301.5532
 123  -410.0421
 124  -370.2893
 125  -346.6996
 126  25.71799
 127  65.66636
 128  -161.0334
 129  -438.3442
 130  -48.36142
 131  209.6439
 132  208.798
 133  14.44728
 134  -52.14071
 135  -83.6
 136  -126.0333
 137  -199.8704
 138  -195.0545
 139  -265.4998
 140  -517.0196
 141  -496.5916
 142  -502.7525
 143  -476.5468
 144  -687.0212
 145  -1169.647
 146  -1193.482
 147  -1121.928
 148  -714.5238
 149  -519.508
 150  -306.8219
 151  -606.6492
 152  -984.9115
 153  -1078.029
 154  -806.2083
 155  -795.0896
 156  -194.8926
 157  -266.177
 158  -420.0162
 159  -616.9413
 160  -634.3891
 161  -451.5273
 162  -256.7999
 163  -124.1205
 164  -25.15736
 165  -7.697592
 166  -386.9158
 167  -126.3575
 168  72.6787
 169  -367.339
 170  -198.6863
 171  180.7351
 172  91.45504
 173  -203.5669
 174  -478.5336
 175  -136.8828
 176  -20.22323
 177  -337.2634
 178  -177.1827
 179  -39.74189
 180  -111.6308
 181  -69.16982
 182  180.5744
 183  95.27454
 184  106.4677
 185  304.8361
 186  456.5852
 187  523.3967
 188  288.733
 189  161.2532
 190  487.7098
 191  479.1693
 192  488.6865
 193  50.02991
 194  359.0726
 195  713.166
 196  420.3805
 197  419.7018
 198  614.9442
 199  308.0361
 200  326.1187
 201  170.7903
 202  598.499
 203  329.7862
 204  596.503
 205  711.634
 206  417.7953
 207  267.9821
 208  327.7502
 209  360.1681
 210  841.6033
 211  884.8337
 212  666.1165
 213  731.612
 214  799.1879
 215  585.8502
 216  424.7024
 217  302.4271
 218  458.7067
 219  321.0124
 220  483.3433
 221  690.9019
 222  474.7506
 223  121.1753
 224  162.5529
 225  419.4582
 226  323.0666
 227  252.9989
 228  396.5067
 229  30.51621
 230  159.0081
 231  -193.1824
 232  -178.6125
 233  -372.3732
 234  -358.9566
 235  -420.3651
 236  -549.3216
 237  -173.3914
 238  -519.8962
 239  -380.26
 240  -141.4587
 241  -608.2955
 242  -561.3243
 243  -556.3577
 244  -303.9824
 245  -306.3506
 246  -118.6024
 247  -42.5684
 248  -208.5049
 249  -115.8345
 250  -422.43
 251  -218.1588
 252  -131.909
 253  138.3442
 254  41.1246
 255  -11.53438
 256  180.2028
 257  315.097
 258  259.1992
 259  16.40483
 260  -127.0325
 261  118.0847
 262  75.37627
 263  276.5114
 264  436.218
 265  518.1875
 266  -29.65541
 267  62.53942
 268  26.67382
 269  106.4782
 270  175.3767
 271  49.45966
 272  -145.5897
 273  -7.622325
 274  339.6598
 275  253.7516
 276  363.7906
 277  54.15885
 278  -72.51715
 279  96.01369
 280  79.2533
 281  125.5256
 282  237.7861
 283  275.2368
 284  283.9653
 285  263.9488
 286  376.6349
 287  416.0561
 288  523.7501
 289  403.0875
 290  352.8906
 291  554.868
 292  87.99432
 293  -160.7257
 294  286.9907
 295  226.6219
 296  -128.7812
 297  -27.1755
 298  156.3214
 299  -78.07172
 300  21.12815
 301  42.83678
 302  -72.84811
 303  -229.7012
 304  -241.8728
 305  -408.2636
 306  -392.7787
 307  -155.6781
 308  -157.3589
 309  -438.349
 310  -408.8766
 311  -868.6238
 312  -1124.857
 313  -844.0832
 314  -904.0067
 315  -937.4679
 316  -1199.63
 317  -1342.77
 318  -1227.974
 319  -842.0381
 320  -785.5516
 321  -993.5759
 322  -1469.063
 323  -1510.208
 324  -1316.809
 325  -722.3571
 326  -629.6453
 327  -1068.145
 328  -630.8583
 329  -726.3287
 330  -727.5923
 331  -230.5315
 332  -7.203017
 333  -375.5923
 334  -615.7629
 335  -195.7906
 336  -155.5789
 337  302.4699
 338  -85.7906
 339  -199.2682
 340  -309.306
 341  -25.03798
 342  694.492
 343  292.0025
 344  118.664
 345  91.4315
 346  322.4119
 347  388.1573
 348  423.5158
 349  535.5184
 350  506.5789
 351  410.9242
 352  495.257
 353  666.7408
 354  292.3679
 355  207.7319
 356  614.0542
 357  797.3865
 358  717.9766
 359  558.1096
 360  570.3675
 361  502.1007
 362  32.51656
 363  246.4221
 364  192.9449
 365  189.5377
 366  127.2434
 367  327.334
 368  309.3416
 369  360.1401
 370  187.1928
 371  367.3318
 372  385.1998
 373  438.938
 374  603.3141
 375  645.7979
 376  679.541
 377  792.7745
 378  626.7256
 379  528.4989
 380  720.6233
 381  712.0635
 382  487.8215
 383  531.7994
 384  601.3796
 385  1019.467
 386  1490.359
 387  431.2904
 388  412.1508
 389  711.1668
 390  -334.7226
 391  4192.365
 392  6501.758
 393  1879.478
 394  -85.0631
 395  -584.5518
 396  9.286686
 397  -119.0007
 398  -89.92666
 399  363.1544
 400  -22.86733
 401  -45.27879
 402  206.5104
 403  5.528281
 404  17.72639
 405  179.7767
 406  454.885
 407  422.0868
 408  18.08528
 409  70.04643
 410  205.6785
 411  381.8338
 412  30.11593
 413  154.9132
 414  -127.4117
 415  191.6969
 416  195.9318
 417  332.2658
 418  354.9998
 419  246.4926
 420  190.2593
 421  191.6254
 422  97.94882
 423  60.10989
 424  455.0657
 425  439.8622
 426  234.9167
 427  9.582779
 428  43.81464
 429  -100.7938
 430  -94.90434
 431  411.8171
 432  705.1526
 433  744.8176
 434  1003.505
 435  1058.641
 436  1111.035
 437  1100.448
 438  937.4869
 439  1364.222
 440  1348.438
 441  1032.396
 442  974.6671
 443  863.097
 444  745.2328
 445  729.8005
 446  660.5618
 447  1056.175
 448  1059.837
 449  849.0202
 450  859.8323
 451  527.6088
 452  478.5782
 453  409.108
 454  531.8516
 455  1221.315
 456  1801.914
 457  1976.622
 458  2154.928
 459  2028.565
 460  1565.034
 461  561.2634
 462  224.4012
 463  -62.47688
 464  -104.9285
 465  -445.0848
 466  -525.3741
 467  -631.1209
 468  -572.1295
 469  -887.4973
 470  -1251.894
 471  -804.6007
 472  -565.9999
 473  -324.2097
 474  -312.2185
 475  -483.7937
 476  -355.2049
 477  -662.0133
 478  -250.3741
 479  -119.2551
 480  -115.1196
 481  69.00871
 482  -124.5695
 483  -392.1357
 484  -504.7463
 485  -743.1923
 486  -749.525
 487  -318.1397
 488  -127.3462
 489  -227.6195
 490  -70.43238
 491  -324.3875
 492  -546.1263
 493  -417.286
 494  -478.7903
 495  -482.9375
 496  -38.14857
 497  -25.54928
 498  -282.7534
 499  64.47808
 500  97.62297
 501  -365.65
 502  -246.7713
 503  -21.47717
 504  -72.95789
 505  -64.15565
 506  -124.186
 507  -133.1419
 508  -72.40023
 509  70.98247
 510  74.96772
 511  -329.6177
