# Input file       =  1208771537.100019_cleaned.dat
# Candidate        =  PSR_0332+5434
# Telescope        =  AR
# Epoch_topo       =  58234.411528935401
# Epoch_bary       =  N/A
# T_sample         =  0.002
# Data Folded      =  7340032
# Data Avg         =  -0.0496005987650784
# Data StdDev      =  7.48626599687241 
# Profile Bins     =  512
# Profile Avg      =  -711.507136780969
# Profile StdDev   =  896.353358929671 
# Reduced chi-sqr  =  0.676
# Prob(Noise)      <  1   (~0.0 sigma)
# P_topo (ms)      =  714.550789820622  +/- 0.000734
# P'_topo (s/s)    =  -0                +/- 3.87e-10
# P''_topo (s/s^2) =  0                 +/- 1.71e-13
# P_bary (ms)      =  N/A
# P'_bary (s/s)    =  N/A
# P''_bary (s/s^2) =  N/A
# P_orb (s)        =  N/A
# asin(i)/c (s)    =  N/A
# eccentricity     =  N/A
# w (rad)          =  N/A
# T_peri           =  N/A
######################################################
   0  -971.2729
   1  -1024.734
   2  -1241.643
   3  -1058.508
   4  -1026.361
   5  -989.0973
   6  -888.2084
   7  -617.6151
   8  -830.9886
   9  -1187.249
  10  -560.9644
  11  -525.3478
  12  -939.3742
  13  -623.1354
  14  -322.2469
  15  -515.0825
  16  -755.9195
  17  -620.5389
  18  -325.6822
  19  -413.7804
  20  -578.0915
  21  -188.7018
  22  -325.6817
  23  -403.9448
  24  -234.9263
  25  27.22039
  26  -114.0443
  27  -212.2211
  28  -93.12274
  29  102.5828
  30  198.0793
  31  -239.5383
  32  -159.9597
  33  142.4666
  34  215.7811
  35  10.6336
  36  -348.6779
  37  29.7371
  38  -0.563268
  39  -179.4981
  40  -141.3888
  41  -114.5208
  42  -569.0408
  43  -484.793
  44  -561.2214
  45  -270.9239
  46  -405.053
  47  -100.2767
  48  -214.5285
  49  -361.7054
  50  -370.4283
  51  -199.4868
  52  -123.6631
  53  70.12609
  54  -95.06936
  55  -242.5417
  56  -101.3979
  57  19.90878
  58  -298.9086
  59  -594.5637
  60  -623.5724
  61  -444.6081
  62  -427.7823
  63  -353.9045
  64  -96.43216
  65  -388.4411
  66  -660.6343
  67  -643.4594
  68  -333.3037
  69  -465.6109
  70  -460.3937
  71  -415.9799
  72  -810.7576
  73  -837.8223
  74  -1342.335
  75  -1071.465
  76  -1283.103
  77  -1051.136
  78  -1070.506
  79  -1050.957
  80  -676.1809
  81  -1048.535
  82  -568.4838
  83  -836.7244
  84  -1274.762
  85  -1295.375
  86  -1358.135
  87  -1292.758
  88  -1308.319
  89  -1036.166
  90  -891.8456
  91  -1067.06
  92  -1133.58
  93  -1510.214
  94  -1156.659
  95  -1168.645
  96  -733.4876
  97  -723.7679
  98  -726.5919
  99  -534.3288
 100  -586.5564
 101  -742.5079
 102  -963.998
 103  -1024.456
 104  -633.58
 105  -777.4482
 106  -815.0546
 107  -410.3357
 108  -514.5027
 109  -983.3397
 110  -833.218
 111  -746.5777
 112  -681.8726
 113  -636.9279
 114  -661.1919
 115  -682.5559
 116  -454.8874
 117  -385.8404
 118  -571.02
 119  -572.7825
 120  -974.1638
 121  -1404.828
 122  -1188.313
 123  -1345.979
 124  -1297.787
 125  -1003.153
 126  -819.661
 127  -989.2284
 128  -1013.3
 129  -721.4423
 130  -834.1851
 131  -596.6326
 132  -597.9578
 133  -675.3486
 134  -705.9061
 135  -1275.799
 136  -1053.45
 137  -681.8978
 138  -997.5905
 139  -1210.593
 140  -915.1622
 141  -895.8019
 142  -1071.692
 143  -827.957
 144  -984.5129
 145  -923.9092
 146  -1106.117
 147  -1090.28
 148  -1533.473
 149  -1247.057
 150  -1042.879
 151  -1136.566
 152  -1388.096
 153  -1194.924
 154  -1626.211
 155  -1761.953
 156  -1637.794
 157  -1892.163
 158  -1764.097
 159  -2025.342
 160  -2016.987
 161  -1631.518
 162  -1476.321
 163  -1552.396
 164  -2147.078
 165  -2448.287
 166  -2388.074
 167  -2014.231
 168  -1825.841
 169  -2009.553
 170  -2021.819
 171  -1393.682
 172  -1628.737
 173  -1428.842
 174  -848.3281
 175  -749.5693
 176  -1119.252
 177  -996.0148
 178  -775.0295
 179  -539.9683
 180  -106.2568
 181  -552.3892
 182  -640.5426
 183  -941.8709
 184  -117.4136
 185  0.5689254
 186  -328.5452
 187  -182.7301
 188  -1.339426
 189  -53.0803
 190  -183.2338
 191  -154.6303
 192  -20.70012
 193  -33.75637
 194  99.46877
 195  156.8877
 196  177.7042
 197  -268.2052
 198  -391.2528
 199  136.2143
 200  207.3046
 201  94.68824
 202  -121.4899
 203  -76.41601
 204  -392.9182
 205  -514.1385
 206  -606.5671
 207  -567.9362
 208  -775.4962
 209  -545.3327
 210  -453.8896
 211  -607.6371
 212  -492.6267
 213  -625.4409
 214  -470.0786
 215  -381.6795
 216  -412.1169
 217  -383.9009
 218  -342.3783
 219  -4.918198
 220  -174.4773
 221  -301.9638
 222  -617.9006
 223  -557.5223
 224  -404.5175
 225  -582.195
 226  -722.6008
 227  -436.5376
 228  -37.43534
 229  107.7999
 230  -579.9764
 231  -802.1301
 232  -568.2092
 233  -224.475
 234  -16.17446
 235  -203.3089
 236  -752.6678
 237  -1130.629
 238  -1025.737
 239  -913.2754
 240  -779.1607
 241  -767.4945
 242  -437.9405
 243  -891.1924
 244  -785.1726
 245  -467.6366
 246  -591.3989
 247  -609.8284
 248  -91.65817
 249  145.4052
 250  -144.5171
 251  -461.0326
 252  -367.2001
 253  -397.8972
 254  -225.8537
 255  -577.8897
 256  -495.9741
 257  -619.7777
 258  -302.1261
 259  -427.3069
 260  -72.77772
 261  -372.052
 262  -330.9447
 263  -242.262
 264  -266.8112
 265  -416.4871
 266  -282.2143
 267  153.2283
 268  -53.75191
 269  -473.3359
 270  -750.0767
 271  -808.3089
 272  -949.8368
 273  -829.8847
 274  -384.7105
 275  -330.4529
 276  -338.6134
 277  -13.1769
 278  88.88227
 279  240.6299
 280  402.3925
 281  274.5398
 282  565.0256
 283  250.3371
 284  -111.6416
 285  -47.92699
 286  -221.0133
 287  -134.4887
 288  -70.33669
 289  -62.50136
 290  206.6175
 291  -30.30598
 292  73.59521
 293  -7.003132
 294  -402.1342
 295  -561.4522
 296  -520.2743
 297  -25.43969
 298  704.4359
 299  1321.056
 300  1588.584
 301  1455.883
 302  1428.738
 303  612.0623
 304  -221.8646
 305  -392.6986
 306  -593.0876
 307  -769.4086
 308  -984.69
 309  -1169.547
 310  -1209.979
 311  -1392.197
 312  -1651.519
 313  -1801.3
 314  -1311.536
 315  -1164.918
 316  -840.2021
 317  -873.9423
 318  -1050.742
 319  -1225.275
 320  -1565.326
 321  -977.5281
 322  -806.2076
 323  -826.7056
 324  -720.4592
 325  -1022.464
 326  -1010.05
 327  -1044.201
 328  -1127.341
 329  -1296.797
 330  -755.1191
 331  -705.3267
 332  -815.5888
 333  -602.4004
 334  -737.1959
 335  -742.0361
 336  -838.1754
 337  -1055.142
 338  -1072.872
 339  -771.291
 340  -617.9805
 341  -580.7637
 342  -184.2695
 343  -352.6306
 344  -707.3128
 345  -440.4962
 346  -553.9666
 347  -378.3971
 348  -513.7858
 349  -549.0754
 350  -360.6487
 351  -457.1038
 352  -296.6052
 353  -520.8687
 354  -601.3497
 355  -134.8844
 356  -274.2641
 357  -433.9319
 358  -759.1559
 359  -776.063
 360  -680.0349
 361  -913.5018
 362  -918.8729
 363  -928.6593
 364  -376.5202
 365  -693.6653
 366  -831.3063
 367  -844.2541
 368  -330.1448
 369  -411.2818
 370  -597.0444
 371  -646.2728
 372  -618.6057
 373  -1016.262
 374  -817.3978
 375  -611.6406
 376  -855.45
 377  -926.0908
 378  -1059.163
 379  -1175.327
 380  -795.6426
 381  -914.4891
 382  -1240.026
 383  -1263.826
 384  -705.3856
 385  -480.0358
 386  -389.136
 387  -718.6966
 388  -587.577
 389  -692.0539
 390  -952.7764
 391  -875.6643
 392  -908.0723
 393  -940.5166
 394  -798.8395
 395  -387.9501
 396  -396.0288
 397  -524.746
 398  -278.1678
 399  -150.883
 400  -529.5892
 401  -304.2896
 402  -370.9299
 403  -328.0752
 404  -278.6507
 405  -428.3585
 406  -940.3798
 407  -783.8861
 408  -651.0957
 409  -494.2492
 410  -551.5654
 411  -983.0418
 412  -1059.364
 413  -1018.356
 414  -969.7005
 415  -606.6808
 416  -515.179
 417  -718.2914
 418  -781.7333
 419  -859.3111
 420  -918.6192
 421  -708.1811
 422  -1182.655
 423  -1324.794
 424  -1159.241
 425  -1203.619
 426  -1342.027
 427  -1140.496
 428  -865.7962
 429  -1138.603
 430  -1262.373
 431  -1221.72
 432  -1187.993
 433  -1815.439
 434  -2043.841
 435  -1896.478
 436  -1404.082
 437  -1493.577
 438  -1283.124
 439  -1384.707
 440  -1773.672
 441  -2029.531
 442  -1826.127
 443  -1573.04
 444  -1750.553
 445  -1938.829
 446  -1479.896
 447  -1239.033
 448  -1331.405
 449  -1157.745
 450  -1424.898
 451  -1127.42
 452  -471.2961
 453  -808.5254
 454  -939.1646
 455  -759.1478
 456  -1026.076
 457  -1241.656
 458  -1189.758
 459  -1088.164
 460  -728.1229
 461  -969.9479
 462  -732.5357
 463  -855.3275
 464  -981.8831
 465  -855.5197
 466  -747.8973
 467  -639.0825
 468  -723.9113
 469  -657.3926
 470  -853.6699
 471  -1050.967
 472  -941.392
 473  -568.4598
 474  -627.4702
 475  -1009.716
 476  -983.7051
 477  -1024.576
 478  -1037.468
 479  -844.953
 480  -820.8367
 481  -247.1138
 482  -463.8816
 483  -663.852
 484  -978.8302
 485  -569.3003
 486  -561.7712
 487  -549.3497
 488  -591.5439
 489  -687.9578
 490  -493.0109
 491  -757.4445
 492  -663.9725
 493  -718.0638
 494  -794.3272
 495  -1061.626
 496  -840.0082
 497  -877.7925
 498  -1060.245
 499  -1381.843
 500  -1627.255
 501  -1750.709
 502  -1454.008
 503  -1161.928
 504  -998.6636
 505  -1095.123
 506  -1334.916
 507  -1771.626
 508  -1669.235
 509  -1612.325
 510  -1269.386
 511  -584.2144
