# Input file       =  1208340608.107277_cleaned.dat
# Candidate        =  PSR_0332+5434
# Telescope        =  AR
# Epoch_topo       =  58229.423924852745
# Epoch_bary       =  N/A
# T_sample         =  0.002
# Data Folded      =  7340032
# Data Avg         =  0.21392840569024 
# Data StdDev      =  6.05340829362259 
# Profile Bins     =  512
# Profile Avg      =  3067.23625210595 
# Profile StdDev   =  724.792955423732 
# Reduced chi-sqr  =  0.984
# Prob(Noise)      <  0.594   (~0.0 sigma)
# P_topo (ms)      =  714.555028635654  +/- 0.000541
# P'_topo (s/s)    =  -0                +/- 2.86e-10
# P''_topo (s/s^2) =  0                 +/- 1.26e-13
# P_bary (ms)      =  N/A
# P'_bary (s/s)    =  N/A
# P''_bary (s/s^2) =  N/A
# P_orb (s)        =  N/A
# asin(i)/c (s)    =  N/A
# eccentricity     =  N/A
# w (rad)          =  N/A
# T_peri           =  N/A
######################################################
   0  2534.38
   1  2676.512
   2  2904.452
   3  3092.176
   4  2630.842
   5  2203.015
   6  2656.068
   7  2640.309
   8  2388.329
   9  2726.59
  10  2647.26
  11  2589.629
  12  2565.897
  13  2794.095
  14  2401.884
  15  2176.496
  16  2261.631
  17  2361.089
  18  2406.295
  19  2253.79
  20  2166.957
  21  2496.56
  22  2261.128
  23  2243.161
  24  2469.977
  25  2495.222
  26  2419.28
  27  2389.37
  28  2033.968
  29  2290.04
  30  2532.413
  31  2736.181
  32  2802.049
  33  3036.565
  34  3117.097
  35  3107.973
  36  3471.293
  37  3377.973
  38  3080.205
  39  2921.439
  40  3530.027
  41  3175.084
  42  3282.164
  43  3004.912
  44  2746.966
  45  2927.958
  46  3273.503
  47  3254.046
  48  3267.206
  49  3360.696
  50  3562.151
  51  3792.934
  52  3584.236
  53  3544.621
  54  3449.293
  55  3486.435
  56  3584.274
  57  3590.741
  58  3524.244
  59  3349.337
  60  3058.287
  61  3456.613
  62  3392.19
  63  3585.617
  64  3153.339
  65  2613.814
  66  2669.15
  67  2739.295
  68  2786.981
  69  2982.945
  70  2672.294
  71  2129.809
  72  2059.337
  73  1974.395
  74  1979.534
  75  2012.534
  76  2104.545
  77  2599.625
  78  2504.171
  79  2093.107
  80  2034.944
  81  2272.74
  82  2528.984
  83  2075.724
  84  2640.154
  85  2220.729
  86  2178.984
  87  2241.648
  88  2440.742
  89  2026.455
  90  2025.557
  91  1948.087
  92  1985.556
  93  2034.318
  94  2502.759
  95  2451.977
  96  2531.416
  97  2410.325
  98  2283.996
  99  2085.723
 100  2150.121
 101  2214.907
 102  2114.318
 103  2015.435
 104  2056.039
 105  2858.45
 106  3095.437
 107  2518.38
 108  2327.171
 109  2558.121
 110  2654.253
 111  2469.243
 112  2408.916
 113  2477.499
 114  2322.337
 115  2790.093
 116  3012.688
 117  2525.605
 118  2669.282
 119  2350.25
 120  2685.605
 121  2831.475
 122  2692.871
 123  2749.137
 124  2790.852
 125  2679.066
 126  2809.327
 127  2674.105
 128  2523.001
 129  3225.134
 130  2879.063
 131  2512.904
 132  2655.881
 133  2764.579
 134  2964.521
 135  3020.409
 136  3198.993
 137  3265.571
 138  3166.635
 139  3282.086
 140  3615.165
 141  3344.981
 142  3098.483
 143  2960.412
 144  3297.585
 145  3666.224
 146  3703.933
 147  3204.728
 148  3134.79
 149  2982.232
 150  3105.034
 151  3170.9
 152  3146.071
 153  3127.728
 154  3359.539
 155  3508.291
 156  3110.317
 157  3050.975
 158  2837.799
 159  3373.976
 160  3045.35
 161  2758.505
 162  3046.54
 163  3328.292
 164  3108.849
 165  2909.781
 166  2932.79
 167  2811.234
 168  2741.664
 169  2886.886
 170  2930.962
 171  2681.895
 172  2751.935
 173  2896.224
 174  2758.485
 175  2864.654
 176  2725.329
 177  2788.454
 178  3084.267
 179  3067.358
 180  3337.295
 181  3118.643
 182  2996.27
 183  3159.554
 184  3240.208
 185  3202.966
 186  3359.848
 187  3192.758
 188  3266.643
 189  3196.945
 190  2802.882
 191  2902.36
 192  3104.445
 193  2670.389
 194  2728.827
 195  2438.828
 196  2815.2
 197  2595.097
 198  2799.092
 199  2983.756
 200  3058.984
 201  3356.163
 202  3356.448
 203  3004.94
 204  2845.873
 205  3037.86
 206  3216.371
 207  3352.235
 208  3317.411
 209  3019.229
 210  3264.844
 211  3048.502
 212  2907.801
 213  3255.707
 214  3113.735
 215  3302.435
 216  3177.5
 217  3339.628
 218  3190.296
 219  3436.366
 220  3251.163
 221  3308.311
 222  3290.588
 223  3407.396
 224  3715.187
 225  3782.288
 226  3695.304
 227  3415.018
 228  3795.459
 229  3745.933
 230  3448.925
 231  3978.594
 232  4096.523
 233  3563.522
 234  3491.455
 235  3613.367
 236  3717.099
 237  3783.164
 238  3688.523
 239  3610.486
 240  3750.011
 241  3850.182
 242  3343.935
 243  3473.533
 244  3842.272
 245  3717.866
 246  3562.281
 247  3870.058
 248  3264.151
 249  3437.978
 250  3758.071
 251  3656.857
 252  3623.552
 253  3415.997
 254  3461.889
 255  3528.324
 256  3504.574
 257  3301.034
 258  3250.37
 259  3415.288
 260  3412.718
 261  3336.321
 262  3167.717
 263  3386.877
 264  3255.704
 265  3368.024
 266  3424.413
 267  3348.768
 268  3644.489
 269  4042.126
 270  3808.001
 271  3690.352
 272  3447.529
 273  3459.114
 274  3385.438
 275  3287.681
 276  3498.959
 277  3556.662
 278  3887.71
 279  3508.192
 280  3531.51
 281  3455.059
 282  3451.714
 283  3383.126
 284  3087.923
 285  3157.655
 286  3307.766
 287  3209.628
 288  3028.532
 289  3032.506
 290  3206.703
 291  3260.814
 292  2892.834
 293  2612.917
 294  2769.359
 295  3115.463
 296  3069.429
 297  3290.191
 298  3699.711
 299  4462.881
 300  4964.423
 301  5357.164
 302  5204.461
 303  4697.08
 304  4011.96
 305  3183.492
 306  3125.185
 307  3305.362
 308  3339.714
 309  3168.66
 310  3180.597
 311  3552.701
 312  3334.195
 313  3260.475
 314  3503.814
 315  3377.731
 316  3274.603
 317  3480.498
 318  3643.432
 319  3128.027
 320  3156.263
 321  3190.137
 322  3262.342
 323  3619.367
 324  3395.114
 325  3453.252
 326  3251.524
 327  3410.114
 328  2860.317
 329  3041.756
 330  3291.914
 331  2938.548
 332  3625.219
 333  3611.8
 334  3327.416
 335  3354.253
 336  3588.517
 337  3546.497
 338  3670.268
 339  3581.195
 340  3530.075
 341  3512.295
 342  3760.779
 343  3606.517
 344  3469.982
 345  3562.301
 346  3631.21
 347  3591.205
 348  3778.795
 349  3903.384
 350  3801.409
 351  3453.301
 352  3219.206
 353  3421.092
 354  3436.493
 355  2737.565
 356  2802.678
 357  3300.011
 358  2881
 359  2886.573
 360  3185.747
 361  3206.092
 362  3354.877
 363  3588.764
 364  3211.89
 365  2836.143
 366  2607.633
 367  2781.286
 368  2566.503
 369  2732.47
 370  3193.164
 371  3070.329
 372  2946.141
 373  2683.121
 374  2354.038
 375  2550.676
 376  2586.693
 377  2641.018
 378  3102.856
 379  2991.018
 380  2668.521
 381  2161.24
 382  2272.007
 383  2387.149
 384  2604.566
 385  2582.629
 386  2544.532
 387  2969.373
 388  3091.666
 389  2922.226
 390  2602.885
 391  2849.462
 392  2998.445
 393  2776.047
 394  2641.147
 395  2907.957
 396  2718.749
 397  2616.259
 398  2924.104
 399  3212.806
 400  3252.468
 401  3351.513
 402  3389.976
 403  3271.404
 404  3107.269
 405  3317.549
 406  3157.729
 407  3110.794
 408  3112.902
 409  3556.197
 410  3425.101
 411  3489.488
 412  3605.127
 413  3299.337
 414  2835.154
 415  2873.493
 416  3072.961
 417  3376.781
 418  3274.421
 419  3452.906
 420  3102.759
 421  3233.201
 422  2961.573
 423  3019.759
 424  3283.107
 425  3035.972
 426  2877.801
 427  3112.958
 428  3055.116
 429  3141.88
 430  2633.692
 431  2662.477
 432  2796.501
 433  2901.142
 434  2752.562
 435  2651.042
 436  2608.51
 437  2799.223
 438  2377.597
 439  2613.265
 440  2795.554
 441  2473.853
 442  2468.526
 443  2539.065
 444  2513.95
 445  2765.73
 446  2578.95
 447  2534.42
 448  2543.311
 449  2639.532
 450  2767.764
 451  2347.657
 452  2596.67
 453  2648.997
 454  2386.723
 455  2556.275
 456  2505.394
 457  2226.455
 458  2312.229
 459  2272.36
 460  2520.051
 461  2544.27
 462  2587.482
 463  2557.966
 464  2389.443
 465  2526.263
 466  2821.015
 467  2792.385
 468  2759.167
 469  2742.089
 470  2740.856
 471  2480.036
 472  2764.189
 473  3150.008
 474  3059.944
 475  2974.652
 476  3071.538
 477  3217.083
 478  3527.107
 479  3444.964
 480  3688.395
 481  3508.167
 482  3815.783
 483  4142.941
 484  4082.225
 485  4047.979
 486  4180.215
 487  4170.552
 488  4356.735
 489  4311.538
 490  4328.027
 491  4065.499
 492  4150.787
 493  3898.307
 494  3747.906
 495  4106.156
 496  4164.647
 497  3807.686
 498  3694.701
 499  3409.186
 500  3648.65
 501  3749.563
 502  3415.271
 503  3423.204
 504  3092.071
 505  2858.045
 506  3224.213
 507  3054.226
 508  2686.369
 509  2743.095
 510  2977.676
 511  2680.449
