# Input file       =  1208670671.120142-PSRB0329-2ms-sampling-dd.dat
# Candidate        =  PSR_0332+5434
# Telescope        =  AR
# Epoch_topo       =  58233.244098612755
# Epoch_bary       =  N/A
# T_sample         =  0.002
# Data Folded      =  7208960
# Data Avg         =  -1.63274669745732e-09
# Data StdDev      =  19.0429944777272 
# Profile Bins     =  512
# Profile Avg      =  0.674787760491268
# Profile StdDev   =  2259.62602936786 
# Reduced chi-sqr  =  1.218
# Prob(Noise)      <  0.000517   (~3.3 sigma)
# P_topo (ms)      =  714.551773203082  +/- 3.48e-05
# P'_topo (s/s)    =  -0                +/- 1.87e-11
# P''_topo (s/s^2) =  0                 +/- 8.39e-15
# P_bary (ms)      =  N/A
# P'_bary (s/s)    =  N/A
# P''_bary (s/s^2) =  N/A
# P_orb (s)        =  N/A
# asin(i)/c (s)    =  N/A
# eccentricity     =  N/A
# w (rad)          =  N/A
# T_peri           =  N/A
######################################################
   0  -3185.27
   1  -2749.557
   2  -1031.917
   3  -122.8092
   4  733.1923
   5  -258.0952
   6  -1435.156
   7  -2100.45
   8  -2266.392
   9  -2347.996
  10  -2898.817
  11  -1609.765
  12  -552.1102
  13  -1017.032
  14  -2946.733
  15  -3473.997
  16  -3703.866
  17  -3719.817
  18  -2122.343
  19  -504.7724
  20  937.2984
  21  442.4196
  22  -654.3475
  23  -1703.636
  24  -2395.801
  25  -2310.907
  26  -2534.185
  27  -1662.075
  28  -889.2438
  29  -567.0055
  30  -1683.039
  31  -2864.279
  32  -2735.265
  33  -3332.578
  34  -3004.127
  35  -1522.089
  36  -177.894
  37  976.1142
  38  417.9563
  39  -785.5438
  40  -1609.596
  41  -2122.948
  42  -2617.795
  43  -2740.641
  44  -1496.927
  45  -653.5085
  46  -1350.256
  47  -2640.136
  48  -2622.92
  49  -3007.475
  50  -2757.576
  51  -1916.449
  52  -771.6313
  53  626.2307
  54  -1.82574
  55  -142.7522
  56  -1258.193
  57  -1500.775
  58  -1738.712
  59  -2240.04
  60  -1875.443
  61  -994.061
  62  -429.562
  63  -1956.362
  64  -2904.753
  65  -3112.113
  66  -2891.149
  67  -2286.575
  68  -1739.666
  69  484.2369
  70  294.8505
  71  -163.3806
  72  -1472.722
  73  -1393.327
  74  -1813.232
  75  -2223.512
  76  -2355.569
  77  -1703.687
  78  -693.728
  79  -1314.733
  80  -2478.517
  81  -4148.127
  82  -3651.423
  83  -3292.189
  84  -1996.034
  85  451.2332
  86  585.3929
  87  751.0537
  88  329.4954
  89  1340.256
  90  1085.725
  91  819.8947
  92  837.3524
  93  813.9941
  94  2679.9
  95  2696.042
  96  1891.012
  97  582.4033
  98  92.66076
  99  80.25285
 100  440.8346
 101  1926.001
 102  3281.262
 103  4773.568
 104  3714.579
 105  2256.295
 106  1194.403
 107  607.9205
 108  737.7505
 109  1152.926
 110  1970.241
 111  2736.534
 112  2357.968
 113  619.8024
 114  -438.1897
 115  -483.9956
 116  -124.8177
 117  682.4692
 118  2830.513
 119  3673.191
 120  3545.666
 121  2361.607
 122  1384.016
 123  978.4057
 124  854.5977
 125  626.8893
 126  1552.177
 127  2241.733
 128  2413.888
 129  1149.71
 130  -41.53157
 131  -45.33295
 132  -24.00253
 133  639.7037
 134  1779.756
 135  2901.824
 136  4145.445
 137  2970.881
 138  1925.539
 139  1248.518
 140  952.0409
 141  889.9181
 142  480.2711
 143  1742.315
 144  2388.89
 145  1566.027
 146  -75.80538
 147  165.7408
 148  231.97
 149  214.8578
 150  1342.35
 151  2661.309
 152  3795.371
 153  2840.375
 154  2290.389
 155  1156.354
 156  781.7722
 157  512.3742
 158  -3.02563
 159  407.4092
 160  1324.524
 161  2050.356
 162  687.4819
 163  -57.07261
 164  -628.3437
 165  -460.2768
 166  -298.2823
 167  690.1763
 168  2773.037
 169  3649.426
 170  3232.991
 171  1899.136
 172  903.6418
 173  549.4343
 174  118.6527
 175  -90.70765
 176  729.1648
 177  2292.542
 178  1536.156
 179  226.3468
 180  -938.616
 181  -803.2481
 182  -647.2273
 183  120.9983
 184  2144.385
 185  3362.668
 186  3724.251
 187  2219.117
 188  915.7855
 189  224.1515
 190  56.09801
 191  62.17971
 192  448.9034
 193  2093.471
 194  2475.019
 195  1235.636
 196  -100.911
 197  -468.5082
 198  -541.2089
 199  -27.66313
 200  1261.549
 201  2905.761
 202  3797.627
 203  3064.091
 204  1782.404
 205  804.592
 206  101.0588
 207  1.426536
 208  304.7183
 209  1248.376
 210  2246.608
 211  1856.432
 212  433.9276
 213  -385.1786
 214  152.264
 215  -580.4266
 216  267.4468
 217  1883.752
 218  2601.362
 219  3110.685
 220  2081.939
 221  1435.529
 222  825.3874
 223  649.7162
 224  433.3717
 225  618.6243
 226  1890.759
 227  2170.466
 228  1499.842
 229  576.892
 230  429.7376
 231  -373.7968
 232  -340.6652
 233  596.2853
 234  2049.781
 235  3547.916
 236  3055.694
 237  2334.717
 238  1721.62
 239  1069.099
 240  499.7432
 241  -205.513
 242  402.4642
 243  1434.293
 244  1686.948
 245  -14.68767
 246  -327.2585
 247  -596.0963
 248  -851.6955
 249  -164.8846
 250  1407.172
 251  3130.263
 252  2764.385
 253  2158.253
 254  994.5231
 255  563.7598
 256  194.0743
 257  -297.2943
 258  -313.8049
 259  729.7645
 260  1564.274
 261  478.7722
 262  -375.5842
 263  -1000.769
 264  -604.1987
 265  -392.0178
 266  618.7609
 267  2653.275
 268  3510.159
 269  2725.781
 270  1116.212
 271  158.3183
 272  -59.61587
 273  176.07
 274  -73.98093
 275  594.2796
 276  1871.735
 277  1422.244
 278  205.6647
 279  -755.6185
 280  -1131.25
 281  -911.2134
 282  -432.1812
 283  1220.835
 284  3003.084
 285  3321.495
 286  2431.555
 287  1119.508
 288  -373.5493
 289  -413.0781
 290  -815.9512
 291  -120.8052
 292  964.2194
 293  1270.641
 294  375.8335
 295  -325.0543
 296  -544.36
 297  -819.7943
 298  -1042.367
 299  78.179
 300  1979.848
 301  3200.583
 302  3174.424
 303  2166.987
 304  823.5388
 305  209.0644
 306  -189.0016
 307  -550.2263
 308  667.0015
 309  1933.757
 310  1557.211
 311  519.4285
 312  -573.2068
 313  -457.2553
 314  -716.2115
 315  -709.3192
 316  764.9258
 317  2108.206
 318  2730.823
 319  1489.877
 320  1006.683
 321  365.8457
 322  49.12891
 323  -531.311
 324  -746.8811
 325  735.1055
 326  938.9829
 327  738.9001
 328  -523.9337
 329  -525.3618
 330  -845.1193
 331  -894.3915
 332  588.6048
 333  1944.067
 334  3707.505
 335  2727.434
 336  1617.049
 337  169.2398
 338  55.61932
 339  -420.8869
 340  -274.6967
 341  937.1606
 342  1182.861
 343  1407.963
 344  22.88633
 345  -758.342
 346  -1385.594
 347  -1273.036
 348  -235.2492
 349  1546.452
 350  3432.765
 351  3145.198
 352  2049.178
 353  353.6643
 354  200.1736
 355  93.46061
 356  -142.6959
 357  -354.6485
 358  371.2139
 359  1443.303
 360  445.3725
 361  -523.0854
 362  -1555.948
 363  -1661.133
 364  -1232.214
 365  8.588776
 366  2117.177
 367  3281.713
 368  2616.637
 369  1958.588
 370  1237.461
 371  667.5728
 372  1020.652
 373  1318.902
 374  2608.965
 375  4130.88
 376  4060.18
 377  2805.317
 378  1217.832
 379  94.2603
 380  -80.9443
 381  -265.1488
 382  772.2684
 383  2677.909
 384  3141.822
 385  3014.066
 386  1237.034
 387  193.5571
 388  -276.9015
 389  -508.6655
 390  -713.1874
 391  320.6233
 392  1603.78
 393  862.1588
 394  -33.69418
 395  -1074.452
 396  -725.5099
 397  -856.6962
 398  -314.4802
 399  1959.287
 400  2636.601
 401  3439.794
 402  1416.661
 403  -250.3671
 404  -1802.188
 405  -2794.645
 406  -2709.969
 407  -2313.301
 408  -535.6237
 409  -519.5052
 410  -1443.618
 411  -3299.418
 412  -2900.224
 413  -2951.097
 414  -1986.066
 415  -271.0291
 416  855.6169
 417  1965.714
 418  364.1078
 419  -773.4877
 420  -1962.406
 421  -2216.414
 422  -2520.931
 423  -2699.22
 424  -1302.381
 425  -979.5731
 426  -1581.417
 427  -3280.166
 428  -3260.213
 429  -3369.325
 430  -3155.795
 431  -1814.442
 432  -454.8759
 433  867.6213
 434  480.3397
 435  -154.2223
 436  -1899.56
 437  -2215.879
 438  -2790.47
 439  -3379.227
 440  -1999.08
 441  -1027.594
 442  -837.7233
 443  -2041.895
 444  -2858.173
 445  -3299.342
 446  -3678.964
 447  -2996.139
 448  -1319.395
 449  967.141
 450  1336.161
 451  586.1912
 452  -678.4058
 453  -1533.452
 454  -1830.207
 455  -2250.286
 456  -2005.37
 457  -1519.184
 458  -249.9563
 459  -1374.252
 460  -2534.849
 461  -3057.65
 462  -3635.649
 463  -3297.239
 464  -2550.457
 465  -266.3389
 466  865.6487
 467  819.0339
 468  -11.86533
 469  -1528.984
 470  -2050.035
 471  -2962.127
 472  -2886.562
 473  -2126.542
 474  -636.7294
 475  -653.6822
 476  -2228.895
 477  -2337.522
 478  -2702.672
 479  -2351.976
 480  -1986.423
 481  -470.6926
 482  1055.092
 483  430.6826
 484  278.042
 485  -1094.379
 486  -1761.979
 487  -2257.962
 488  -2476.922
 489  -2496.434
 490  -1731.341
 491  -1026.865
 492  -1472.334
 493  -2273.192
 494  -3147.191
 495  -2913.293
 496  -2901.004
 497  -2228.215
 498  -186.5752
 499  124.2611
 500  955.1506
 501  -740.3626
 502  -1628.668
 503  -1719.475
 504  -1851.367
 505  -2547.09
 506  -2265.169
 507  -1089.305
 508  -1152.579
 509  -1646.57
 510  -3130.839
 511  -3153.839
