# Input file       =  1208010727.122757-PSRB0329-2ms-sampling-dd.dat
# Candidate        =  PSR_0332+5434
# Telescope        =  AR
# Epoch_topo       =  58225.605857902279
# Epoch_bary       =  N/A
# T_sample         =  0.002
# Data Folded      =  7340032
# Data Avg         =  -8.99417149338093e-10
# Data StdDev      =  7.30776247236778 
# Profile Bins     =  512
# Profile Avg      =  -0.0241317320880116
# Profile StdDev   =  874.980589936778 
# Reduced chi-sqr  =  0.640
# Prob(Noise)      <  1   (~0.0 sigma)
# P_topo (ms)      =  714.558472309909  +/- 0.00158
# P'_topo (s/s)    =  -0                +/- 8.36e-10
# P''_topo (s/s^2) =  0                 +/- 3.69e-13
# P_bary (ms)      =  N/A
# P'_bary (s/s)    =  N/A
# P''_bary (s/s^2) =  N/A
# P_orb (s)        =  N/A
# asin(i)/c (s)    =  N/A
# eccentricity     =  N/A
# w (rad)          =  N/A
# T_peri           =  N/A
######################################################
   0  -113.2927
   1  -149.5232
   2  -196.2492
   3  -798.2114
   4  -646.0963
   5  -931.0766
   6  -760.9055
   7  -1157.274
   8  -1061.322
   9  -867.915
  10  -857.4327
  11  -957.9189
  12  -1189.361
  13  -1362.45
  14  -1172.793
  15  -947.4854
  16  -1151.456
  17  -1131.273
  18  -1175.99
  19  -1548.078
  20  -1165.373
  21  -806.6385
  22  -853.6743
  23  -1059.286
  24  -1213.594
  25  -1152.057
  26  -1236.04
  27  -947.6522
  28  -684.4561
  29  -158.1093
  30  -178.6495
  31  -564.9888
  32  -841.8878
  33  -982.4795
  34  -1275.101
  35  -1079.226
  36  -400.5662
  37  -407.4666
  38  -1018.72
  39  -1113.148
  40  -1348.974
  41  -820.5983
  42  -1004.073
  43  -936.4883
  44  -886.3619
  45  -344.4182
  46  -476.4653
  47  -742.7763
  48  -524.6445
  49  -759.6261
  50  -827.255
  51  -477.63
  52  -646.1741
  53  -111.0192
  54  -126.5582
  55  -251.2686
  56  -281.7146
  57  -145.563
  58  -177.9497
  59  -558.8997
  60  -333.8257
  61  -58.86903
  62  73.63668
  63  -22.97678
  64  87.1882
  65  -49.70146
  66  -145.0869
  67  -96.6304
  68  14.22497
  69  874.1978
  70  1078.613
  71  550.645
  72  348.4802
  73  499.9182
  74  301.9944
  75  295.0653
  76  280.3692
  77  602.1697
  78  663.8993
  79  350.9012
  80  142.6122
  81  378.3544
  82  465.6344
  83  140.6639
  84  25.47072
  85  -278.2035
  86  -104.8224
  87  46.91085
  88  116.5865
  89  138.0509
  90  80.35954
  91  -185.5867
  92  -396.6689
  93  -327.5362
  94  165.9094
  95  387.2915
  96  286.7928
  97  422.942
  98  381.0821
  99  595.0789
 100  85.59656
 101  602.0416
 102  1014.324
 103  714.8287
 104  537.1901
 105  279.1563
 106  174.1796
 107  179.4745
 108  61.83211
 109  278.1841
 110  291.8492
 111  466.2039
 112  341.9022
 113  87.39495
 114  -263.4775
 115  -239.0833
 116  176.8725
 117  406.9722
 118  168.3094
 119  446.6473
 120  870.8207
 121  425.0199
 122  -215.0855
 123  -2.60478
 124  -120.6345
 125  -478.4626
 126  -127.0873
 127  64.90195
 128  -109.992
 129  53.55216
 130  92.49277
 131  207.5511
 132  -188.9591
 133  -561.7595
 134  -517.8848
 135  -238.9417
 136  340.2368
 137  212.4766
 138  225.3611
 139  640.61
 140  333.4748
 141  233.2992
 142  -398.1305
 143  -224.4684
 144  112.7542
 145  213.1542
 146  58.14866
 147  13.35549
 148  343.6043
 149  399.8553
 150  614.3192
 151  133.4655
 152  348.2484
 153  208.4207
 154  133.7413
 155  -6.334138
 156  331.4395
 157  342.1943
 158  -12.86869
 159  40.35704
 160  542.9438
 161  876.2284
 162  606.9229
 163  109.0497
 164  167.9949
 165  -6.200219
 166  127.6642
 167  35.93424
 168  -5.241125
 169  375.3658
 170  557.1308
 171  343.8512
 172  75.87164
 173  -53.63871
 174  -512.6561
 175  -342.5605
 176  279.9259
 177  909.4009
 178  554.2927
 179  141.4957
 180  263.8929
 181  143.7142
 182  -163.6764
 183  234.7429
 184  15.06006
 185  315.8974
 186  442.2578
 187  383.6762
 188  148.4151
 189  44.36203
 190  249.2287
 191  41.98124
 192  -59.66279
 193  427.6009
 194  605.1198
 195  279.3373
 196  75.83446
 197  -41.85034
 198  378.8515
 199  177.7375
 200  38.46707
 201  18.41474
 202  264.5087
 203  117.7839
 204  175.8645
 205  529.754
 206  300.0652
 207  134.9053
 208  -60.02224
 209  -57.06164
 210  463.2108
 211  127.1431
 212  35.46391
 213  38.6564
 214  6.715962
 215  311.6151
 216  -18.41957
 217  -27.62363
 218  85.61377
 219  339.8245
 220  138.127
 221  -186.3237
 222  -30.70501
 223  168.6003
 224  458.9056
 225  333.9347
 226  653.7775
 227  852.2869
 228  953.2151
 229  851.954
 230  677.9559
 231  562.3055
 232  648.8812
 233  626.5776
 234  590.5734
 235  856.3832
 236  1002.3
 237  725.487
 238  823.263
 239  683.8488
 240  350.8481
 241  -228.4533
 242  -96.06764
 243  457.907
 244  656.345
 245  316.2547
 246  -270.9321
 247  -135.1834
 248  -192.6995
 249  -583.1744
 250  -308.8572
 251  -295.3477
 252  -362.5814
 253  -269.9806
 254  196.2396
 255  141.6682
 256  -256.3008
 257  -378.4752
 258  -199.821
 259  84.21861
 260  511.8308
 261  531.4409
 262  238.8191
 263  41.39759
 264  -35.46375
 265  -93.17577
 266  -129.5686
 267  15.93719
 268  82.08063
 269  342.7776
 270  796.0564
 271  604.4188
 272  477.5559
 273  361.7306
 274  525.7789
 275  412.6955
 276  375.0934
 277  267.5565
 278  288.9395
 279  562.3641
 280  287.3332
 281  213.7067
 282  416.6809
 283  568.2968
 284  848.4544
 285  800.8023
 286  545.0175
 287  105.8155
 288  240.5508
 289  319.1918
 290  567.8224
 291  784.6065
 292  589.6596
 293  723.4014
 294  347.0109
 295  258.4001
 296  108.3197
 297  429.9851
 298  468.5103
 299  84.12788
 300  -212.2027
 301  305.9135
 302  592.2242
 303  272.7462
 304  -1.264301
 305  613.8744
 306  308.8292
 307  185.3401
 308  -66.73026
 309  46.10654
 310  340.2483
 311  396.2004
 312  738.9915
 313  689.6384
 314  689.8143
 315  241.9839
 316  54.72184
 317  167.1312
 318  120.2619
 319  137.8622
 320  648.6035
 321  642.5201
 322  302.9068
 323  452.68
 324  393.4164
 325  365.9168
 326  169.6686
 327  266.542
 328  272.7729
 329  183.9588
 330  351.7707
 331  216.4897
 332  115.5213
 333  96.71603
 334  338.0809
 335  309.3467
 336  283.6167
 337  749.6382
 338  685.8148
 339  356.6667
 340  -331.1163
 341  -324.6901
 342  -53.85572
 343  362.1743
 344  -62.47639
 345  -172.9019
 346  -84.91453
 347  -266.5699
 348  -405.7965
 349  -117.5415
 350  187.6716
 351  223.5606
 352  327.2356
 353  20.51171
 354  1.730056
 355  278.9235
 356  528.3934
 357  185.324
 358  262.8405
 359  120.6672
 360  -381.5056
 361  -271.5419
 362  -183.6698
 363  -12.36738
 364  61.8579
 365  -60.72449
 366  -100.9603
 367  -102.0382
 368  175.7173
 369  -174.6293
 370  -76.95583
 371  28.68787
 372  504.429
 373  879.4827
 374  1429.402
 375  2271.947
 376  2312.164
 377  1323.051
 378  432.438
 379  339.8106
 380  57.35979
 381  69.28674
 382  295.1226
 383  284.0947
 384  346.4506
 385  66.59799
 386  53.22369
 387  -79.90542
 388  443.0079
 389  398.9204
 390  -60.72974
 391  161.2424
 392  3.789828
 393  94.15704
 394  116.6493
 395  133.4174
 396  56.05159
 397  -222.0699
 398  -78.47604
 399  -40.1251
 400  171.0222
 401  38.67535
 402  34.23941
 403  -87.35142
 404  -85.38394
 405  359.6212
 406  39.72048
 407  -260.1935
 408  68.70846
 409  290.9416
 410  150.0261
 411  -26.53886
 412  -333.4763
 413  -467.9354
 414  -365.4955
 415  -504.2475
 416  -253.7834
 417  -151.1733
 418  -121.6855
 419  -224.4124
 420  -0.3133429
 421  165.3338
 422  -125.7088
 423  15.78096
 424  134.0504
 425  99.2991
 426  137.904
 427  246.0349
 428  134.2122
 429  -198.4515
 430  -185.7149
 431  -350.8711
 432  -291.5486
 433  358.2164
 434  -143.1391
 435  -451.273
 436  -510.8759
 437  -261.5703
 438  -168.9688
 439  26.64797
 440  -439.6703
 441  -431.0676
 442  -111.4637
 443  -670.4498
 444  -863.5307
 445  -831.47
 446  -327.8678
 447  -482.9586
 448  -676.0479
 449  -457.7183
 450  -909.1708
 451  -1089.925
 452  -1368.833
 453  -901.3857
 454  -481.6248
 455  -512.3436
 456  -757.2591
 457  -825.1412
 458  -470.5483
 459  -1065.245
 460  -882.8455
 461  -697.7313
 462  -749.5806
 463  -366.6374
 464  -727.7096
 465  -611.0241
 466  -210.9089
 467  -51.16455
 468  -406.0215
 469  -535.7634
 470  -535.3146
 471  -631.0981
 472  -1038.923
 473  -979.7892
 474  -677.4083
 475  -658.7216
 476  -688.808
 477  -965.7386
 478  -596.6708
 479  -464.5074
 480  -321.361
 481  -174.9962
 482  -66.52507
 483  288.6595
 484  -182.9379
 485  -418.2447
 486  -288.5717
 487  -489.9946
 488  28.35385
 489  228.8029
 490  285.5782
 491  439.9275
 492  544.3048
 493  36.71084
 494  -117.7483
 495  -172.2283
 496  -4.294807
 497  -156.4004
 498  -235.2273
 499  115.5842
 500  276.4591
 501  -279.9094
 502  -251.2597
 503  -79.69847
 504  115.2602
 505  96.46255
 506  311.4116
 507  120.0464
 508  135.73
 509  -336.7978
 510  -732.8286
 511  -578.6136
