# Input file       =  1208412144.103333_cleaned.dat
# Candidate        =  PSR_0332+5434
# Telescope        =  AR
# Epoch_topo       =  58230.251887770057
# Epoch_bary       =  N/A
# T_sample         =  0.002
# Data Folded      =  7208960
# Data Avg         =  0.185576397553086
# Data StdDev      =  5.0116713571993  
# Profile Bins     =  512
# Profile Avg      =  2612.97186583908 
# Profile StdDev   =  594.680792593314 
# Reduced chi-sqr  =  1.595
# Prob(Noise)      <  2.56e-16   (~8.1 sigma)
# P_topo (ms)      =  714.554314435855  +/- 2.97e-05
# P'_topo (s/s)    =  -0                +/- 1.59e-11
# P''_topo (s/s^2) =  0                 +/- 7.16e-15
# P_bary (ms)      =  N/A
# P'_bary (s/s)    =  N/A
# P''_bary (s/s^2) =  N/A
# P_orb (s)        =  N/A
# asin(i)/c (s)    =  N/A
# eccentricity     =  N/A
# w (rad)          =  N/A
# T_peri           =  N/A
######################################################
   0  3106.349
   1  2895.366
   2  2845.859
   3  2695.438
   4  3166.626
   5  3286.231
   6  3438.482
   7  2649
   8  2210.002
   9  2135.953
  10  2151.66
  11  2539.06
  12  2757.385
  13  2964.119
  14  3209.036
  15  2632.309
  16  2506.537
  17  2368.381
  18  2309.799
  19  2465.886
  20  2000.918
  21  2342.292
  22  2773.319
  23  2706.838
  24  1890.045
  25  1769.655
  26  2056.361
  27  2101.127
  28  2343.548
  29  2764.41
  30  3178.757
  31  3105.14
  32  2743.611
  33  2657.571
  34  2628.34
  35  2565.413
  36  2385.058
  37  2481.67
  38  3050.507
  39  2675.372
  40  1912.356
  41  1229.759
  42  1333.122
  43  1863.182
  44  2360.81
  45  2408.781
  46  3492.51
  47  3312.56
  48  2690.781
  49  2399.107
  50  2028.123
  51  2351.747
  52  2625.234
  53  2474.389
  54  2348.801
  55  2664.881
  56  2228.07
  57  1929.521
  58  1506.274
  59  1668.129
  60  2083.38
  61  2283.946
  62  2531.382
  63  3085.07
  64  3743.14
  65  3221.287
  66  2356.555
  67  2150.812
  68  1797.897
  69  2548.93
  70  2538.991
  71  2644.183
  72  2930.551
  73  2242.451
  74  1910.727
  75  1703.677
  76  1705.749
  77  2032.067
  78  2203.413
  79  2955.093
  80  3318.632
  81  2497.352
  82  2300.906
  83  2478.199
  84  2131.927
  85  2168.444
  86  2349.389
  87  2854.473
  88  3303.613
  89  2507.159
  90  2071.18
  91  2056.945
  92  2459.122
  93  1951.087
  94  2103.55
  95  2820.439
  96  3047.051
  97  2811.368
  98  2170.295
  99  2070.456
 100  2097.604
 101  2198.604
 102  2443.133
 103  2719.332
 104  3064.707
 105  2905.354
 106  2231.079
 107  1785.742
 108  1749.499
 109  1966.557
 110  2217.787
 111  2399.404
 112  2939.16
 113  3436.431
 114  2851.425
 115  2586.805
 116  2650.126
 117  2526.05
 118  2555.968
 119  2216.862
 120  2780.963
 121  2815.119
 122  2509.191
 123  2329.631
 124  1820.642
 125  1846.547
 126  2085.288
 127  2409.479
 128  2867.981
 129  3570.021
 130  3470.457
 131  2652.485
 132  2440.871
 133  2072.079
 134  2238.086
 135  2737.88
 136  2757.669
 137  2837.191
 138  2495.281
 139  2154.323
 140  1533.388
 141  1843.886
 142  1761.824
 143  2153.762
 144  2290.156
 145  3222.24
 146  3168.698
 147  2764.82
 148  2846.998
 149  2542.012
 150  2346.995
 151  2281.644
 152  2345.453
 153  2345.099
 154  2961.663
 155  3047.881
 156  2119.576
 157  1255.125
 158  1334.87
 159  1708.759
 160  1875.3
 161  2518.864
 162  3103.205
 163  3245.211
 164  2888.439
 165  2084.467
 166  2303.576
 167  2418.189
 168  2378.316
 169  2440.2
 170  2768.048
 171  3137.275
 172  2382.905
 173  1589.807
 174  1463.839
 175  2190.778
 176  2774.966
 177  2421.281
 178  2838.61
 179  3133.007
 180  2774.236
 181  2020.512
 182  2197.308
 183  2431.859
 184  2551.198
 185  2487.34
 186  2834.262
 187  3242.889
 188  2971.273
 189  1971.577
 190  1422.68
 191  1867.286
 192  1708.664
 193  2147.838
 194  2733.373
 195  3210.913
 196  3603.622
 197  2910.183
 198  2218.335
 199  2363.196
 200  2437.662
 201  1953.277
 202  1851.93
 203  2776.735
 204  2918.194
 205  2609.238
 206  2181.251
 207  1911.527
 208  2271.429
 209  2424.593
 210  2477.109
 211  3199.509
 212  3539.769
 213  3149.64
 214  2700.976
 215  2423.957
 216  2371.063
 217  2573.183
 218  2472.715
 219  2967.965
 220  2954.643
 221  3077.143
 222  2459.008
 223  1905.493
 224  2113.828
 225  2337.851
 226  2424.798
 227  2697.804
 228  3250.598
 229  3728.363
 230  3467.075
 231  2815.201
 232  2529.203
 233  2954.702
 234  2596.711
 235  2476.992
 236  2651.298
 237  2805.96
 238  2588.278
 239  2161.659
 240  2065.325
 241  1994.08
 242  1907.985
 243  2024.047
 244  2843.832
 245  3372.269
 246  3384.333
 247  3008.516
 248  2408.034
 249  2927.575
 250  2747.701
 251  2704.822
 252  2530.385
 253  2732.505
 254  2587.529
 255  1792.224
 256  1379.988
 257  1919.596
 258  2419.268
 259  2348.861
 260  2712.299
 261  2861.391
 262  2699.104
 263  2468.758
 264  2386.678
 265  2793.036
 266  2462.777
 267  2590.019
 268  2761.511
 269  2465.762
 270  2769.908
 271  2357.868
 272  1902.214
 273  1344.95
 274  1788.911
 275  2151.445
 276  2385.29
 277  3101.248
 278  3122.823
 279  2824.307
 280  2058.825
 281  2230.409
 282  2639.599
 283  2612.959
 284  2470.139
 285  2832.119
 286  2830.333
 287  2199.077
 288  1551.454
 289  1162.813
 290  2049.524
 291  2438.861
 292  2092.093
 293  2679.482
 294  3111.301
 295  3292.485
 296  2796.736
 297  2338.289
 298  2616.512
 299  2475.337
 300  2429.017
 301  2261.611
 302  2400.054
 303  2691.251
 304  2693.533
 305  2195.774
 306  1923.707
 307  2130.761
 308  2149.713
 309  2667.647
 310  2978.325
 311  3648.927
 312  3212.505
 313  2465.278
 314  2696.798
 315  2571.919
 316  2602.479
 317  2712.567
 318  2915.873
 319  3433.654
 320  2749.17
 321  2208.685
 322  1643.079
 323  1940.111
 324  2173.515
 325  2409.343
 326  2874.125
 327  3432.18
 328  3452.114
 329  3003.552
 330  2488.528
 331  2342.673
 332  2887.589
 333  2827.487
 334  2647.931
 335  2738.215
 336  3121.267
 337  3092.99
 338  1966.121
 339  2190.607
 340  2510.887
 341  2714.154
 342  2364.541
 343  2504.83
 344  2603.302
 345  2404.062
 346  2379.815
 347  2126.471
 348  2498.673
 349  2283.735
 350  2433.957
 351  2203.533
 352  2517.742
 353  2381.513
 354  1713.059
 355  1647.228
 356  2038.034
 357  2228.851
 358  2368.499
 359  2660.253
 360  3136.819
 361  2838.694
 362  2582.359
 363  2152.203
 364  2241.078
 365  2377.564
 366  2417.997
 367  2467.647
 368  2308.596
 369  2586.605
 370  2201.509
 371  1653.336
 372  1690.406
 373  2039.128
 374  1943.365
 375  2169.101
 376  3111.979
 377  3005.347
 378  3244.33
 379  3006.459
 380  2680.13
 381  2889.33
 382  2719.251
 383  2518.102
 384  2780.848
 385  3209.841
 386  3023.556
 387  2393.732
 388  1954.396
 389  1721.761
 390  1911.736
 391  2220.914
 392  2822.075
 393  3608.567
 394  3744.449
 395  3350.173
 396  2619.624
 397  2565.425
 398  2346.859
 399  2839.652
 400  2858.675
 401  3065.318
 402  3564.047
 403  3046.938
 404  2641.369
 405  2304.23
 406  2666.099
 407  2890.127
 408  3073.309
 409  3297.725
 410  3380.321
 411  3663.878
 412  2971.902
 413  3284.669
 414  3359.85
 415  3613.594
 416  3346.221
 417  3526.748
 418  3387.575
 419  3291.859
 420  2817.525
 421  2609.353
 422  2674.355
 423  2527.853
 424  2862.004
 425  3036.772
 426  3847.499
 427  3909.002
 428  3609.654
 429  3307.138
 430  2912.415
 431  2868.491
 432  2859.24
 433  2840.69
 434  3276.13
 435  3319.794
 436  2787.16
 437  1888.208
 438  2254.236
 439  2507.679
 440  2679.997
 441  2339.552
 442  3246.458
 443  3909.76
 444  3372.319
 445  2952.53
 446  3233.965
 447  3199.882
 448  3030.255
 449  2896.456
 450  2886.748
 451  2724.639
 452  3012.334
 453  2514.315
 454  1741.838
 455  2135.008
 456  2263.478
 457  2224.328
 458  2578.049
 459  3248.761
 460  3268.64
 461  2984.327
 462  2493.633
 463  2389.097
 464  2840.036
 465  2697.215
 466  2567.229
 467  2770.337
 468  3373.59
 469  3225.201
 470  2347.677
 471  1950.327
 472  2243.105
 473  2771.947
 474  2919.495
 475  3375.488
 476  3618.182
 477  3094.151
 478  2335.649
 479  2407.79
 480  2573.375
 481  2763.595
 482  3476.145
 483  3380.333
 484  3120.574
 485  3077.706
 486  2671.425
 487  1952.3
 488  2286.338
 489  2601.72
 490  2102.268
 491  2753.555
 492  3204.145
 493  3152.364
 494  3111.522
 495  2893.762
 496  2710.956
 497  2713.999
 498  3298.147
 499  3502.122
 500  3944.294
 501  4927.018
 502  5371.52
 503  4522.717
 504  3682.755
 505  3598.251
 506  3189.361
 507  2847.291
 508  3223.58
 509  3804.338
 510  3627.837
 511  3103.293
