# Input file       =  1208096954.114999_cleaned.dat
# Candidate        =  PSR_0332+5434
# Telescope        =  AR
# Epoch_topo       =  58226.603855497677
# Epoch_bary       =  N/A
# T_sample         =  0.002
# Data Folded      =  7340032
# Data Avg         =  0.027292612580836
# Data StdDev      =  1.00008203724922 
# Profile Bins     =  512
# Profile Avg      =  391.279268028373 
# Profile StdDev   =  119.742858945712 
# Reduced chi-sqr  =  1.112
# Prob(Noise)      <  0.0408   (~1.7 sigma)
# P_topo (ms)      =  714.557674376916  +/- 0.000258
# P'_topo (s/s)    =  -0                +/- 1.36e-10
# P''_topo (s/s^2) =  0                 +/- 6e-14
# P_bary (ms)      =  N/A
# P'_bary (s/s)    =  N/A
# P''_bary (s/s^2) =  N/A
# P_orb (s)        =  N/A
# asin(i)/c (s)    =  N/A
# eccentricity     =  N/A
# w (rad)          =  N/A
# T_peri           =  N/A
######################################################
   0  950.4565
   1  839.7643
   2  622.4319
   3  466.1494
   4  397.0688
   5  334.9043
   6  311.3987
   7  247.2957
   8  276.2734
   9  404.8659
  10  369.1665
  11  449.7901
  12  446.4081
  13  539.8021
  14  339.9725
  15  367.949
  16  379.0745
  17  352.0775
  18  397.42
  19  430.2318
  20  454.2477
  21  414.5309
  22  373.2762
  23  348.4337
  24  359.4436
  25  379.1555
  26  516.8745
  27  534.5854
  28  464.251
  29  319.0624
  30  458.1873
  31  485.6508
  32  472.6071
  33  444.3714
  34  364.5352
  35  399.2086
  36  458.9027
  37  442.4093
  38  375.0135
  39  434.4879
  40  451.5114
  41  474.0622
  42  328.1143
  43  303.6447
  44  366.1686
  45  308.9338
  46  259.4346
  47  364.5025
  48  378.8373
  49  451.1005
  50  454.2015
  51  396.4
  52  391.9531
  53  381.3557
  54  332.9981
  55  300.4663
  56  379.8164
  57  375.3127
  58  428.8138
  59  417.5231
  60  423.5531
  61  431.4813
  62  417.0146
  63  447.8213
  64  323.2421
  65  349.2892
  66  365.889
  67  244.8943
  68  346.5266
  69  311.6352
  70  348.0222
  71  382.1504
  72  343.1018
  73  413.6353
  74  403.9277
  75  344.8258
  76  340.9165
  77  309.3365
  78  333.9117
  79  272.1181
  80  324.1855
  81  459.6803
  82  375.3561
  83  357.0956
  84  334.6881
  85  356.3224
  86  381.434
  87  321.3263
  88  324.9855
  89  326.0282
  90  356.3329
  91  384.3458
  92  393.7829
  93  432.1732
  94  312.1453
  95  241.5275
  96  391.9125
  97  341.122
  98  403.5475
  99  393.5563
 100  339.5289
 101  351.1332
 102  376.198
 103  333.604
 104  315.9153
 105  435.8501
 106  454.4265
 107  411.9733
 108  385.8
 109  246.4145
 110  332.5004
 111  311.0193
 112  356.4666
 113  420.9241
 114  365.0891
 115  555.2131
 116  515.2948
 117  392.8278
 118  426.4969
 119  317.3018
 120  325.4224
 121  299.5916
 122  332.2575
 123  319.1462
 124  273.1992
 125  299.7608
 126  290.5045
 127  337.9065
 128  384.7706
 129  378.2777
 130  384.748
 131  308.1424
 132  256.2578
 133  375.264
 134  350.826
 135  315.4722
 136  395.9348
 137  345.1923
 138  397.2458
 139  353.4391
 140  416.5805
 141  334.6545
 142  412.4927
 143  476.6681
 144  362.3748
 145  335.0308
 146  312.8261
 147  266.4087
 148  386.7433
 149  439.9677
 150  371.6026
 151  447.0665
 152  411.9145
 153  370.183
 154  458.3775
 155  457.8324
 156  276.5464
 157  429.0533
 158  392.3016
 159  425.1172
 160  344.6745
 161  341.6257
 162  263.2285
 163  354.5193
 164  423.4492
 165  479.1711
 166  414.5091
 167  392.0282
 168  471.9519
 169  443.8901
 170  463.6577
 171  410.3119
 172  257.9412
 173  266.0578
 174  372.3183
 175  430.3697
 176  391.2382
 177  441.6682
 178  360.1953
 179  358.7468
 180  293.5941
 181  319.847
 182  486.989
 183  400.0011
 184  283.9191
 185  342.8473
 186  374.8658
 187  294.0916
 188  305.6967
 189  345.4622
 190  330.9773
 191  296.3264
 192  334.0388
 193  416.044
 194  313.1821
 195  284.0326
 196  236.9556
 197  300.5835
 198  200.1137
 199  278.6738
 200  336.2405
 201  334.1482
 202  334.3214
 203  397.3406
 204  370.2022
 205  331.0533
 206  304.1318
 207  316.9188
 208  305.7169
 209  298.9764
 210  358.9575
 211  405.0723
 212  314.3581
 213  326.7198
 214  356.7339
 215  291.9201
 216  274.835
 217  354.7142
 218  479.0229
 219  379.4783
 220  359.2232
 221  438.0359
 222  367.2224
 223  404.4464
 224  361.7375
 225  462.9964
 226  390.7794
 227  459.4977
 228  512.9796
 229  405.7545
 230  242.777
 231  318.9918
 232  353.0854
 233  458.8956
 234  453.6519
 235  389.6335
 236  386.6795
 237  409.0705
 238  336.1173
 239  326.6903
 240  292.8576
 241  329.1824
 242  434.42
 243  451.8726
 244  414.9798
 245  394.907
 246  468.3745
 247  469.5071
 248  492.1047
 249  442.5817
 250  393.823
 251  398.8776
 252  423.8688
 253  430.4654
 254  402.7099
 255  367.2657
 256  430.2957
 257  522.5782
 258  481.6889
 259  395.4463
 260  547.0727
 261  471.4595
 262  398.4416
 263  324.5691
 264  315.2377
 265  494.9509
 266  626.0842
 267  506.3131
 268  370.6834
 269  339.7703
 270  384.8904
 271  379.4527
 272  535.0414
 273  534.1848
 274  354.403
 275  417.8297
 276  479.7458
 277  418.7994
 278  359.9452
 279  274.3548
 280  365.3335
 281  456.7444
 282  247.1988
 283  252.6308
 284  243.5207
 285  296.5858
 286  323.6423
 287  297.6996
 288  248.265
 289  258.6896
 290  262.7903
 291  336.5542
 292  173.1963
 293  205.8787
 294  287.7282
 295  266.8182
 296  200.3887
 297  162.3161
 298  134.3413
 299  272.77
 300  330.0998
 301  357.0852
 302  328.0302
 303  330.8318
 304  323.4777
 305  412.0887
 306  356.527
 307  350.7517
 308  322.4338
 309  291.2704
 310  395.08
 311  429.2953
 312  558.665
 313  510.4004
 314  393.8194
 315  396.2803
 316  436.8736
 317  510.4891
 318  536.1635
 319  362.6617
 320  497.7716
 321  611.0173
 322  419.7572
 323  349.5446
 324  344.1671
 325  293.867
 326  291.9216
 327  399.0903
 328  436.4091
 329  284.3201
 330  423.2556
 331  394.7732
 332  377.8974
 333  369.6765
 334  329.2537
 335  373.2735
 336  282.7403
 337  305.3696
 338  246.0155
 339  395.5148
 340  413.9984
 341  345.548
 342  373.1215
 343  378.8108
 344  443.0131
 345  413.6925
 346  375.2926
 347  408.3386
 348  354.3966
 349  284.2594
 350  273.9275
 351  352.899
 352  442.7567
 353  319.3968
 354  374.1555
 355  515.0023
 356  472.7094
 357  493.5149
 358  616.7736
 359  544.6421
 360  520.6569
 361  430.7002
 362  366.8486
 363  381.0121
 364  424.8623
 365  439.2975
 366  376.3867
 367  423.026
 368  401.6691
 369  375.794
 370  370.7348
 371  342.5216
 372  367.5401
 373  361.4442
 374  425.334
 375  463.2224
 376  353.2604
 377  333.8031
 378  318.8276
 379  341.7199
 380  293.5249
 381  410.0588
 382  515.0516
 383  500.3425
 384  394.0098
 385  325.7325
 386  358.9308
 387  567.6508
 388  498.769
 389  470.2737
 390  376.0594
 391  357.961
 392  346.8198
 393  366.1288
 394  329.2653
 395  402.8483
 396  374.3507
 397  367.0729
 398  460.2799
 399  473.8256
 400  430.2224
 401  516.1271
 402  367.0125
 403  316.3853
 404  305.4738
 405  309.4543
 406  294.9314
 407  502.7404
 408  477.3634
 409  457.2422
 410  418.4615
 411  481.9095
 412  413.6035
 413  365.3728
 414  424.575
 415  414.5415
 416  435.3047
 417  404.4062
 418  431.9592
 419  542.6826
 420  584.3513
 421  474.7859
 422  588.204
 423  512.1584
 424  438.0836
 425  474.1541
 426  423.5845
 427  458.8172
 428  530.5054
 429  424.2504
 430  497.7964
 431  506.5764
 432  444.5829
 433  425.2513
 434  490.3575
 435  467.2805
 436  364.7216
 437  423.3838
 438  454.0491
 439  402.408
 440  402.8984
 441  347.6419
 442  462.4397
 443  532.8009
 444  460.375
 445  439.1922
 446  361.5235
 447  358.9456
 448  437.0811
 449  433.4381
 450  368.1725
 451  436.5324
 452  418.7543
 453  427.1914
 454  443.9171
 455  485.0796
 456  438.9567
 457  369.6602
 458  385.8383
 459  437.6016
 460  352.5331
 461  400.5228
 462  473.5978
 463  371.6375
 464  487.1445
 465  518.9985
 466  423.3561
 467  444.6187
 468  397.5797
 469  402.2956
 470  413.3581
 471  448.7823
 472  463.12
 473  377.6364
 474  318.1454
 475  371.779
 476  330.6879
 477  347.6261
 478  290.4277
 479  262.5352
 480  333.1771
 481  414.5338
 482  434.5229
 483  443.7863
 484  408.8756
 485  406.1491
 486  337.9753
 487  346.1263
 488  342.5438
 489  368.5232
 490  409.5354
 491  395.5001
 492  309.6914
 493  349.872
 494  252.4556
 495  248.5694
 496  371.1677
 497  423.7374
 498  535.4523
 499  402.6118
 500  321.0641
 501  440.9721
 502  528.0985
 503  455.8859
 504  385.1274
 505  386.7177
 506  366.2083
 507  388.6475
 508  617.0818
 509  824.1157
 510  932.5975
 511  976.4822
