# Input file       =  1208325940.125452_cleaned.dat
# Candidate        =  PSR_0332+5434
# Telescope        =  AR
# Epoch_topo       =  58229.254156544586
# Epoch_bary       =  N/A
# T_sample         =  0.002
# Data Folded      =  7208960
# Data Avg         =  0.140275432885921
# Data StdDev      =  4.87597427266863 
# Profile Bins     =  256
# Profile Avg      =  3949.90233550588 
# Profile StdDev   =  818.23439369998  
# Reduced chi-sqr  =  2.753
# Prob(Noise)      <  2.03e-43   (~13.8 sigma)
# P_topo (ms)      =  714.555147137579  +/- 1.94e-05
# P'_topo (s/s)    =  -0                +/- 1.04e-11
# P''_topo (s/s^2) =  0                 +/- 4.69e-15
# P_bary (ms)      =  N/A
# P'_bary (s/s)    =  N/A
# P''_bary (s/s^2) =  N/A
# P_orb (s)        =  N/A
# asin(i)/c (s)    =  N/A
# eccentricity     =  N/A
# w (rad)          =  N/A
# T_peri           =  N/A
######################################################
   0  4223.57
   1  5208.689
   2  3285.949
   3  3085.953
   4  5030.682
   5  5853.288
   6  3899.209
   7  4038.329
   8  4722.292
   9  4800.852
  10  3586.569
  11  3717.245
  12  4609.323
  13  5708.076
  14  4521.043
  15  3465.453
  16  4836.889
  17  4021.868
  18  3314.462
  19  1995.761
  20  4120.293
  21  5428.646
  22  3283.702
  23  2285.165
  24  4596.224
  25  4705.338
  26  2215.691
  27  1135.908
  28  2614.329
  29  5032.486
  30  3491.791
  31  1835.391
  32  2717.529
  33  4395.495
  34  4002.133
  35  1763.104
  36  1413.334
  37  4118.727
  38  4652.402
  39  2996.418
  40  3075.253
  41  4381.676
  42  4845.299
  43  3604.129
  44  2075.052
  45  3302.467
  46  5396.98
  47  3866.345
  48  3580.011
  49  4167.782
  50  5077.026
  51  3794.83
  52  1908.295
  53  3455.423
  54  4493.798
  55  3580.649
  56  3403.181
  57  4551.915
  58  4577.625
  59  3084.798
  60  2273.848
  61  4269.669
  62  4912.577
  63  3595.383
  64  3191.527
  65  5240.058
  66  5611.663
  67  3936.948
  68  1446.994
  69  2469.131
  70  5072.415
  71  4603.416
  72  3449.521
  73  3281.431
  74  4360.911
  75  4616.693
  76  3417.171
  77  1553.382
  78  4109.866
  79  6019.61
  80  4251.404
  81  2433.8
  82  4622.409
  83  4881.707
  84  3833.497
  85  2373.117
  86  3631.616
  87  5922.998
  88  5434.367
  89  2907.859
  90  4351.979
  91  5289.581
  92  4877.856
  93  3046.586
  94  3426.766
  95  4976.783
  96  4577.406
  97  4237.987
  98  4455.771
  99  5201.183
 100  4096.245
 101  3274.337
 102  4050.031
 103  5286.802
 104  4172.549
 105  3313.121
 106  3824.476
 107  5741.024
 108  5006.073
 109  1822.594
 110  2704.857
 111  5190.202
 112  5249.616
 113  4579.973
 114  3100.6
 115  5370.223
 116  5663.331
 117  3595.291
 118  3019.482
 119  3793.983
 120  5645.693
 121  5427.997
 122  2393.035
 123  3584.204
 124  5103.753
 125  5295.745
 126  2676.657
 127  3205.134
 128  5231.091
 129  5318.236
 130  3394.206
 131  3666.831
 132  5294.996
 133  4385.741
 134  2564.753
 135  2823.282
 136  4136.533
 137  3932.32
 138  3806.288
 139  3980.589
 140  4921.671
 141  4066.551
 142  2565.61
 143  2465.786
 144  3851.65
 145  3460.484
 146  3152.447
 147  3833.828
 148  5842.492
 149  7103.295
 150  7988.776
 151  6009.96
 152  5543.062
 153  5279.943
 154  3995.195
 155  1665.984
 156  4363.895
 157  6506.691
 158  4972.138
 159  1986.849
 160  2679.052
 161  5883.027
 162  4729.123
 163  2467.292
 164  2938.66
 165  5340.774
 166  5246.459
 167  2716.625
 168  2728.287
 169  4803.433
 170  5189.665
 171  3370.323
 172  3512.563
 173  4773.488
 174  4586.869
 175  3041.621
 176  3521.024
 177  4178.408
 178  5346.289
 179  4016.772
 180  3675.304
 181  4495.445
 182  3614.135
 183  3264.645
 184  2135.153
 185  3606.464
 186  4901.547
 187  4364.797
 188  2589.582
 189  3707.622
 190  4280.969
 191  3632.764
 192  1903.526
 193  3050.006
 194  4685.417
 195  4474.592
 196  2490.557
 197  2114.117
 198  4493.38
 199  3623.245
 200  1216.593
 201  1789.753
 202  4852.178
 203  4262.253
 204  3024.552
 205  2491.093
 206  4245.241
 207  4256.049
 208  2259.357
 209  1077.017
 210  3460.779
 211  4992.722
 212  3819.143
 213  2689.894
 214  3869.522
 215  4635.231
 216  4140.172
 217  2841.04
 218  3073.257
 219  4694.141
 220  4277.164
 221  3367.95
 222  4416.21
 223  4464.106
 224  4294.615
 225  2947.592
 226  4430.837
 227  4671.051
 228  4881.601
 229  4112.858
 230  4638.18
 231  5452.739
 232  5440.467
 233  3463.179
 234  2695.062
 235  5586.896
 236  5246.157
 237  3531.871
 238  3323.713
 239  5100.146
 240  5205.3
 241  2599.537
 242  1941.85
 243  3913.148
 244  5153.727
 245  3347.765
 246  2506.881
 247  5157.02
 248  5707.704
 249  3501.058
 250  1349.983
 251  3284.376
 252  5881.855
 253  5441.319
 254  2926.983
 255  3633.868
