# Input file       =  1208239734.114344_cleaned.dat
# Candidate        =  PSR_0332+5434
# Telescope        =  AR
# Epoch_topo       =  58228.256401786384
# Epoch_bary       =  N/A
# T_sample         =  0.002
# Data Folded      =  7208960
# Data Avg         =  0.159613305782179
# Data StdDev      =  4.90849529172619 
# Profile Bins     =  512
# Profile Avg      =  2247.15907690485 
# Profile StdDev   =  582.438005702656 
# Reduced chi-sqr  =  1.198
# Prob(Noise)      <  0.00136   (~3.0 sigma)
# P_topo (ms)      =  714.555971603079  +/- 4.41e-05
# P'_topo (s/s)    =  -0                +/- 2.37e-11
# P''_topo (s/s^2) =  0                 +/- 1.06e-14
# P_bary (ms)      =  N/A
# P'_bary (s/s)    =  N/A
# P''_bary (s/s^2) =  N/A
# P_orb (s)        =  N/A
# asin(i)/c (s)    =  N/A
# eccentricity     =  N/A
# w (rad)          =  N/A
# T_peri           =  N/A
######################################################
   0  2592.965
   1  2847.851
   2  2737.858
   3  2211.856
   4  2284.372
   5  2650.886
   6  2298.863
   7  1910.427
   8  1739.137
   9  1604.825
  10  2119.709
  11  2358.67
  12  2707.119
  13  3100.245
  14  2537.022
  15  2347.49
  16  2497.889
  17  2489.481
  18  2439.104
  19  2295.98
  20  2383.581
  21  2405.131
  22  2211.058
  23  2178.984
  24  2194.392
  25  1785.578
  26  1636.145
  27  1919.183
  28  2559.701
  29  2784.174
  30  2712.91
  31  2565.972
  32  2304.317
  33  1955.377
  34  1867.236
  35  1817.037
  36  1980.03
  37  1972.074
  38  1871.305
  39  2052.749
  40  1591.433
  41  1249.647
  42  1489.391
  43  1446.268
  44  1567.489
  45  2369.796
  46  2453.866
  47  2893.277
  48  2670.891
  49  2211.468
  50  2017.471
  51  1985.398
  52  2038.3
  53  1852.958
  54  2380.663
  55  2409.648
  56  2622.424
  57  2549.58
  58  1987.438
  59  1886.701
  60  2232.705
  61  2757.378
  62  2400.668
  63  2706.553
  64  2995.695
  65  3036.038
  66  2972.988
  67  2346.206
  68  2290.688
  69  2421.548
  70  2319.601
  71  2606.762
  72  2528.809
  73  1748.663
  74  1691.283
  75  1721.394
  76  1716.288
  77  2217.142
  78  2417.361
  79  2611.293
  80  2732.051
  81  2449.142
  82  2160.091
  83  2294.832
  84  2353.723
  85  2272.848
  86  2183.437
  87  2905.123
  88  2730.21
  89  2336.837
  90  2133.098
  91  2035.333
  92  1708.007
  93  1845.48
  94  2456.332
  95  2748.139
  96  2781.901
  97  2936.099
  98  2892.918
  99  2418.588
 100  2386.02
 101  2470.864
 102  2328.902
 103  2285.114
 104  2119.717
 105  2081.038
 106  1550.724
 107  1623.395
 108  1722.235
 109  1792.328
 110  2231.95
 111  2004.942
 112  2901.486
 113  2865.104
 114  2409.444
 115  2201.011
 116  2384.206
 117  2627.146
 118  2102.874
 119  2468.903
 120  2906.576
 121  2921.921
 122  2293.48
 123  1862.131
 124  1831.023
 125  1666.819
 126  1357.424
 127  1396.555
 128  2193.341
 129  2590.445
 130  3315.495
 131  2951.48
 132  1905.502
 133  1853.727
 134  1700.213
 135  1893.019
 136  1992.235
 137  2473.615
 138  2338.888
 139  2208.161
 140  1757.705
 141  1596.711
 142  1609.071
 143  1775.571
 144  2003.669
 145  2225.506
 146  3031.857
 147  2610.902
 148  2629.748
 149  2383.655
 150  2072.627
 151  1716.901
 152  1726.447
 153  2107.205
 154  2054.915
 155  1922.873
 156  1924.613
 157  1596.41
 158  1565.013
 159  1660.612
 160  2003.795
 161  2408.371
 162  2409.294
 163  2320.115
 164  2353.632
 165  2463.989
 166  2313.058
 167  1835.171
 168  1954.801
 169  2204.746
 170  2567.014
 171  2519.851
 172  1911.342
 173  1936.602
 174  1827.705
 175  1593.421
 176  1981.97
 177  2311.481
 178  2431.851
 179  2649.551
 180  2628.524
 181  2696.623
 182  2393.386
 183  2206.103
 184  1841.938
 185  2119.197
 186  2446.416
 187  2281.682
 188  1743.181
 189  1461.792
 190  1412.683
 191  1352.915
 192  1500.719
 193  2283.272
 194  2569.161
 195  2837.934
 196  2822.266
 197  2327.206
 198  2128.958
 199  1983.507
 200  1826.079
 201  1872.746
 202  2045.755
 203  2722.929
 204  3042.351
 205  2425.597
 206  1759.044
 207  1249.494
 208  1391.578
 209  1897.184
 210  2065.815
 211  2580.476
 212  3047.947
 213  3174.617
 214  2441.344
 215  2017.658
 216  1740.469
 217  1481.843
 218  1771.094
 219  2145.552
 220  2261.66
 221  2182.655
 222  2138.177
 223  1938.287
 224  1505.189
 225  1795.283
 226  1785.46
 227  2682.792
 228  2726.948
 229  2936.82
 230  2786.777
 231  2705.716
 232  2484.977
 233  1972.759
 234  1935.228
 235  1742.089
 236  1799.893
 237  2044.602
 238  2140.758
 239  1992.858
 240  1560.445
 241  2030.348
 242  2020.87
 243  2466.505
 244  2341.603
 245  2376.083
 246  2274.06
 247  2114.48
 248  2218.733
 249  2178.711
 250  2010.263
 251  1780.77
 252  2637.525
 253  2350.888
 254  1733.792
 255  1716.562
 256  1866.55
 257  1922.796
 258  2108.75
 259  2496.247
 260  2460.821
 261  2300.441
 262  2305.781
 263  2229.344
 264  2238.687
 265  2559.283
 266  2137.051
 267  2514.494
 268  2464.629
 269  2050.346
 270  2085.563
 271  1737.065
 272  1458.956
 273  1423.458
 274  988.6821
 275  1772.379
 276  2002.404
 277  2350.963
 278  2917.402
 279  2515.083
 280  1716.433
 281  1497.172
 282  1714.59
 283  1857.545
 284  2013.836
 285  2713.817
 286  2889.002
 287  2554.827
 288  1971.168
 289  1915.413
 290  1645.247
 291  1609.04
 292  1886.413
 293  2927.927
 294  3834.525
 295  3384.218
 296  3156.972
 297  2994.941
 298  2990.254
 299  2858.604
 300  3016.669
 301  3613.355
 302  4038.547
 303  4185.859
 304  3088.639
 305  2222.512
 306  1581.413
 307  1633.996
 308  2349.946
 309  2065.084
 310  2926.247
 311  3242.063
 312  3386.239
 313  2996.098
 314  2784.218
 315  2764.651
 316  2359.956
 317  2379.262
 318  2303.726
 319  2279.989
 320  2130.921
 321  2082.421
 322  2370.764
 323  2542.874
 324  2498.035
 325  2462.095
 326  2482.296
 327  2438.652
 328  2626.702
 329  2698.379
 330  2694.627
 331  2614.285
 332  2190.43
 333  2294.292
 334  2785.361
 335  2464.54
 336  2049.552
 337  2305.974
 338  2479.345
 339  2297.49
 340  2252.453
 341  2537.082
 342  2682.238
 343  2467.681
 344  2734.01
 345  2623.076
 346  2584.407
 347  2593.317
 348  2786.88
 349  2985.892
 350  2555.356
 351  2405.667
 352  2648.212
 353  2213.043
 354  1846.028
 355  1613.762
 356  1729.413
 357  1928.696
 358  2447.224
 359  2892.424
 360  2854.507
 361  2458.925
 362  2557.063
 363  2099.08
 364  1710.812
 365  1639.401
 366  1739.16
 367  2190.75
 368  2500.222
 369  1920.761
 370  2047.147
 371  1543.739
 372  1494.126
 373  1449.91
 374  1727.897
 375  2569.101
 376  3074.144
 377  3576.02
 378  3025.781
 379  2409.895
 380  2052.985
 381  2149.833
 382  1888.134
 383  1964.778
 384  2198.279
 385  2082.671
 386  2178.573
 387  1851.585
 388  1847.092
 389  1713.446
 390  1254.918
 391  1510.776
 392  1893.059
 393  2721.152
 394  2968.083
 395  2711.366
 396  2502.057
 397  2364.106
 398  2279.844
 399  2075.538
 400  1932.198
 401  2028.274
 402  2252.843
 403  2246.123
 404  2448.669
 405  2120.637
 406  2047.6
 407  2191.867
 408  2395.714
 409  2663.976
 410  2462.969
 411  2964.202
 412  2938.285
 413  2120.261
 414  2145.903
 415  1759.273
 416  1909.087
 417  1828.256
 418  2091.69
 419  2372.668
 420  2260.653
 421  1867.732
 422  1600.021
 423  1954.032
 424  2052.287
 425  2266.551
 426  2293.006
 427  2496.727
 428  2477.619
 429  2393.536
 430  2614.047
 431  2484.361
 432  2247.045
 433  2074.113
 434  1944.681
 435  2035.977
 436  1949.033
 437  1810.471
 438  1644.763
 439  1710.614
 440  2017.083
 441  2390.283
 442  2340.914
 443  2600.845
 444  2408.154
 445  2041.001
 446  2142.817
 447  1729.786
 448  1710.067
 449  1731.768
 450  1902.055
 451  2254.7
 452  1640.164
 453  1534.949
 454  1266.322
 455  1471.433
 456  1653.791
 457  1846.917
 458  2642.476
 459  3037.836
 460  2893.256
 461  2169.993
 462  1933.995
 463  2135.028
 464  2223.487
 465  1956.84
 466  1978.23
 467  2091.916
 468  1962.005
 469  2299.825
 470  2041.882
 471  1755.099
 472  1823.872
 473  1724.636
 474  1854.002
 475  2257.785
 476  2931.69
 477  2633.546
 478  2506.379
 479  1834.676
 480  1713.047
 481  2107.187
 482  1982.886
 483  2261.194
 484  2481.047
 485  2420.647
 486  2119.507
 487  2131.031
 488  2158.799
 489  2143.325
 490  2685.249
 491  2720.518
 492  3379.145
 493  3377.341
 494  3255.21
 495  2976.72
 496  2361.579
 497  2161.238
 498  2074.171
 499  2522.833
 500  2539.33
 501  2331.426
 502  2133.75
 503  1845.087
 504  1809.971
 505  1857.599
 506  2398.569
 507  2464.549
 508  2686.39
 509  3012.683
 510  3286.642
 511  2584.434
