# Input file       =  1208412144.103333_cleaned.dat
# Candidate        =  PSR_0332+5434
# Telescope        =  AR
# Epoch_topo       =  58230.251887770057
# Epoch_bary       =  N/A
# T_sample         =  0.002
# Data Folded      =  7208960
# Data Avg         =  0.185576397553086
# Data StdDev      =  5.0116713571993  
# Profile Bins     =  512
# Profile Avg      =  2612.97186559819 
# Profile StdDev   =  594.680792593314 
# Reduced chi-sqr  =  1.595
# Prob(Noise)      <  2.51e-16   (~8.1 sigma)
# P_topo (ms)      =  714.554314559287  +/- 2.97e-05
# P'_topo (s/s)    =  -0                +/- 1.59e-11
# P''_topo (s/s^2) =  0                 +/- 7.16e-15
# P_bary (ms)      =  N/A
# P'_bary (s/s)    =  N/A
# P''_bary (s/s^2) =  N/A
# P_orb (s)        =  N/A
# asin(i)/c (s)    =  N/A
# eccentricity     =  N/A
# w (rad)          =  N/A
# T_peri           =  N/A
######################################################
   0  1868.585
   1  2799.197
   2  2908.37
   3  2608.124
   4  2163.003
   5  1920.567
   6  2279.339
   7  2420.706
   8  2488.551
   9  3226.886
  10  3536.915
  11  3129.664
  12  2692.229
  13  2414.701
  14  2381.772
  15  2567.303
  16  2476.815
  17  2983.402
  18  2946.346
  19  3088.735
  20  2413.946
  21  1910.248
  22  2118.372
  23  2340.456
  24  2437.485
  25  2710.681
  26  3272.802
  27  3729.659
  28  3455.406
  29  2787.431
  30  2545.677
  31  2946.097
  32  2588.451
  33  2482.136
  34  2655.651
  35  2801.605
  36  2573.839
  37  2166.219
  38  2055.551
  39  2002.353
  40  1888.238
  41  2047.563
  42  2872.536
  43  3372.92
  44  3378.49
  45  2984.337
  46  2418.329
  47  2932.957
  48  2742.66
  49  2699.67
  50  2536.625
  51  2736.634
  52  2564.481
  53  1772.217
  54  1379.083
  55  1952.886
  56  2412.233
  57  2354.03
  58  2721.531
  59  2864.423
  60  2689.857
  61  2464.747
  62  2396.492
  63  2793.053
  64  2450.628
  65  2602.647
  66  2756.257
  67  2465.97
  68  2773.043
  69  2337.543
  70  1890.225
  71  1336.177
  72  1808.168
  73  2151.534
  74  2407.767
  75  3118.912
  76  3113.058
  77  2806.826
  78  2037.457
  79  2259.126
  80  2639.745
  81  2612.278
  82  2472.51
  83  2841.012
  84  2821.26
  85  2171.707
  86  1536.339
  87  1165.08
  88  2094.058
  89  2417.396
  90  2103.278
  91  2689.836
  92  3124.481
  93  3287.764
  94  2776.196
  95  2340.304
  96  2618.118
  97  2472.947
  98  2420.257
  99  2261.371
 100  2410.862
 101  2699.19
 102  2687.336
 103  2171.027
 104  1934.503
 105  2125.063
 106  2168.218
 107  2674.739
 108  2999.326
 109  3652.095
 110  3183.248
 111  2463.27
 112  2696.295
 113  2573.985
 114  2601.005
 115  2725.527
 116  2925.179
 117  3440.201
 118  2712.159
 119  2195.733
 120  1634.546
 121  1953.584
 122  2179.328
 123  2417.622
 124  2893.64
 125  3445.34
 126  3441.518
 127  2986.012
 128  2469.811
 129  2360.722
 130  2894.367
 131  2829.806
 132  2632.741
 133  2753.667
 134  3128.142
 135  3079.896
 136  1940.344
 137  2205.612
 138  2516.086
 139  2714.051
 140  2363.274
 141  2501.905
 142  2609.132
 143  2393.23
 144  2380.417
 145  2126.537
 146  2506.305
 147  2273.994
 148  2441.597
 149  2192.781
 150  2528.81
 151  2367.287
 152  1698.475
 153  1659.156
 154  2043.901
 155  2235.797
 156  2369.854
 157  2680.468
 158  3134.03
 159  2829.633
 160  2577.926
 161  2137.279
 162  2251.608
 163  2376.144
 164  2425.676
 165  2465.32
 166  2309.74
 167  2591.65
 168  2173.009
 169  1647.938
 170  1697.79
 171  2048.997
 172  1933.279
 173  2195.862
 174  3125.268
 175  3000.381
 176  3254.549
 177  2983.411
 178  2686.081
 179  2888.154
 180  2720.975
 181  2511.097
 182  2797.062
 183  3216.558
 184  3004.794
 185  2375.498
 186  1946.543
 187  1719.739
 188  1924.436
 189  2230.647
 190  2848.364
 191  3624.205
 192  3734.453
 193  3331.302
 194  2604.132
 195  2568.94
 196  2351.453
 197  2844.502
 198  2856.867
 199  3085.172
 200  3565.911
 201  3032.007
 202  2620.989
 203  2306.192
 204  2678.354
 205  2901.362
 206  3072.093
 207  3305.333
 208  3379.635
 209  3665.883
 210  2958.076
 211  3299.672
 212  3360.506
 213  3614.301
 214  3342.647
 215  3528.269
 216  3387.401
 217  3283.388
 218  2799.233
 219  2613.957
 220  2672.795
 221  2534.16
 222  2862.416
 223  3055.353
 224  3869.486
 225  3894.081
 226  3600.306
 227  3300.646
 228  2893.785
 229  2877.074
 230  2857.597
 231  2843.316
 232  3294.841
 233  3304.048
 234  2766.951
 235  1878.705
 236  2266.877
 237  2516.216
 238  2677.63
 239  2343.098
 240  3284.428
 241  3904.629
 242  3346.665
 243  2957.926
 244  3238.328
 245  3199.282
 246  3016.489
 247  2902.654
 248  2877.831
 249  2724.435
 250  3023.299
 251  2476.713
 252  1739.062
 253  2148.418
 254  2264.967
 255  2223.774
 256  2600.365
 257  3251.443
 258  3273.627
 259  2967.995
 260  2481.734
 261  2399.034
 262  2843.583
 263  2690.571
 264  2566.31
 265  2785.277
 266  3390.273
 267  3199.057
 268  2329.884
 269  1949.074
 270  2263.656
 271  2775.671
 272  2927.999
 273  3392.326
 274  3613.649
 275  3071.751
 276  2321.413
 277  2415.613
 278  2571.093
 279  2787.959
 280  3482.021
 281  3366.916
 282  3108.904
 283  3090.102
 284  2645.03
 285  1948.444
 286  2296.829
 287  2589.24
 288  2106.885
 289  2780.308
 290  3207.851
 291  3147.116
 292  3114.866
 293  2883.125
 294  2710.905
 295  2720.131
 296  3318.622
 297  3496.415
 298  3974.67
 299  4954.019
 300  5363.601
 301  4488.099
 302  3673.955
 303  3596.67
 304  3177.06
 305  2839.826
 306  3244.759
 307  3806.709
 308  3617.64
 309  3087.247
 310  3116.3
 311  2879.522
 312  2850.201
 313  2694.892
 314  3182.003
 315  3286.448
 316  3430.893
 317  2628.597
 318  2204.258
 319  2131.696
 320  2163.732
 321  2544.188
 322  2759.913
 323  2979.094
 324  3200.699
 325  2618.52
 326  2510.636
 327  2355.759
 328  2327.147
 329  2451.518
 330  1989.198
 331  2365.696
 332  2778.152
 333  2690.67
 334  1870.506
 335  1779.394
 336  2057.659
 337  2104.941
 338  2353.589
 339  2785.108
 340  3177.412
 341  3096.59
 342  2742.392
 343  2650.767
 344  2630.76
 345  2556.411
 346  2382.288
 347  2490.454
 348  3063.857
 349  2658.404
 350  1881.885
 351  1221.217
 352  1342.252
 353  1891.21
 354  2357.976
 355  2425.87
 356  3521.242
 357  3287.775
 358  2681.945
 359  2383.448
 360  2021.888
 361  2369.557
 362  2627.494
 363  2465.367
 364  2361.905
 365  2656.652
 366  2219.881
 367  1925.298
 368  1491.114
 369  1685.781
 370  2084.832
 371  2289.759
 372  2540.922
 373  3111.873
 374  3746.518
 375  3188.193
 376  2340.43
 377  2144.203
 378  1806.391
 379  2567.748
 380  2527.987
 381  2661.038
 382  2922.614
 383  2222.43
 384  1904.762
 385  1694.479
 386  1713.061
 387  2043.595
 388  2214.542
 389  2980.149
 390  3304.75
 391  2477.167
 392  2306.544
 393  2474.44
 394  2122.223
 395  2178.357
 396  2355.76
 397  2882.638
 398  3290.297
 399  2487.722
 400  2053.105
 401  2073.962
 402  2452.632
 403  1942.591
 404  2125.271
 405  2834.768
 406  3050.688
 407  2787.993
 408  2162.137
 409  2077.899
 410  2084.498
 411  2211.938
 412  2448.438
 413  2730.088
 414  3078.67
 415  2884.911
 416  2208.253
 417  1781.974
 418  1756.102
 419  1973.246
 420  2221.817
 421  2407.55
 422  2958.698
 423  3440.821
 424  2821.715
 425  2593.265
 426  2640.279
 427  2533.67
 428  2549.165
 429  2226.599
 430  2785.689
 431  2811.144
 432  2501.943
 433  2321.761
 434  1806.942
 435  1856.086
 436  2091.527
 437  2425.716
 438  2883.065
 439  3586.611
 440  3442.784
 441  2638.868
 442  2431.996
 443  2069.468
 444  2252.598
 445  2744.932
 446  2764.541
 447  2831.577
 448  2485.795
 449  2130.243
 450  1533.847
 451  1845.659
 452  1768.982
 453  2161.503
 454  2300.732
 455  3243.74
 456  3152.988
 457  2766.287
 458  2847.633
 459  2525.737
 460  2340.961
 461  2287.257
 462  2341.216
 463  2349.936
 464  2986.307
 465  3023.26
 466  2090.077
 467  1249.419
 468  1346.429
 469  1714.822
 470  1890.037
 471  2532.884
 472  3113.97
 473  3248.523
 474  2859.576
 475  2078.995
 476  2317.25
 477  2407.591
 478  2390.666
 479  2438.198
 480  2783.967
 481  3131.798
 482  2353.86
 483  1573.153
 484  1476.138
 485  2221.537
 486  2770.234
 487  2425.29
 488  2850.833
 489  3131.042
 490  2754.498
 491  2005.479
 492  2212.842
 493  2433.905
 494  2553.827
 495  2489.221
 496  2849.044
 497  3251.313
 498  2943.162
 499  1937.554
 500  1429.543
 501  1870.878
 502  1709.17
 503  2176.188
 504  2740.425
 505  3230.389
 506  3600.957
 507  2874.037
 508  2219.454
 509  2362.452
 510  2432.876
 511  1938.048
