# Input file       =  1208771537.100019_cleaned.dat
# Candidate        =  PSR_0332+5434
# Telescope        =  AR
# Epoch_topo       =  58234.411528935401
# Epoch_bary       =  N/A
# T_sample         =  0.002
# Data Folded      =  7340032
# Data Avg         =  0.00481318706466933
# Data StdDev      =  1.00002365305776 
# Profile Bins     =  512
# Profile Avg      =  68.9402726718837 
# Profile StdDev   =  119.735868429192 
# Reduced chi-sqr  =  0.977
# Prob(Noise)      <  0.635   (~0.0 sigma)
# P_topo (ms)      =  714.550789751822  +/- 0.000838
# P'_topo (s/s)    =  -0                +/- 4.42e-10
# P''_topo (s/s^2) =  0                 +/- 1.95e-13
# P_bary (ms)      =  N/A
# P'_bary (s/s)    =  N/A
# P''_bary (s/s^2) =  N/A
# P_orb (s)        =  N/A
# asin(i)/c (s)    =  N/A
# eccentricity     =  N/A
# w (rad)          =  N/A
# T_peri           =  N/A
######################################################
   0  166.5333
   1  145.8795
   2  129.2962
   3  127.6712
   4  109.157
   5  116.9591
   6  67.67992
   7  81.55212
   8  34.31305
   9  164.2329
  10  123.8671
  11  71.38608
  12  51.61907
  13  122.0744
  14  110.8329
  15  101.8045
  16  89.96309
  17  92.01076
  18  34.91842
  19  31.40388
  20  76.63199
  21  60.22309
  22  41.44753
  23  40.7691
  24  -6.335824
  25  79.34616
  26  52.57089
  27  -15.983
  28  -35.74541
  29  48.66241
  30  113.8002
  31  123.7402
  32  63.26572
  33  97.44888
  34  101.0674
  35  58.0526
  36  70.18967
  37  52.23367
  38  15.23147
  39  26.31647
  40  98.91152
  41  121.3521
  42  86.22308
  43  92.81163
  44  152.2867
  45  80.24046
  46  109.8167
  47  93.71864
  48  90.29856
  49  125.3591
  50  113.2876
  51  42.87279
  52  33.90181
  53  82.79854
  54  68.97684
  55  83.52508
  56  43.15896
  57  1.132414
  58  15.24177
  59  -43.33268
  60  -6.605921
  61  70.44656
  62  59.80701
  63  41.59771
  64  30.80021
  65  32.30149
  66  74.28594
  67  29.43344
  68  -26.81299
  69  -2.004401
  70  71.47551
  71  31.97536
  72  55.89963
  73  69.82378
  74  48.99963
  75  -16.31957
  76  -0.4446288
  77  40.6871
  78  -60.19483
  79  -125.2302
  80  -91.83036
  81  -40.83628
  82  -41.22086
  83  -48.65375
  84  0.5140849
  85  -65.5381
  86  -99.9104
  87  -92.71928
  88  -44.15734
  89  -75.94926
  90  -135.3678
  91  -85.99226
  92  -93.88279
  93  -74.22977
  94  -29.71532
  95  -59.55263
  96  -67.47855
  97  90.9311
  98  27.4978
  99  -44.02094
 100  -12.31971
 101  -22.7903
 102  -44.31729
 103  -66.88062
 104  -72.18234
 105  -4.532194
 106  -15.28365
 107  -21.3592
 108  22.98109
 109  -26.45999
 110  -34.25946
 111  6.448891
 112  55.88737
 113  58.50404
 114  16.59727
 115  3.932939
 116  -22.46162
 117  32.60695
 118  78.95664
 119  60.91965
 120  -15.26913
 121  -3.181837
 122  -17.25436
 123  -35.89101
 124  -22.28252
 125  -31.73877
 126  26.6702
 127  106.5273
 128  84.2328
 129  -35.53904
 130  14.7727
 131  69.55669
 132  46.06383
 133  36.25322
 134  8.395725
 135  45.91152
 136  58.4303
 137  50.28051
 138  88.67654
 139  51.18277
 140  -1.630071
 141  39.82616
 142  23.27099
 143  -5.223371
 144  -47.12222
 145  -100.3064
 146  -88.60049
 147  -73.30916
 148  5.762425
 149  44.03539
 150  30.93195
 151  -32.21943
 152  -68.9281
 153  -84.69465
 154  -34.574
 155  -27.51384
 156  74.56664
 157  38.94051
 158  12.33667
 159  -1.428279
 160  -19.02445
 161  31.75372
 162  49.44264
 163  60.83006
 164  59.55667
 165  57.90038
 166  -12.74891
 167  46.23096
 168  85.58401
 169  -21.25827
 170  -10.14302
 171  66.20111
 172  48.06383
 173  34.58373
 174  30.49809
 175  67.40366
 176  111.5496
 177  30.32446
 178  85.37611
 179  84.63974
 180  39.90285
 181  90.35466
 182  155.0295
 183  138.1483
 184  100.5413
 185  110.5498
 186  131.6091
 187  146.1962
 188  85.24962
 189  34.74147
 190  132.3949
 191  120.4184
 192  144.6866
 193  86.04914
 194  138.6403
 195  169.5949
 196  115.0877
 197  114.688
 198  133.019
 199  89.55148
 200  56.15577
 201  34.35842
 202  91.25087
 203  82.31342
 204  151.6355
 205  115.9907
 206  80.78728
 207  45.42898
 208  84.49766
 209  54.17532
 210  101.8406
 211  116.1474
 212  82.19799
 213  134.5629
 214  133.5816
 215  64.42262
 216  31.22003
 217  15.52617
 218  22.23585
 219  73.93768
 220  99.79324
 221  122.6818
 222  90.27334
 223  14.26088
 224  14.58618
 225  57.992
 226  90.46419
 227  86.46827
 228  96.74017
 229  30.33456
 230  50.71721
 231  -35.63242
 232  4.201981
 233  -1.301995
 234  -22.46205
 235  -11.86882
 236  -64.47575
 237  23.57599
 238  19.87679
 239  53.50697
 240  46.99726
 241  -46.52037
 242  -78.80397
 243  -57.8409
 244  -40.59021
 245  -16.62127
 246  19.39649
 247  25.21911
 248  10.81808
 249  -46.14468
 250  -112.8228
 251  -44.65926
 252  -42.87743
 253  48.65505
 254  29.3564
 255  2.820185
 256  17.79374
 257  16.00044
 258  21.99399
 259  -17.72399
 260  -34.09648
 261  65.37807
 262  81.24587
 263  58.26141
 264  117.017
 265  149.6246
 266  58.65191
 267  72.93917
 268  42.94293
 269  77.00036
 270  95.22034
 271  95.49367
 272  45.83771
 273  68.56898
 274  107.1531
 275  82.60835
 276  109.3234
 277  40.23078
 278  6.111063
 279  -13.50149
 280  -15.82604
 281  -21.89801
 282  8.381396
 283  61.79939
 284  73.13751
 285  61.75204
 286  90.54998
 287  73.22673
 288  90.13624
 289  80.63536
 290  59.21051
 291  70.25722
 292  10.82283
 293  -22.96901
 294  44.77759
 295  19.74684
 296  -20.72469
 297  -5.653851
 298  45.97324
 299  5.491474
 300  13.12166
 301  2.251162
 302  -20.77341
 303  5.218037
 304  2.309936
 305  -32.41894
 306  -30.99568
 307  34.44729
 308  39.38411
 309  3.297307
 310  68.96538
 311  13.60115
 312  -20.66456
 313  31.56274
 314  12.97698
 315  -4.172865
 316  -24.10579
 317  -5.479316
 318  12.41713
 319  34.63422
 320  45.28233
 321  -19.50512
 322  -85.29135
 323  -104.9315
 324  -87.60883
 325  -20.6587
 326  -59.82896
 327  -107.7802
 328  -7.544637
 329  -17.45654
 330  -14.83022
 331  90.97232
 332  107.2623
 333  64.44298
 334  25.41049
 335  73.79885
 336  75.76466
 337  181.4221
 338  143.0355
 339  100.8826
 340  73.17072
 341  119.205
 342  190.5163
 343  121.679
 344  111.5186
 345  177.6517
 346  213.9401
 347  151.5735
 348  155.543
 349  169.3428
 350  170.0275
 351  182.6945
 352  178.8569
 353  230.2377
 354  182.3155
 355  97.12254
 356  137.0587
 357  187.2163
 358  134.5107
 359  122.0779
 360  130.6401
 361  159.763
 362  123.0427
 363  123.3758
 364  127.9207
 365  144.4981
 366  121.7084
 367  136.0607
 368  98.22661
 369  101.2635
 370  116.7339
 371  132.8278
 372  136.3958
 373  154.797
 374  158.0179
 375  185.2591
 376  226.9395
 377  171.7331
 378  140.9253
 379  122.1811
 380  112.2499
 381  127.6807
 382  115.9643
 383  70.13752
 384  129.8232
 385  204.3587
 386  230.7734
 387  99.81188
 388  55.11905
 389  100.7993
 390  167.3173
 391  197.5137
 392  174.5986
 393  120.0897
 394  28.54647
 395  1.595604
 396  50.52395
 397  68.25189
 398  53.01404
 399  125.7354
 400  86.58302
 401  35.2612
 402  70.24191
 403  111.1934
 404  95.8475
 405  135.0973
 406  209.6369
 407  182.5037
 408  107.2809
 409  100.0147
 410  137.4638
 411  137.73
 412  65.29031
 413  109.635
 414  107.4784
 415  157.1777
 416  138.4605
 417  161.9008
 418  144.1226
 419  135.0944
 420  157.4693
 421  138.8396
 422  102.1622
 423  102.8945
 424  191.7543
 425  209.7898
 426  113.9455
 427  33.12951
 428  68.79457
 429  73.76333
 430  63.32352
 431  102.6373
 432  128.4216
 433  113.5608
 434  162.3209
 435  200.8531
 436  239.3681
 437  230.8869
 438  166.5273
 439  267.713
 440  251.5585
 441  174.629
 442  188.8072
 443  217.2437
 444  196.9446
 445  153.0054
 446  149.042
 447  231.3544
 448  236.7908
 449  197.3206
 450  200.2636
 451  138.008
 452  156.2396
 453  143.9159
 454  185.4914
 455  307.2304
 456  452.1956
 457  490.4027
 458  540.576
 459  551.6328
 460  455.7525
 461  264.812
 462  181.5082
 463  121.7371
 464  109.6484
 465  38.30658
 466  30.8345
 467  28.34956
 468  42.57911
 469  8.136242
 470  -72.74074
 471  10.98934
 472  57.05627
 473  78.97935
 474  62.57639
 475  55.05943
 476  96.66989
 477  -3.717389
 478  43.40328
 479  72.39925
 480  84.08892
 481  84.83235
 482  65.90842
 483  45.1617
 484  79.76804
 485  21.27816
 486  9.953751
 487  55.63382
 488  97.88688
 489  70.9111
 490  142.3222
 491  144.7891
 492  124.4224
 493  75.9454
 494  41.78308
 495  22.21719
 496  77.93587
 497  117.2037
 498  108.7206
 499  169.0992
 500  112.9614
 501  36.4552
 502  81.44405
 503  141.9808
 504  152.3533
 505  134.4406
 506  108.3254
 507  141.357
 508  165.1754
 509  171.5891
 510  166.9818
 511  107.5605
