# Input file       =  1208527894.109575_cleaned.dat
# Candidate        =  PSR_0332+5434
# Telescope        =  AR
# Epoch_topo       =  58231.591586916380
# Epoch_bary       =  N/A
# T_sample         =  0.002
# Data Folded      =  7340032
# Data Avg         =  0.43515243389577 
# Data StdDev      =  6.98746692167443 
# Profile Bins     =  1024
# Profile Avg      =  3119.20529062758 
# Profile StdDev   =  591.587192609298 
# Reduced chi-sqr  =  1.140
# Prob(Noise)      <  0.00116   (~3.0 sigma)
# P_topo (ms)      =  714.553547890776  +/- 0.000474
# P'_topo (s/s)    =  -0                +/- 2.5e-10
# P''_topo (s/s^2) =  0                 +/- 1.1e-13
# P_bary (ms)      =  N/A
# P'_bary (s/s)    =  N/A
# P''_bary (s/s^2) =  N/A
# P_orb (s)        =  N/A
# asin(i)/c (s)    =  N/A
# eccentricity     =  N/A
# w (rad)          =  N/A
# T_peri           =  N/A
######################################################
   0  2876.834
   1  2742.025
   2  2792.711
   3  2808
   4  2740.568
   5  2903.581
   6  3043.287
   7  3037.794
   8  2902.058
   9  2781.429
  10  2805.134
  11  2922.505
  12  2918.671
  13  2843.771
  14  2714.401
  15  2729.977
  16  2837.609
  17  2891.198
  18  2810.753
  19  2752.283
  20  2775.96
  21  2800.706
  22  2838.162
  23  2886.582
  24  2939.531
  25  2943.337
  26  2897.258
  27  2863.098
  28  2717.993
  29  2715.308
  30  2654.374
  31  2693.153
  32  2737.653
  33  2912.4
  34  3017.479
  35  3103.761
  36  3128.962
  37  3147.569
  38  3255.596
  39  3255.54
  40  3172.723
  41  3031.717
  42  3129.213
  43  3192.51
  44  3202.186
  45  3219.717
  46  3310.186
  47  3423.887
  48  3493.571
  49  3409.948
  50  3294.586
  51  3215.617
  52  3252.649
  53  3244.695
  54  3220.047
  55  3184.727
  56  3295.559
  57  3437.097
  58  3425.819
  59  3352.204
  60  3289.783
  61  3155.395
  62  3086.896
  63  3024.118
  64  3080.042
  65  3115.513
  66  3288.828
  67  3304.226
  68  3280.323
  69  3279.138
  70  3250.318
  71  3178.297
  72  3193.285
  73  3184.006
  74  3220.242
  75  3190.014
  76  3174.205
  77  3033.372
  78  3020.544
  79  2980.286
  80  2978.306
  81  2897.687
  82  3012.844
  83  2932.418
  84  2906.292
  85  2813.803
  86  2841.572
  87  2838.849
  88  2932.609
  89  3011.486
  90  3099.495
  91  3012.475
  92  2844.327
  93  2797.799
  94  2665.724
  95  2679.547
  96  2641.408
  97  2790.91
  98  2914.927
  99  2840.463
 100  2843.139
 101  2863.165
 102  3017.001
 103  2939.004
 104  2825.496
 105  2809.969
 106  2833.637
 107  2882.854
 108  2866.094
 109  2994.954
 110  2972.191
 111  2870.237
 112  2739.646
 113  2832.106
 114  2953.73
 115  2973.387
 116  3003.863
 117  2934.543
 118  2947.947
 119  2988.115
 120  3010.116
 121  3001.33
 122  3010.576
 123  3015.667
 124  3035.858
 125  3088.399
 126  3163.454
 127  3143.735
 128  3080.869
 129  3091.81
 130  3078.135
 131  3127.659
 132  2968.665
 133  2938.633
 134  2939.378
 135  3055.251
 136  3133.113
 137  3182.849
 138  3036.789
 139  3082.165
 140  3148.052
 141  3077.761
 142  3105.646
 143  3180.563
 144  3285.806
 145  3091.251
 146  2889.316
 147  2832.681
 148  2925.674
 149  3094.695
 150  3225.438
 151  3182.898
 152  3060.376
 153  2973.242
 154  3020.966
 155  3116.691
 156  2910.126
 157  2944.943
 158  2893.79
 159  2842.904
 160  2724.671
 161  2607.153
 162  2668.055
 163  2805.294
 164  2773.117
 165  2914.287
 166  3134.845
 167  3307.588
 168  3270.965
 169  3105.827
 170  3065.12
 171  3099.857
 172  3064.726
 173  3142.025
 174  3175.569
 175  3179.023
 176  3214.454
 177  3177.037
 178  3315.192
 179  3326.308
 180  3422.147
 181  3364.325
 182  3274.628
 183  3284.492
 184  3301.041
 185  3352.167
 186  3423.58
 187  3445.676
 188  3363.632
 189  3360.352
 190  3362.208
 191  3453.635
 192  3352.024
 193  3290.635
 194  3258.179
 195  3234.475
 196  3244.861
 197  3302.201
 198  3401.739
 199  3411.993
 200  3249.443
 201  3268.876
 202  3424.449
 203  3570.421
 204  3577.762
 205  3550.662
 206  3466.416
 207  3459.261
 208  3504.792
 209  3553.869
 210  3484.909
 211  3446.082
 212  3386.736
 213  3353.489
 214  3377.006
 215  3451
 216  3504.979
 217  3455.691
 218  3392.388
 219  3408.676
 220  3455.368
 221  3410.749
 222  3311.85
 223  3234.776
 224  3111.185
 225  3185.786
 226  3179.924
 227  3173.825
 228  3024.846
 229  3171.533
 230  3288.567
 231  3370.955
 232  3278.141
 233  3264.458
 234  3263.709
 235  3282.163
 236  3212.448
 237  3183.136
 238  3147.573
 239  3079.472
 240  3166.317
 241  3234.208
 242  3298.92
 243  3123.599
 244  3038.535
 245  3000.935
 246  3098.681
 247  3137.764
 248  3120.517
 249  3099.757
 250  3087.549
 251  3215.46
 252  3186.851
 253  3106.793
 254  2976.191
 255  3101.068
 256  3186.302
 257  3251.939
 258  3295.317
 259  3309.985
 260  3170.885
 261  3056.12
 262  2942.848
 263  3000.502
 264  2806.207
 265  2845.524
 266  2873.909
 267  3101.083
 268  3091.943
 269  2952.538
 270  2856.562
 271  2837.335
 272  2961.049
 273  3017.554
 274  3018.313
 275  2893.582
 276  2835.93
 277  2883.029
 278  2985.114
 279  2936.175
 280  2952.904
 281  2862.65
 282  2898.145
 283  2878.515
 284  2980.385
 285  3068.917
 286  3108.838
 287  2993.198
 288  2855.455
 289  2929.879
 290  3107.291
 291  3272.235
 292  3204.99
 293  3049.657
 294  3017.783
 295  3091.465
 296  3242.323
 297  3300.472
 298  3257.305
 299  3341.13
 300  3362.866
 301  3347.42
 302  3387.334
 303  3355.835
 304  3498.595
 305  3512.266
 306  3590.057
 307  3508.867
 308  3444.276
 309  3328.476
 310  3376.405
 311  3401.821
 312  3401.656
 313  3331.936
 314  3274.248
 315  3285.193
 316  3293.21
 317  3289.463
 318  3149.946
 319  3085.843
 320  3143.39
 321  3060.903
 322  3044.475
 323  3069.646
 324  3085.793
 325  3098.409
 326  3126.414
 327  3160.306
 328  3131.397
 329  3072.531
 330  3055.665
 331  3099.974
 332  3138.914
 333  3105.96
 334  3053.795
 335  3138.179
 336  3261.385
 337  3186.851
 338  3037.59
 339  2949.811
 340  3043.664
 341  3134.289
 342  3222.651
 343  3279.651
 344  3280.855
 345  3368.701
 346  3316.996
 347  3187.228
 348  3133.597
 349  3180.65
 350  3179.43
 351  3150.886
 352  3279.017
 353  3427.842
 354  3480.39
 355  3514.519
 356  3470.95
 357  3387.98
 358  3199.837
 359  3225.551
 360  3360.861
 361  3278.848
 362  3253.326
 363  3356.515
 364  3463.849
 365  3340.108
 366  3321.378
 367  3358.45
 368  3393.976
 369  3179.869
 370  2990.443
 371  2941.068
 372  2986.73
 373  3092.797
 374  3153.385
 375  3122.865
 376  3101.294
 377  3000.961
 378  3179.855
 379  3145.64
 380  3099.51
 381  3034.606
 382  3043.292
 383  3008.649
 384  2967.591
 385  3011.298
 386  3103.723
 387  3226.609
 388  3184.111
 389  3104.746
 390  3054.073
 391  2972.851
 392  2895.125
 393  2805.886
 394  2919.747
 395  2942.836
 396  3052.946
 397  2990.794
 398  2913.645
 399  2974.46
 400  2879.689
 401  3041.03
 402  3048.771
 403  3138.581
 404  2904.411
 405  2942.957
 406  2856.826
 407  2810.708
 408  2637.295
 409  2684.75
 410  2915.923
 411  2941.065
 412  2869.627
 413  2859.813
 414  2824.683
 415  2976.097
 416  2977.423
 417  3031.576
 418  2880.628
 419  2747.453
 420  2871.416
 421  2956.873
 422  3051.023
 423  2954.846
 424  2885.487
 425  2800.039
 426  2656.446
 427  2544.376
 428  2635.539
 429  2804.838
 430  2927.947
 431  2882.936
 432  2834
 433  2779.619
 434  2745.141
 435  2781.525
 436  2905.031
 437  2858.509
 438  2826.89
 439  2716.489
 440  2720.759
 441  2664.71
 442  2629.014
 443  2621.821
 444  2582.533
 445  2543.8
 446  2670.103
 447  2800.124
 448  2804.395
 449  2773.089
 450  2793.251
 451  2821.515
 452  2777.993
 453  2779.092
 454  2666.728
 455  2700.616
 456  2842.955
 457  2866.947
 458  2874.022
 459  2767.188
 460  2852.904
 461  2877.714
 462  2827.97
 463  2853.846
 464  2931.141
 465  3016.647
 466  3023.621
 467  3048.088
 468  3002.092
 469  3038.296
 470  2997.216
 471  3127.312
 472  3162.354
 473  3176.868
 474  3226.605
 475  3250.817
 476  3339.881
 477  3537.275
 478  3731.971
 479  3628.384
 480  3525.15
 481  3553.389
 482  3697.141
 483  3657.225
 484  3757.772
 485  3772.25
 486  3821.601
 487  3794.562
 488  3898.742
 489  3900.2
 490  3878.543
 491  3834.984
 492  3746.857
 493  3791.872
 494  3544.674
 495  3480.151
 496  3484.222
 497  3637.123
 498  3708.506
 499  3524.172
 500  3470.162
 501  3487.689
 502  3602.905
 503  3640.389
 504  3669.222
 505  3519.903
 506  3443.996
 507  3340.608
 508  3330.233
 509  3290.025
 510  3199.454
 511  3277.409
 512  3350.975
 513  3469.826
 514  3454.41
 515  3480.143
 516  3462.881
 517  3426.473
 518  3418.907
 519  3366.825
 520  3430.808
 521  3460.813
 522  3462.353
 523  3375.835
 524  3310.166
 525  3227.378
 526  3211.742
 527  3283.131
 528  3310.759
 529  3307.01
 530  3174.954
 531  3267.398
 532  3392.084
 533  3415.376
 534  3413.999
 535  3449.472
 536  3550.999
 537  3512.987
 538  3434.875
 539  3272.136
 540  3188.568
 541  3314.357
 542  3340.5
 543  3361.958
 544  3238.548
 545  3208.844
 546  3272.682
 547  3341.967
 548  3239.774
 549  3208.506
 550  3242.178
 551  3160.966
 552  3111.02
 553  3216.164
 554  3433.102
 555  3508.577
 556  3410.428
 557  3376.511
 558  3275.748
 559  3322.517
 560  3203.263
 561  3235.929
 562  3163.65
 563  3311.02
 564  3494.701
 565  3592.61
 566  3528.26
 567  3602.405
 568  3663.832
 569  3584.057
 570  3466.387
 571  3340.934
 572  3214.185
 573  3040.858
 574  3051.176
 575  3222.846
 576  3436.479
 577  3474.795
 578  3401.864
 579  3203.523
 580  3140.622
 581  3247.03
 582  3300.722
 583  3214.884
 584  3067.059
 585  3136.887
 586  3327.047
 587  3240.53
 588  3203.491
 589  3086.633
 590  3181.848
 591  3204.008
 592  3220.311
 593  3319.012
 594  3334.438
 595  3307.735
 596  3378.051
 597  3537.783
 598  3782.421
 599  4018.531
 600  4274.043
 601  4309.472
 602  4484.492
 603  4587.688
 604  4538.441
 605  4318.431
 606  3999.054
 607  3686.087
 608  3399.916
 609  3218.852
 610  3180.097
 611  3154.627
 612  3132.988
 613  3149.733
 614  3164.298
 615  3138.922
 616  3051.874
 617  3091.302
 618  3079.28
 619  3003.814
 620  2886.713
 621  2943.997
 622  3035.121
 623  3016.246
 624  2996.109
 625  2971.828
 626  3011.957
 627  3093.271
 628  3095.281
 629  3085.491
 630  3060.965
 631  3068.927
 632  3192.86
 633  3169.764
 634  3148.492
 635  3070.243
 636  3125.447
 637  3115.84
 638  3155.301
 639  3157.726
 640  3100.087
 641  3080.612
 642  3213.004
 643  3177.304
 644  3254.558
 645  3175.005
 646  3301.368
 647  3380.361
 648  3386.508
 649  3460.287
 650  3441.146
 651  3406.848
 652  3328.039
 653  3204.27
 654  3262.614
 655  3289.803
 656  3229.023
 657  3128.957
 658  3225.649
 659  3220.775
 660  3073.155
 661  2811.553
 662  2817.489
 663  2996.434
 664  3002.113
 665  3129.589
 666  3129.491
 667  3106.996
 668  3100.384
 669  3187.784
 670  3243.048
 671  3139.198
 672  3068.431
 673  3158.179
 674  3036.535
 675  3072.637
 676  2932.775
 677  3018.815
 678  2983.793
 679  3025.904
 680  2953.832
 681  2897.607
 682  2925.971
 683  2885.388
 684  2829.648
 685  2704.881
 686  2732.354
 687  2816.033
 688  2804.897
 689  2706.884
 690  2687.97
 691  2809.002
 692  2746.24
 693  2784.038
 694  2862.217
 695  2869.488
 696  2860.167
 697  2711.98
 698  2766.408
 699  2899.354
 700  3028.909
 701  3077.309
 702  3042.055
 703  2870.594
 704  2750.019
 705  2714.53
 706  2814.089
 707  2766.288
 708  2757.989
 709  2713.515
 710  2613.425
 711  2551.899
 712  2497.507
 713  2589.754
 714  2647.764
 715  2670.222
 716  2704.913
 717  2718.938
 718  2659.751
 719  2634.233
 720  2574.082
 721  2484.173
 722  2476.895
 723  2533.722
 724  2653.398
 725  2630.63
 726  2654.25
 727  2529.107
 728  2577.766
 729  2586.192
 730  2640.627
 731  2761.94
 732  2707.996
 733  2736.455
 734  2611.326
 735  2621.014
 736  2450.61
 737  2537.311
 738  2637.964
 739  2675.01
 740  2605.932
 741  2541.914
 742  2577.622
 743  2737.255
 744  2807.416
 745  2864.43
 746  2813.539
 747  2839.09
 748  2779.082
 749  2579.215
 750  2484.856
 751  2398.998
 752  2382.108
 753  2471.362
 754  2572.871
 755  2573.719
 756  2568.854
 757  2674.392
 758  2842.237
 759  2939.033
 760  2970.448
 761  2971.966
 762  2894.777
 763  2694.163
 764  2565.23
 765  2548.154
 766  2578.82
 767  2566.092
 768  2626.277
 769  2754.09
 770  2867.244
 771  2738.583
 772  2616.348
 773  2648.195
 774  2818.885
 775  2734.685
 776  2798.619
 777  2697.43
 778  2551.755
 779  2466.521
 780  2525.881
 781  2607.226
 782  2615.702
 783  2568.923
 784  2609.397
 785  2608.753
 786  2477.528
 787  2561.456
 788  2602.903
 789  2843.9
 790  2973.48
 791  3024.896
 792  3043.24
 793  2997.291
 794  2849.508
 795  2857.83
 796  2991.915
 797  3144.028
 798  3184.461
 799  3071.204
 800  3097.698
 801  3156.568
 802  3302.224
 803  3338.127
 804  3373.016
 805  3352.577
 806  3351.085
 807  3291.212
 808  3203.145
 809  3275.849
 810  3353.922
 811  3346.727
 812  3236.166
 813  3079.63
 814  3162.211
 815  3169.001
 816  3096.68
 817  2988.825
 818  3015.417
 819  3090.914
 820  3100.073
 821  3105.521
 822  3037.237
 823  2912.715
 824  2808.944
 825  2769.12
 826  2742.532
 827  2616.712
 828  2686.812
 829  2818.851
 830  2910.454
 831  2767.015
 832  2653.41
 833  2684.48
 834  2845.974
 835  2836.636
 836  2919.363
 837  2867.038
 838  2762.968
 839  2600.178
 840  2630.071
 841  2721.007
 842  2680.005
 843  2671.013
 844  2668.093
 845  2675.051
 846  2599.366
 847  2571.94
 848  2673.629
 849  2752.572
 850  2814.22
 851  2906.191
 852  2886.792
 853  2760.545
 854  2668.209
 855  2640.533
 856  2682.954
 857  2739.458
 858  2811.436
 859  2902.027
 860  2768.206
 861  2686.445
 862  2638.535
 863  2598.177
 864  2539.432
 865  2554.497
 866  2705.057
 867  2796.197
 868  2761.126
 869  2729.465
 870  2724.23
 871  2730.469
 872  2687.133
 873  2665.854
 874  2732.194
 875  2701.352
 876  2651.906
 877  2482.553
 878  2482.599
 879  2569.122
 880  2678.317
 881  2636.154
 882  2681.306
 883  2830.501
 884  2906.942
 885  2911.393
 886  2903.885
 887  2998.661
 888  3009.145
 889  3029.012
 890  2980.143
 891  2927.561
 892  2826.261
 893  2660.461
 894  2685.635
 895  2813.975
 896  2790.082
 897  2832.219
 898  2904.026
 899  3066.759
 900  3159.992
 901  3093.345
 902  3116.707
 903  3095.7
 904  3055.813
 905  2977.342
 906  2976.297
 907  3008.359
 908  3134.373
 909  3138.652
 910  3200.885
 911  3119.787
 912  3010.368
 913  3109.56
 914  3299.822
 915  3564.225
 916  3655.466
 917  3632.617
 918  3634.285
 919  3477.732
 920  3349.713
 921  3103.397
 922  3189.087
 923  3323.716
 924  3604.744
 925  3711.561
 926  3552.743
 927  3517.22
 928  3526.146
 929  3567.462
 930  3580.776
 931  3759.119
 932  3866.54
 933  3739.144
 934  3551.375
 935  3561.968
 936  3735.66
 937  3877.915
 938  4009.482
 939  4079.646
 940  4012.014
 941  3964.027
 942  3984.828
 943  4034.369
 944  3998.369
 945  3880.879
 946  3731.281
 947  3773.924
 948  3819.968
 949  3928.42
 950  4048.859
 951  4042.505
 952  4146.154
 953  4218.386
 954  4372.33
 955  4375.523
 956  4282.05
 957  4132.546
 958  4076.462
 959  4102.737
 960  4069.474
 961  4011.108
 962  3914.025
 963  3942.248
 964  4073.488
 965  4242.099
 966  4206.736
 967  4044.339
 968  3894.078
 969  3883.417
 970  3869.348
 971  3907.466
 972  3890.256
 973  3844.445
 974  3813.028
 975  3751.295
 976  3579.009
 977  3484.894
 978  3329.4
 979  3377.209
 980  3447.931
 981  3514.719
 982  3492.66
 983  3486.511
 984  3519.904
 985  3520.126
 986  3379.92
 987  3329.687
 988  3400.315
 989  3398.688
 990  3387.522
 991  3414.125
 992  3401.117
 993  3386.123
 994  3354.687
 995  3316.108
 996  3377.95
 997  3377.564
 998  3323.353
 999  3123.284
1000  3102.456
1001  3114.562
1002  3130.134
1003  3023.476
1004  2977.635
1005  2987.177
1006  3046.042
1007  3145.964
1008  3184.581
1009  3097.912
1010  3041.867
1011  2968.5
1012  3032.834
1013  2946.226
1014  3071.02
1015  3300.982
1016  3380.424
1017  3377.185
1018  3114.741
1019  2858.754
1020  2708.468
1021  2797.349
1022  2954.032
1023  2897.27
