# Input file       =  1208168225.105342_cleaned.dat
# Candidate        =  PSR_0332+5434
# Telescope        =  AR
# Epoch_topo       =  58227.428751219239
# Epoch_bary       =  N/A
# T_sample         =  0.002
# Data Folded      =  7340032
# Data Avg         =  0.237113771445625
# Data StdDev      =  5.69467471284432 
# Profile Bins     =  512
# Profile Avg      =  3396.56561477163 
# Profile StdDev   =  681.840694546839 
# Reduced chi-sqr  =  1.522
# Prob(Noise)      <  2.29e-13   (~7.2 sigma)
# P_topo (ms)      =  714.556669339039  +/- 0.000495
# P'_topo (s/s)    =  -0                +/- 2.61e-10
# P''_topo (s/s^2) =  0                 +/- 1.15e-13
# P_bary (ms)      =  N/A
# P'_bary (s/s)    =  N/A
# P''_bary (s/s^2) =  N/A
# P_orb (s)        =  N/A
# asin(i)/c (s)    =  N/A
# eccentricity     =  N/A
# w (rad)          =  N/A
# T_peri           =  N/A
######################################################
   0  3276.19
   1  3283.423
   2  2959.683
   3  3376.529
   4  3517.749
   5  2993.471
   6  2770.946
   7  3235.08
   8  3205.212
   9  2941.45
  10  2833.035
  11  2622.447
  12  2578.492
  13  2796.082
  14  3232.2
  15  3327.777
  16  3213.925
  17  2896.236
  18  3057.895
  19  2807.3
  20  2925.391
  21  2905.983
  22  3195.629
  23  3086.145
  24  2897.375
  25  3416.147
  26  3207.19
  27  3501.891
  28  3650.26
  29  3429.841
  30  3640.997
  31  4089.653
  32  4098.482
  33  3672.147
  34  3942.85
  35  4006.699
  36  4331.606
  37  4251.213
  38  3696.513
  39  3722.468
  40  3817.063
  41  4040.91
  42  4126.697
  43  4090.045
  44  3923.323
  45  3935.006
  46  3947.94
  47  3890.05
  48  4163.895
  49  4127.365
  50  4149.993
  51  4149.898
  52  4039.514
  53  3727.218
  54  4020.691
  55  4059.661
  56  3884.49
  57  4230.754
  58  3989.832
  59  3757.101
  60  3645.632
  61  3768.68
  62  3761.272
  63  3963.252
  64  4041.428
  65  3747.878
  66  3601.723
  67  3608.689
  68  3889.064
  69  3602.389
  70  3291.903
  71  3626.458
  72  4280.351
  73  3669.254
  74  2978.876
  75  2981.727
  76  3413.552
  77  3205.491
  78  3227.174
  79  3632.215
  80  3811.961
  81  3637.78
  82  3369.372
  83  3422.064
  84  3327.526
  85  3450.596
  86  3311.765
  87  3583.047
  88  3712.526
  89  3584.365
  90  3049.606
  91  2898.399
  92  3367.917
  93  3216.472
  94  3318.575
  95  3433.651
  96  3502.479
  97  3647.968
  98  3393.647
  99  3219.14
 100  3280.74
 101  3846.978
 102  3859.734
 103  3655.094
 104  3893.705
 105  3438.423
 106  3313.248
 107  3604.727
 108  3935.578
 109  3716.989
 110  3886.865
 111  4049.624
 112  3962.781
 113  3754.709
 114  4001.535
 115  3908.319
 116  3969.414
 117  4127.04
 118  3961.41
 119  4328.748
 120  4199.25
 121  3810.152
 122  3715.836
 123  3773.159
 124  3854.607
 125  3828.28
 126  3906.395
 127  3739.361
 128  3903.264
 129  3535.42
 130  3422.141
 131  3462.005
 132  3495.27
 133  3380.39
 134  3646.712
 135  4016.154
 136  3607.501
 137  3147.623
 138  3451.719
 139  3452.283
 140  3191.158
 141  3514.608
 142  3334.839
 143  3486.139
 144  3525.227
 145  3241.564
 146  3492.658
 147  3617.375
 148  3183.968
 149  2755.995
 150  2520.351
 151  2990.014
 152  3302.131
 153  3180.921
 154  3111.527
 155  3078.873
 156  2909.759
 157  2938.248
 158  3039.099
 159  2655.417
 160  2723.891
 161  2806.229
 162  2264.39
 163  2479.366
 164  2703.753
 165  2380.402
 166  1746.314
 167  1936.558
 168  1863.738
 169  1885.64
 170  2053.922
 171  2073.859
 172  1561.037
 173  1778.548
 174  2112.817
 175  2224.398
 176  2093.399
 177  2012.839
 178  2309.017
 179  2513.805
 180  2660.869
 181  2795.112
 182  2785.522
 183  2749.612
 184  2693.489
 185  3069.339
 186  3231.97
 187  3271.98
 188  3301.167
 189  3218.985
 190  3056.28
 191  2827.291
 192  2835.446
 193  2804.156
 194  3375.604
 195  3723.604
 196  3713.686
 197  3850.864
 198  3776.311
 199  3851.339
 200  3832.456
 201  3951.753
 202  4415.833
 203  3713.381
 204  3440.74
 205  3194.725
 206  3518.589
 207  3432.383
 208  3433.823
 209  3563.133
 210  3682.536
 211  3304.293
 212  3418.425
 213  3630.462
 214  3491.162
 215  3567.951
 216  3334.366
 217  3001.015
 218  2948.791
 219  2893.687
 220  2952.094
 221  2725.405
 222  2587.831
 223  2699.167
 224  2800.388
 225  2624.882
 226  2436.603
 227  2651.178
 228  2614.447
 229  2569.532
 230  2568.383
 231  2511.142
 232  2526.023
 233  2767.761
 234  2578.916
 235  2609.421
 236  2603.244
 237  2722.282
 238  2536.708
 239  2409.144
 240  2525.251
 241  2241.989
 242  2176.907
 243  1989.562
 244  2273.232
 245  3139.005
 246  3111.556
 247  2816.295
 248  2799.186
 249  2890.763
 250  2629.925
 251  2890.921
 252  2953.413
 253  2981.146
 254  3016.379
 255  3104.453
 256  3125.153
 257  3479.336
 258  3430.971
 259  3354.289
 260  3407.467
 261  3469.326
 262  3219.426
 263  3270.765
 264  3500.327
 265  3461.66
 266  3370.131
 267  3212.595
 268  3321.217
 269  3483.913
 270  3637.903
 271  3645.038
 272  3377.183
 273  3410.632
 274  3287.964
 275  3782.755
 276  3844.919
 277  3920.94
 278  3939.075
 279  3804.854
 280  3859.442
 281  4059.84
 282  4320.165
 283  4327.807
 284  4555.951
 285  4531.737
 286  4574.287
 287  4690.195
 288  4475.533
 289  4424.911
 290  4561.05
 291  4335.343
 292  4475.618
 293  4179.417
 294  4249.91
 295  4029.854
 296  4182.422
 297  4686.598
 298  4792.702
 299  5294.515
 300  5999.395
 301  6163.477
 302  5734.806
 303  5790.434
 304  5350.068
 305  4212.405
 306  3461.571
 307  3403.018
 308  3414.573
 309  3599.273
 310  3453.889
 311  3435.896
 312  3477.688
 313  3663.542
 314  3588.228
 315  3483.034
 316  3729.978
 317  3728.347
 318  3985.329
 319  3758.611
 320  3694.381
 321  3269.609
 322  3488.061
 323  4003.432
 324  4038.263
 325  4173.627
 326  4124.984
 327  4369.86
 328  4206.926
 329  4008.477
 330  3927.735
 331  3843.713
 332  3973.378
 333  3802.451
 334  3578.148
 335  3844.708
 336  4081.772
 337  4055.462
 338  4144.793
 339  4195.19
 340  4167.719
 341  3702.556
 342  3496.765
 343  3948.32
 344  3960.082
 345  3713.059
 346  3740.861
 347  3524.176
 348  3399.349
 349  3666.307
 350  4035.872
 351  4217.4
 352  4218.171
 353  4329.656
 354  4216.579
 355  4173.568
 356  4219.364
 357  4142.787
 358  4120.609
 359  4042.941
 360  3714.324
 361  3602.243
 362  3565.033
 363  3780.668
 364  3961.965
 365  3753.454
 366  3548.814
 367  3623.2
 368  3772.754
 369  3422.678
 370  3306.071
 371  3458.778
 372  3720.474
 373  3586.954
 374  3427.897
 375  3501.659
 376  3407.229
 377  3162.126
 378  3077.497
 379  2756.956
 380  2793.397
 381  2670.761
 382  2613.155
 383  3026.139
 384  3070.066
 385  3008.966
 386  3194.001
 387  3280.521
 388  3054.553
 389  2771.457
 390  2974.55
 391  3302.204
 392  3454.152
 393  3527.452
 394  3860.966
 395  3784.207
 396  3411.05
 397  3548.474
 398  3628.577
 399  3388.394
 400  3842.728
 401  3728.87
 402  3589.944
 403  3469.424
 404  3445.828
 405  3486.007
 406  3599.179
 407  3570.447
 408  3287.008
 409  3259.773
 410  3351.765
 411  3471.224
 412  3304.478
 413  3050.09
 414  3439.324
 415  3343.71
 416  3449.055
 417  3579.658
 418  3658.004
 419  3684.705
 420  3424.967
 421  3527.949
 422  3307.812
 423  3244.611
 424  3411.407
 425  3601.802
 426  3813.733
 427  3543.375
 428  3779.197
 429  3470.869
 430  3202.591
 431  3446.37
 432  3338.121
 433  3489.772
 434  3555.788
 435  3582.446
 436  3403.196
 437  3117.813
 438  2857.944
 439  2734.758
 440  2969.271
 441  2984.083
 442  2835.4
 443  2493.375
 444  2358.438
 445  2424.993
 446  2385.371
 447  2342.107
 448  2462.298
 449  2348.392
 450  2418.117
 451  2521.506
 452  2151.998
 453  2329.192
 454  2545.133
 455  2706.453
 456  2918.587
 457  3023.589
 458  3219.862
 459  3254.275
 460  3061.181
 461  3150.227
 462  3074.919
 463  3024.189
 464  2923.095
 465  3153.175
 466  3337.463
 467  3346.06
 468  3202.254
 469  3114.326
 470  2930.069
 471  2925.182
 472  2961.315
 473  3017.932
 474  3103.33
 475  3143.261
 476  3265.085
 477  2894.886
 478  2881.338
 479  2866.76
 480  2889.764
 481  2629.157
 482  2696.504
 483  2780.943
 484  2611.947
 485  2757.73
 486  2700.483
 487  2743.519
 488  2806.475
 489  2709.444
 490  2875.863
 491  2640.126
 492  2593.236
 493  3299.657
 494  3691.095
 495  3271.792
 496  3180.259
 497  3336.605
 498  3448.25
 499  3248.543
 500  3437.628
 501  3403.361
 502  3483.659
 503  3430.281
 504  3468.805
 505  3697.839
 506  3851.607
 507  3883.28
 508  3651.026
 509  3445.39
 510  3037.557
 511  2937.362
