# Input file       =  1208756838.127308-PSRB0329-2ms-sampling-dd.dat
# Candidate        =  PSR_0332+5434
# Telescope        =  AR
# Epoch_topo       =  58234.241401936437
# Epoch_bary       =  N/A
# T_sample         =  0.002
# Data Folded      =  7208960
# Data Avg         =  -3.02152534451575e-09
# Data StdDev      =  102.938139560043 
# Profile Bins     =  512
# Profile Avg      =  -0.159565664734725
# Profile StdDev   =  12214.5547979141 
# Reduced chi-sqr  =  0.956
# Prob(Noise)      <  0.754   (~0.0 sigma)
# P_topo (ms)      =  714.550912393901  +/- 0.000549
# P'_topo (s/s)    =  -0                +/- 2.95e-10
# P''_topo (s/s^2) =  0                 +/- 1.33e-13
# P_bary (ms)      =  N/A
# P'_bary (s/s)    =  N/A
# P''_bary (s/s^2) =  N/A
# P_orb (s)        =  N/A
# asin(i)/c (s)    =  N/A
# eccentricity     =  N/A
# w (rad)          =  N/A
# T_peri           =  N/A
######################################################
   0  -7231.708
   1  -7744.654
   2  -7871.331
   3  -7751.935
   4  -8774.229
   5  -9675.445
   6  -9181.255
   7  -9777.509
   8  -10102.76
   9  -9552.776
  10  -6375.575
  11  -5543.266
  12  -4972.797
  13  -6830.828
  14  -8083.986
  15  -8911.645
  16  -7613.682
  17  -6182.71
  18  -6628.691
  19  -7910.254
  20  -9419.983
  21  -10167.89
  22  -10784.72
  23  -9940.366
  24  -8244.312
  25  -6846.045
  26  -6132.121
  27  -7152.557
  28  -7797.108
  29  -8594.605
  30  -8089.03
  31  -7725.354
  32  -7874.118
  33  -8242.47
  34  -9378.821
  35  -9827.897
  36  -10988.89
  37  -10842.32
  38  -10038.78
  39  -8414.482
  40  -6635.872
  41  -6212.989
  42  -5801.346
  43  -8886.638
  44  -9129.309
  45  -8882.837
  46  -8356.528
  47  -8877.34
  48  -8534.757
  49  -8909.371
  50  -9394.109
  51  -8398.002
  52  -7338.659
  53  -4581.589
  54  -2074.116
  55  404.2118
  56  2186.612
  57  472.5825
  58  -53.46785
  59  862.1712
  60  2268.316
  61  3938.292
  62  3119.696
  63  3031.746
  64  -654.0065
  65  -2819.059
  66  -2208.96
  67  -1537.865
  68  913.6564
  69  4195.163
  70  3796.213
  71  1456.257
  72  1339.997
  73  7344.298
  74  14012.46
  75  18618.43
  76  17338.57
  77  10794.83
  78  6735.8
  79  2289.737
  80  -500.7085
  81  -1175.043
  82  -460.9012
  83  2836.784
  84  7053.03
  85  9015.166
  86  12012.1
  87  16183.38
  88  14032.39
  89  12511.71
  90  11619.22
  91  19295.73
  92  18349.82
  93  16038.69
  94  12698.47
  95  1973.38
  96  -682.3199
  97  -2197.414
  98  -61.31487
  99  978.3614
 100  2789.238
 101  6250.466
 102  7026.925
 103  5104.558
 104  -635.0223
 105  3451.058
 106  3233.191
 107  6268.64
 108  5468.293
 109  2596.052
 110  110.3432
 111  -1895.847
 112  730.4597
 113  -965.1901
 114  3636.89
 115  4125.756
 116  4608.806
 117  2987.711
 118  930.4587
 119  1686.739
 120  3279.952
 121  9622.41
 122  8212.035
 123  6923.878
 124  2446.51
 125  883.1229
 126  -9.435209
 127  -1226.596
 128  2164.1
 129  2864.698
 130  5120.835
 131  4400.66
 132  4702.668
 133  1411.729
 134  1488.266
 135  5731.986
 136  7420.15
 137  5374.739
 138  7104.498
 139  9479.984
 140  8322.153
 141  14030.08
 142  13426.61
 143  10585.29
 144  3576.711
 145  4380.468
 146  8681.167
 147  11806.18
 148  16952.85
 149  17677.43
 150  9071.18
 151  2760.524
 152  -516.2438
 153  -3259.096
 154  -4050.798
 155  -1400.655
 156  926.7368
 157  -2905.363
 158  -3175.177
 159  -1769.407
 160  -659.2615
 161  1345.934
 162  2384.143
 163  3177.475
 164  1293.349
 165  -298.4048
 166  -1430.202
 167  -5439.308
 168  -4102.628
 169  -2466.787
 170  -1172.183
 171  -928.6614
 172  -2387.467
 173  -2174.775
 174  -703.8286
 175  642.8416
 176  2111.403
 177  4569.686
 178  4554.075
 179  2893.013
 180  49.93171
 181  1822.872
 182  2922.303
 183  3647.678
 184  2915.928
 185  828.3562
 186  -686.8496
 187  -1032.054
 188  1076.813
 189  589.2625
 190  -1500.269
 191  -1777.22
 192  -4008.654
 193  -5639.913
 194  -760.462
 195  -463.1932
 196  891.1208
 197  2137.851
 198  2279.247
 199  -180.1412
 200  -1693.237
 201  -3742.604
 202  -4503.334
 203  -5024.829
 204  -5919.365
 205  -6177.478
 206  -5659.795
 207  -3947.474
 208  -4103.502
 209  -3766.34
 210  -4289.185
 211  -3386.259
 212  -2084.334
 213  -875.2646
 214  -1888.697
 215  -4141.503
 216  -3976.039
 217  -5272.882
 218  -5722.595
 219  -5643.937
 220  -3486.618
 221  -1821.583
 222  -1736.147
 223  -1197.163
 224  -4899.733
 225  -4243.513
 226  -4135.559
 227  -494.9918
 228  269.2044
 229  -241.0219
 230  -530.298
 231  -2732.9
 232  -2553.859
 233  -1233.677
 234  1685.903
 235  2094.843
 236  1926.952
 237  -411.1296
 238  -1505.19
 239  -607.4362
 240  1628.55
 241  2489.974
 242  2046.38
 243  562.8267
 244  -3916.472
 245  -3951.294
 246  -4629.593
 247  -5639.185
 248  -6967.297
 249  -7634.03
 250  -6549.342
 251  -6807.967
 252  -6193.706
 253  -5993.671
 254  -6615.739
 255  -6571.463
 256  -6829.043
 257  -7927.83
 258  -9158.06
 259  -9510.052
 260  -9055.521
 261  -7894.661
 262  -7764.204
 263  -8008.816
 264  -9589.225
 265  -9767.723
 266  -8310.378
 267  -5830.445
 268  -4449.89
 269  -3819.374
 270  -5051.135
 271  -7396.237
 272  -8401.877
 273  -8284.981
 274  -3730.27
 275  -2798.283
 276  -2460.477
 277  -3422.834
 278  -6867.988
 279  -7930.606
 280  -10005.81
 281  -6742.827
 282  -3857.093
 283  -2022.29
 284  -2559.232
 285  -4188.639
 286  -7039.202
 287  -8254.284
 288  -7034.436
 289  -4776.905
 290  2589.584
 291  2738.9
 292  6304.263
 293  14245.13
 294  22930.58
 295  25589.27
 296  27863.98
 297  33672.64
 298  22259.2
 299  18146.86
 300  40468.3
 301  40228.26
 302  40005.06
 303  35883.94
 304  18740.13
 305  9526.507
 306  2477.64
 307  14941.83
 308  20247.62
 309  21733.28
 310  15505.41
 311  13053.53
 312  11876.89
 313  12028.07
 314  28518.01
 315  31965.27
 316  32032.19
 317  22190.33
 318  11990.17
 319  1761.455
 320  -7944.105
 321  -7376.629
 322  -6789.846
 323  -5946.973
 324  -4523.115
 325  -3595.699
 326  -2964.764
 327  -3439.543
 328  -4116.035
 329  -5038.845
 330  -6927.986
 331  -7506.2
 332  -8464.642
 333  -9130.146
 334  -9253.294
 335  -9316.558
 336  -8238.788
 337  -7684.533
 338  -6378.285
 339  -6490.432
 340  -7293.649
 341  -7890.919
 342  -7482.917
 343  -6537.958
 344  -8214.172
 345  -7708.267
 346  -7353.777
 347  -7171.673
 348  -7980.586
 349  -7997.142
 350  -5641.322
 351  -5554.904
 352  -4847.301
 353  -6535.296
 354  -7496.736
 355  -8301.403
 356  -6245.092
 357  -5850.729
 358  -5081.683
 359  -5392.739
 360  -6967.201
 361  -6712.461
 362  -6749.699
 363  -2536.946
 364  -1732.928
 365  -874.8027
 366  -1871.358
 367  -3002.306
 368  -3132.682
 369  -3838.493
 370  -1846.162
 371  -2161.482
 372  -3204.165
 373  -5476.341
 374  -6549.859
 375  -7298.424
 376  -7564.059
 377  -6001.617
 378  -4386.051
 379  -3214.792
 380  -3916.924
 381  -4985.792
 382  -7346.679
 383  -7299.133
 384  -6437.167
 385  -6405.475
 386  -6137.5
 387  -6697.313
 388  -6121.674
 389  -5065.976
 390  -3863.373
 391  -3113.698
 392  -1864.166
 393  -3293.917
 394  -3121.672
 395  -3977.483
 396  -683.3356
 397  -560.5309
 398  -581.0024
 399  1096.761
 400  -1069
 401  -2208.953
 402  -2397.216
 403  -1474.725
 404  -2145.843
 405  -3730.207
 406  -2169.413
 407  -3636.982
 408  -3399.243
 409  -3274.056
 410  -4814.775
 411  -5026.068
 412  -4941.906
 413  -3216.783
 414  -3738.564
 415  -4503.272
 416  -4235.843
 417  -2818.54
 418  -1590.161
 419  -113.0775
 420  1777.174
 421  2538.241
 422  634.53
 423  2163.887
 424  3219.828
 425  5059.519
 426  6495.693
 427  3867.87
 428  2783.395
 429  291.5311
 430  1475.953
 431  1509.826
 432  -10.75149
 433  -3822.677
 434  -4330.477
 435  -4471.783
 436  -2064.822
 437  -1377.932
 438  -2396.569
 439  -5184.175
 440  -4228.259
 441  -3642.729
 442  7383.463
 443  16013.46
 444  17622.65
 445  19410.34
 446  16235.85
 447  812.9536
 448  1714.422
 449  12257.82
 450  34325.36
 451  36635.14
 452  31819.16
 453  24372.35
 454  -2314.379
 455  -1279.159
 456  1358.038
 457  4121.674
 458  4388.753
 459  1995.894
 460  2497.267
 461  -1117.995
 462  -2807.023
 463  -667.1019
 464  6898.773
 465  9272.548
 466  10889.06
 467  5862.496
 468  -80.98798
 469  -2169.184
 470  1170.905
 471  4925.141
 472  7231.976
 473  8478.699
 474  8483.452
 475  4664.033
 476  1296.301
 477  614.8856
 478  6522.342
 479  10355.46
 480  10987.68
 481  8727.014
 482  4481.76
 483  453.0393
 484  -108.6627
 485  630.4653
 486  542.928
 487  -916.7641
 488  -2128.281
 489  -2356.24
 490  -1827.02
 491  -3097.398
 492  -3870.199
 493  -3291.191
 494  -3238.929
 495  -3455.002
 496  -5269.664
 497  -4976.665
 498  -5293.751
 499  -4093.818
 500  -2529.693
 501  -2641.32
 502  -4586.843
 503  -7100.276
 504  -8520.923
 505  -9068.361
 506  -7849.629
 507  -5155.976
 508  -2301.203
 509  -2063.583
 510  -4779.029
 511  -5999.353
