# Input file       =  1208096954.114999_cleaned.dat
# Candidate        =  PSR_0332+5434
# Telescope        =  AR
# Epoch_topo       =  58226.603855497677
# Epoch_bary       =  N/A
# T_sample         =  0.002
# Data Folded      =  7340032
# Data Avg         =  0.205173934440869
# Data StdDev      =  5.48250911301007 
# Profile Bins     =  512
# Profile Avg      =  2941.39711243505 
# Profile StdDev   =  656.437463063987 
# Reduced chi-sqr  =  0.791
# Prob(Noise)      <  1   (~0.0 sigma)
# P_topo (ms)      =  714.557675036197  +/- 0.000421
# P'_topo (s/s)    =  -0                +/- 2.22e-10
# P''_topo (s/s^2) =  0                 +/- 9.81e-14
# P_bary (ms)      =  N/A
# P'_bary (s/s)    =  N/A
# P''_bary (s/s^2) =  N/A
# P_orb (s)        =  N/A
# asin(i)/c (s)    =  N/A
# eccentricity     =  N/A
# w (rad)          =  N/A
# T_peri           =  N/A
######################################################
   0  3232.507
   1  3724.116
   2  4002.007
   3  3709.537
   4  3314.877
   5  3722.191
   6  3938.804
   7  3685.066
   8  3761.719
   9  3308.203
  10  3325.141
  11  3488.234
  12  3451.855
  13  3260.938
  14  3266.797
  15  3179.59
  16  3200.822
  17  2904.077
  18  2656.321
  19  2751.854
  20  2866.721
  21  2365.266
  22  2772.458
  23  2659.041
  24  2698.669
  25  2845.685
  26  3007.062
  27  2990.138
  28  3142.849
  29  2852.087
  30  2539.943
  31  2706.289
  32  2894.386
  33  2977.07
  34  3008.888
  35  2766.554
  36  2908.005
  37  2900.13
  38  2906.499
  39  2668.503
  40  2555.541
  41  2778.483
  42  2299.126
  43  2423.74
  44  2411.201
  45  2490.783
  46  2786.674
  47  2633.722
  48  2828.525
  49  3030.723
  50  2730.007
  51  2606.214
  52  2554.477
  53  2453.079
  54  2432.939
  55  2441.399
  56  2956.528
  57  2978.898
  58  2775.624
  59  2955.63
  60  2698.055
  61  2851.773
  62  2855.098
  63  2827.433
  64  2855.097
  65  3235.795
  66  3157.774
  67  3196.468
  68  3247.307
  69  3162.121
  70  2690.666
  71  3059.981
  72  3101.071
  73  3220.169
  74  3265.954
  75  3086.492
  76  2974.905
  77  3261.512
  78  3252.828
  79  3189.344
  80  3247.892
  81  3420.821
  82  3461.548
  83  3475.257
  84  2990.548
  85  3096.69
  86  3254.379
  87  3107.156
  88  3504.993
  89  3128.192
  90  3517.22
  91  3694.247
  92  3279.319
  93  3215.664
  94  2867.618
  95  2715.682
  96  2553.919
  97  2603.79
  98  2752.805
  99  2528.011
 100  2565.021
 101  2463.046
 102  2472.895
 103  2707.968
 104  2367.477
 105  2606.054
 106  2533.902
 107  2458.915
 108  2689.421
 109  2900.682
 110  2560.578
 111  2718.067
 112  2682.642
 113  2679.616
 114  2611.971
 115  2775.014
 116  2517.798
 117  2786.187
 118  3067.243
 119  2837.168
 120  2665.983
 121  2690.769
 122  2455.629
 123  2610.665
 124  2926.733
 125  2822.763
 126  3015.531
 127  3070.585
 128  2986.744
 129  3032.498
 130  3315.321
 131  2844.602
 132  3123.992
 133  3261.632
 134  3185.104
 135  3097.729
 136  3095.985
 137  2819.487
 138  2873.44
 139  3215.847
 140  3218.122
 141  3644.179
 142  3520.911
 143  3683.967
 144  3401.558
 145  3348.882
 146  3169.684
 147  2946.796
 148  2940.975
 149  3259.116
 150  3397.609
 151  3342.284
 152  3390.371
 153  3139.806
 154  2944.617
 155  3127.254
 156  2953.871
 157  3283.025
 158  3191.76
 159  2801.518
 160  3000.901
 161  3031.421
 162  2692.552
 163  2655.166
 164  2801.917
 165  2860.013
 166  2635.881
 167  2718.847
 168  2893.075
 169  2645.028
 170  2443.217
 171  2139.495
 172  2283.141
 173  2129.294
 174  2240.098
 175  2621.215
 176  2573.815
 177  2563.059
 178  2567.822
 179  2514.316
 180  2274.593
 181  2420.09
 182  2457.407
 183  2398.712
 184  2417.939
 185  2639.377
 186  2843.143
 187  2481.693
 188  2149.123
 189  2333.598
 190  2302.599
 191  2527.224
 192  2495.265
 193  2960.681
 194  2936.959
 195  2592.944
 196  2836.596
 197  2884.51
 198  2921.814
 199  2825.253
 200  3170.442
 201  3148.816
 202  3184.448
 203  3338.453
 204  3128.89
 205  2515.069
 206  2490.599
 207  2989.412
 208  3141.861
 209  3133.724
 210  2942.974
 211  3015.448
 212  2986.217
 213  2896.724
 214  2805.126
 215  2893.94
 216  2780.741
 217  3237.569
 218  3539.318
 219  3433.633
 220  3114.589
 221  3280.448
 222  3347.253
 223  3157.494
 224  3097.423
 225  3058.714
 226  2952.705
 227  3055.856
 228  3197.189
 229  3234.457
 230  3138.146
 231  3173.495
 232  3505.347
 233  3396.364
 234  3154.036
 235  3674.937
 236  3797.384
 237  3372.851
 238  2989.26
 239  2829.638
 240  3257.404
 241  3959.521
 242  3632.172
 243  3191.446
 244  2989.221
 245  2849.489
 246  2833.241
 247  3027.235
 248  3431.932
 249  2896.697
 250  3015.946
 251  3322.859
 252  3059.297
 253  2983.365
 254  2549.595
 255  2534.609
 256  2749.42
 257  2244.42
 258  2057.416
 259  2161.332
 260  2565.768
 261  2639.242
 262  2376.45
 263  2297.91
 264  2269.01
 265  2203.045
 266  2288.472
 267  1879.271
 268  2012.282
 269  2333.105
 270  2220.747
 271  2037.674
 272  1865.48
 273  1650.649
 274  1981.375
 275  2234.533
 276  2447.494
 277  2188.22
 278  2268.752
 279  2206.594
 280  2629.525
 281  2637.581
 282  2524.052
 283  2669.242
 284  2241.475
 285  2821.76
 286  3139.604
 287  3490.098
 288  3597.856
 289  3240.464
 290  3181.631
 291  3125.166
 292  3552.388
 293  4151.426
 294  3687.761
 295  3704.48
 296  4259.582
 297  3798.261
 298  3281.315
 299  3452.565
 300  3077.232
 301  3093.045
 302  3361.892
 303  3611.517
 304  3320.051
 305  3314.329
 306  3297.391
 307  3050.182
 308  3093.349
 309  2809.492
 310  2799.587
 311  2617.204
 312  2636.881
 313  2676.612
 314  2844.272
 315  3251.93
 316  2599.751
 317  2761.957
 318  2825.738
 319  2795.354
 320  2972.838
 321  2815.296
 322  2858.04
 323  2745.365
 324  2337.645
 325  2376.165
 326  2430.241
 327  2659.174
 328  2205.778
 329  2320.028
 330  2843.519
 331  2918.785
 332  2879.467
 333  3287.611
 334  3379.359
 335  3079.095
 336  2865.014
 337  2619.784
 338  2694.977
 339  2996.378
 340  3159.307
 341  2999.173
 342  2926.363
 343  2964.379
 344  2698.217
 345  2798.927
 346  2607.896
 347  2764.755
 348  2801.079
 349  2714.001
 350  2850.39
 351  2615.801
 352  2529.704
 353  2361.752
 354  2508.476
 355  2438.086
 356  2706.257
 357  3168.871
 358  3301.287
 359  3180.411
 360  2892.761
 361  2889.075
 362  3550.903
 363  3441.833
 364  3229.968
 365  3235.682
 366  3284.438
 367  3332.659
 368  3381.503
 369  3121.338
 370  3263.989
 371  3288.161
 372  3288.424
 373  3458.358
 374  3549.76
 375  3540.38
 376  3817.087
 377  3513.753
 378  3308.404
 379  3028.511
 380  2981.708
 381  2696.237
 382  3280.805
 383  3296.306
 384  3352.091
 385  3037.589
 386  3011.338
 387  2710.875
 388  2502.212
 389  2652.593
 390  2644.143
 391  2834.361
 392  2806.668
 393  2571.294
 394  2824.495
 395  3117.259
 396  3270.177
 397  3221.003
 398  3441.998
 399  3057.862
 400  3202.838
 401  2914.743
 402  2745.142
 403  3116.433
 404  3051.379
 405  3127.296
 406  3206.302
 407  2899.129
 408  2888.778
 409  3074.387
 410  3066.31
 411  2810.242
 412  2973.729
 413  3199.214
 414  2902.76
 415  2782.769
 416  2918.176
 417  3089.606
 418  3581.595
 419  3198.403
 420  3060.934
 421  2976.445
 422  2908.752
 423  3086.773
 424  3283.461
 425  3023.026
 426  3315.386
 427  3380.776
 428  3344.782
 429  3077.726
 430  3307.043
 431  3260.477
 432  3065.503
 433  2943.458
 434  3144.123
 435  2936.926
 436  2851.848
 437  3031.357
 438  2873.122
 439  3233.249
 440  3697.922
 441  3212.93
 442  3118.449
 443  3326.192
 444  3162.222
 445  3204.013
 446  3262.947
 447  3533.25
 448  3473.849
 449  3079.416
 450  3161.23
 451  2961.315
 452  2584.562
 453  2584.461
 454  2335.985
 455  2399.671
 456  2666.706
 457  2675.331
 458  2857.165
 459  2541.753
 460  2362.383
 461  2430.457
 462  2675.959
 463  2346.872
 464  2448.854
 465  2530.072
 466  2590.319
 467  2161.085
 468  1939.138
 469  1939.604
 470  1790.408
 471  2347.557
 472  2207.459
 473  2598.643
 474  2452.35
 475  2116.94
 476  2314.914
 477  2725.126
 478  3101.387
 479  2594.078
 480  2443.781
 481  2466.648
 482  2571.902
 483  3104.861
 484  3773.49
 485  4293.09
 486  4532.135
 487  4462.502
 488  4310.288
 489  3622.684
 490  3017.825
 491  3171.661
 492  3158.762
 493  2817.402
 494  2684.936
 495  2689.375
 496  2911.84
 497  2917.919
 498  3241.331
 499  3212.077
 500  3517.456
 501  3278.345
 502  3028.241
 503  2948.299
 504  2935.677
 505  2958.506
 506  3115.714
 507  3341.672
 508  3460.994
 509  3435.833
 510  3272.853
 511  3165.868
