# Input file       =  1208239734.114344_cleaned.dat
# Candidate        =  PSR_0332+5434
# Telescope        =  AR
# Epoch_topo       =  58228.256401786384
# Epoch_bary       =  N/A
# T_sample         =  0.002
# Data Folded      =  7208960
# Data Avg         =  0.0269484880515906
# Data StdDev      =  1.00136919207826 
# Profile Bins     =  512
# Profile Avg      =  379.415160211154 
# Profile StdDev   =  118.82164299704  
# Reduced chi-sqr  =  1.778
# Prob(Noise)      <  1.07e-24   (~10.2 sigma)
# P_topo (ms)      =  714.555971495361  +/- 0.000173
# P'_topo (s/s)    =  -0                +/- 9.32e-11
# P''_topo (s/s^2) =  0                 +/- 4.19e-14
# P_bary (ms)      =  N/A
# P'_bary (s/s)    =  N/A
# P''_bary (s/s^2) =  N/A
# P_orb (s)        =  N/A
# asin(i)/c (s)    =  N/A
# eccentricity     =  N/A
# w (rad)          =  N/A
# T_peri           =  N/A
######################################################
   0  365.7128
   1  343.5247
   2  247.376
   3  370.8656
   4  372.0731
   5  285.4281
   6  336.3064
   7  273.2419
   8  300.6653
   9  359.9739
  10  152.665
  11  153.0405
  12  275.4529
  13  372.4612
  14  411.4469
  15  325.9186
  16  365.7866
  17  424.0429
  18  477.6955
  19  385.3124
  20  201.1779
  21  270.0719
  22  390.4906
  23  409.971
  24  443.2526
  25  353.0493
  26  304.7028
  27  368.9069
  28  446.6398
  29  370.5412
  30  285.7158
  31  400.5148
  32  453.2024
  33  252.6484
  34  314.5632
  35  288.5561
  36  317.7553
  37  316.7684
  38  371.7567
  39  473.0114
  40  494.4539
  41  338.3253
  42  299.0558
  43  368.0361
  44  372.3576
  45  362.5167
  46  373.6303
  47  409.8141
  48  447.093
  49  491.1476
  50  557.2971
  51  522.2542
  52  456.812
  53  331.5847
  54  259.7421
  55  317.3311
  56  336.7873
  57  366.5929
  58  320.6828
  59  385.8149
  60  455.1994
  61  396.2445
  62  332.5449
  63  406.9155
  64  382.6758
  65  386.1339
  66  478.6357
  67  301.8518
  68  297.9264
  69  317.7324
  70  335.6671
  71  402.094
  72  261.5637
  73  311.9475
  74  246.4439
  75  304.5897
  76  352.4906
  77  297.4844
  78  398.1871
  79  489.7831
  80  384.5474
  81  211.8709
  82  220.6023
  83  351.9248
  84  405.7764
  85  348.2134
  86  278.3372
  87  252.7998
  88  237.3859
  89  376.6404
  90  379.5865
  91  306.6051
  92  379.1248
  93  362.1501
  94  221.1023
  95  346.6347
  96  445.692
  97  344.2995
  98  367.8061
  99  239.8478
 100  238.5067
 101  361.2499
 102  301.1716
 103  292.3528
 104  352.6806
 105  431.8159
 106  381.3202
 107  315.3782
 108  305.6068
 109  314.3571
 110  431.1743
 111  459.3178
 112  551.9816
 113  492.0971
 114  522.7388
 115  486.2078
 116  360.684
 117  334.0697
 118  342.4015
 119  450.5214
 120  473.2834
 121  382.1167
 122  292.2832
 123  262.8497
 124  302.9519
 125  303.654
 126  348.2723
 127  363.8745
 128  402.3899
 129  456.9301
 130  519.3654
 131  331.4293
 132  367.1083
 133  410.623
 134  460.0823
 135  325.3353
 136  291.1857
 137  393.7939
 138  377.2762
 139  335.4847
 140  295.2341
 141  279.2664
 142  430.1369
 143  422.9752
 144  377.2815
 145  454.6437
 146  323.8997
 147  269.5394
 148  418.9716
 149  400.0612
 150  396.7643
 151  346.2548
 152  298.5606
 153  344.6838
 154  289.0602
 155  352.0202
 156  402.3474
 157  352.036
 158  256.7727
 159  260.4402
 160  388.4382
 161  374.6999
 162  308.6459
 163  283.6756
 164  372.7137
 165  311.801
 166  328.7031
 167  296.0012
 168  313.639
 169  334.3941
 170  200.1162
 171  266.2374
 172  145.6795
 173  90.1721
 174  301.9565
 175  262.5269
 176  241.7181
 177  337.8773
 178  323.7866
 179  406.5281
 180  432.0441
 181  347.7125
 182  305.8084
 183  355.7406
 184  430.8113
 185  246.6367
 186  360.7591
 187  459.935
 188  462.9167
 189  495.9718
 190  396.7235
 191  407.0834
 192  496.1107
 193  591.6621
 194  370.1646
 195  322.2889
 196  434.289
 197  515.7982
 198  549.8358
 199  451.9084
 200  481.6886
 201  469.3188
 202  355.902
 203  435.5398
 204  443.3623
 205  264.6358
 206  306.1523
 207  311.8242
 208  256.3995
 209  310.3734
 210  382.309
 211  426.4203
 212  451.8082
 213  353.4987
 214  285.1171
 215  348.0565
 216  378.059
 217  380.0949
 218  270.7794
 219  425.029
 220  416.6951
 221  341.4347
 222  291.9559
 223  300.211
 224  307.3133
 225  295.3201
 226  388.0281
 227  333.4952
 228  405.1821
 229  463.689
 230  450.8332
 231  469.2787
 232  512.7618
 233  499.5027
 234  444.1459
 235  351.525
 236  314.7447
 237  368.4489
 238  319.7352
 239  330.1459
 240  438.06
 241  383.6926
 242  489.1461
 243  256.5004
 244  393.8791
 245  449.2411
 246  361.981
 247  385.9747
 248  426.1823
 249  498.8416
 250  422.3106
 251  465.1027
 252  523.0309
 253  523.6728
 254  413.4031
 255  293.3251
 256  316.6158
 257  309.9865
 258  124.3908
 259  147.7198
 260  289.7031
 261  417.4416
 262  599.8433
 263  600.6544
 264  348.0172
 265  326.8398
 266  296.8425
 267  361.239
 268  360.419
 269  427.1629
 270  356.2187
 271  263.5959
 272  271.159
 273  255.6001
 274  271.4322
 275  342.0288
 276  310.6638
 277  265.7838
 278  374.4814
 279  259.4499
 280  344.7261
 281  327.3231
 282  290.7652
 283  269.4031
 284  253.8313
 285  325.5682
 286  268.5514
 287  305.2728
 288  323.9001
 289  175.5797
 290  258.3271
 291  288.0318
 292  229.8045
 293  353.4236
 294  326.658
 295  307.8545
 296  333.9656
 297  444.2981
 298  428.7458
 299  244.3575
 300  258.4919
 301  291.2279
 302  393.6919
 303  449.8093
 304  308.0342
 305  316.9132
 306  351.1763
 307  246.2461
 308  296.5209
 309  366.6598
 310  450.2966
 311  429.9831
 312  430.0144
 313  511.0049
 314  434.0407
 315  341.1637
 316  267.0214
 317  417.4292
 318  444.173
 319  405.5328
 320  297.8291
 321  200.6129
 322  213.5115
 323  171.8465
 324  180.6072
 325  373.7565
 326  326.2235
 327  420.0563
 328  450.5477
 329  360.1212
 330  317.8219
 331  333.0046
 332  377.0392
 333  379.6429
 334  359.2735
 335  479.8498
 336  534.4077
 337  407.9864
 338  347.9125
 339  247.3714
 340  272.5045
 341  420.3179
 342  398.5295
 343  337.9958
 344  381.3358
 345  466.5943
 346  396.4948
 347  362.5312
 348  350.1909
 349  334.16
 350  353.2379
 351  390.3632
 352  365.2136
 353  341.9362
 354  336.3986
 355  357.0867
 356  315.4905
 357  356.9376
 358  379.9127
 359  465.5511
 360  329.7532
 361  337.8595
 362  330.7868
 363  438.5475
 364  464.9206
 365  354.2814
 366  366.1884
 367  258.0175
 368  263.9633
 369  313.7985
 370  360.1559
 371  313.4
 372  215.4844
 373  297.3957
 374  326.7166
 375  433.8105
 376  426.0367
 377  364.8188
 378  354.0393
 379  337.078
 380  415.418
 381  423.6529
 382  369.2461
 383  227.316
 384  501.9887
 385  516.6582
 386  359.4338
 387  259.7032
 388  287.1764
 389  311.1775
 390  302.5831
 391  372.9909
 392  385.6397
 393  325.7494
 394  391.7184
 395  425.6511
 396  321.352
 397  402.0552
 398  268.9177
 399  496.2358
 400  524.6071
 401  346.0277
 402  366.3496
 403  328.9976
 404  269.1887
 405  374.959
 406  222.1181
 407  372.7825
 408  323.806
 409  308.0021
 410  408.3571
 411  394.1322
 412  306.9493
 413  343.9197
 414  352.8862
 415  432.4065
 416  452.5158
 417  565.4611
 418  571.5911
 419  464.181
 420  329.1268
 421  357.484
 422  385.0594
 423  424.5176
 424  347.0082
 425  509.8815
 426  756.678
 427  613.2212
 428  611.259
 429  634.3942
 430  745.6011
 431  858.2186
 432  938.6381
 433  1064.948
 434  1166.382
 435  1157.116
 436  821.0594
 437  526.7271
 438  386.8553
 439  370.2789
 440  544.0174
 441  505.1504
 442  587.6728
 443  596.4872
 444  624.3795
 445  567.8914
 446  530.4117
 447  553.793
 448  500.0259
 449  568.8044
 450  535.3262
 451  413.801
 452  432.5698
 453  453.2066
 454  467.6828
 455  479.6153
 456  464.0088
 457  442.1515
 458  375.2353
 459  389.6018
 460  503.0486
 461  485.8757
 462  471.4795
 463  449.8929
 464  377.6379
 465  441.1303
 466  572.6085
 467  480.4208
 468  364.0644
 469  390.9537
 470  512.6865
 471  507.4979
 472  430.6186
 473  444.3561
 474  410.7932
 475  372.6168
 476  385.5852
 477  420.9932
 478  443.2613
 479  422.011
 480  437.1523
 481  597.1662
 482  488.3198
 483  401.8515
 484  437.1166
 485  365.1761
 486  326.5432
 487  318.876
 488  364.2542
 489  422.5894
 490  433.4976
 491  481.6755
 492  412.2426
 493  309.3077
 494  468.5867
 495  410.2966
 496  334.3399
 497  276.1368
 498  235.5531
 499  316.6068
 500  376.278
 501  207.6401
 502  297.0444
 503  288.88
 504  272.7281
 505  185.0648
 506  180.2876
 507  298.0121
 508  433.5656
 509  493.4324
 510  428.0417
 511  341.9927
