# Input file       =  1208498346.111598_cleaned.dat
# Candidate        =  PSR_0332+5434
# Telescope        =  AR
# Epoch_topo       =  58231.249596199050
# Epoch_bary       =  N/A
# T_sample         =  0.002
# Data Folded      =  7208960
# Data Avg         =  0.0299575849172529
# Data StdDev      =  1.00020954804028 
# Profile Bins     =  512
# Profile Avg      =  421.820181423503 
# Profile StdDev   =  118.684040591279 
# Reduced chi-sqr  =  1.754
# Prob(Noise)      <  1.5e-23   (~9.9 sigma)
# P_topo (ms)      =  714.553473323531  +/- 0.000143
# P'_topo (s/s)    =  -0                +/- 7.66e-11
# P''_topo (s/s^2) =  0                 +/- 3.44e-14
# P_bary (ms)      =  N/A
# P'_bary (s/s)    =  N/A
# P''_bary (s/s^2) =  N/A
# P_orb (s)        =  N/A
# asin(i)/c (s)    =  N/A
# eccentricity     =  N/A
# w (rad)          =  N/A
# T_peri           =  N/A
######################################################
   0  1294.675
   1  1032.339
   2  755.9836
   3  544.7477
   4  509.4026
   5  489.9934
   6  503.5174
   7  458.8982
   8  339.3515
   9  279.1278
  10  305.7207
  11  556.8239
  12  498.7355
  13  381.1201
  14  483.9063
  15  541.5406
  16  480.8521
  17  402.2424
  18  430.1961
  19  461.5913
  20  478.6172
  21  445.3435
  22  482.5349
  23  416.6697
  24  209.6821
  25  215.434
  26  435.4068
  27  635.8328
  28  493.3759
  29  381.2664
  30  445.7499
  31  437.8088
  32  425.8319
  33  493.3048
  34  538.3309
  35  545.9395
  36  408.7037
  37  282.672
  38  295.4971
  39  354.8013
  40  305.6125
  41  380.3279
  42  505.7667
  43  541.3741
  44  446.6192
  45  473.53
  46  342.868
  47  327.5821
  48  285.7562
  49  465.2257
  50  441.1193
  51  351.7472
  52  476.6277
  53  368.4316
  54  420.907
  55  257.6849
  56  337.6314
  57  439.1244
  58  383.6552
  59  317.1885
  60  302.3838
  61  431.6768
  62  449.3145
  63  467.2266
  64  372.9236
  65  406.8381
  66  394.481
  67  291.2278
  68  299.9373
  69  384.5092
  70  326.5439
  71  231.304
  72  305.5853
  73  302.3229
  74  355.9984
  75  390.9965
  76  386.0213
  77  286.4079
  78  215.14
  79  365.4869
  80  421.5416
  81  447.8419
  82  295.486
  83  371.4502
  84  325.9774
  85  297.0706
  86  245.2688
  87  375.472
  88  332.9555
  89  339.8289
  90  362.2275
  91  489.739
  92  491.1788
  93  356.9818
  94  361.7747
  95  502.7224
  96  467.7953
  97  506.7008
  98  407.6059
  99  354.315
 100  433.7105
 101  507.6489
 102  462.788
 103  339.274
 104  383.2281
 105  400.1716
 106  406.9159
 107  344.554
 108  430.5765
 109  408.7193
 110  430.2475
 111  328.1859
 112  396.7352
 113  465.9324
 114  628.3779
 115  571.3437
 116  424.7188
 117  449.239
 118  394.3518
 119  419.834
 120  535.9088
 121  447.3245
 122  405.1931
 123  397.0209
 124  357.5644
 125  411.0457
 126  582.2238
 127  623.7414
 128  468.2728
 129  468.7466
 130  414.2502
 131  414.7418
 132  267.3066
 133  338.9249
 134  346.1665
 135  328.7497
 136  274.2462
 137  311.3965
 138  417.3561
 139  478.8822
 140  396.0123
 141  341.1784
 142  398.1343
 143  412.2133
 144  465.0491
 145  387.0721
 146  410.1895
 147  384.1295
 148  315.0924
 149  404.5967
 150  470.7225
 151  420.8705
 152  298.9724
 153  367.8745
 154  320.8793
 155  357.4235
 156  383.4841
 157  349.6853
 158  353.7779
 159  329.0961
 160  331.3875
 161  312.7119
 162  294.9827
 163  414.1465
 164  417.8074
 165  337.598
 166  351.7867
 167  428.402
 168  378.0949
 169  360.4554
 170  276.0484
 171  253.0183
 172  350.1129
 173  451.6523
 174  344.4062
 175  369.6534
 176  310.2242
 177  285.5366
 178  380.3749
 179  434.135
 180  493.5522
 181  472.3164
 182  521.6064
 183  535.5162
 184  529.2298
 185  494.3635
 186  411.2594
 187  485.2543
 188  528.2976
 189  530.6526
 190  436.5837
 191  478.2495
 192  487.3335
 193  596.5382
 194  502.8951
 195  498.4333
 196  553.4909
 197  523.0043
 198  558.7405
 199  477.0594
 200  487.884
 201  407.1145
 202  353.7307
 203  390.7783
 204  279.7256
 205  354.9756
 206  207.8932
 207  303.4445
 208  379.0746
 209  411.7648
 210  401.4842
 211  362.6978
 212  355.8035
 213  429.7555
 214  526.416
 215  428.4289
 216  369.3445
 217  476.679
 218  439.6685
 219  382.7215
 220  365.4836
 221  328.0421
 222  337.0912
 223  420.7385
 224  471.8741
 225  485.1467
 226  557.1707
 227  482.5132
 228  438.2657
 229  420.0207
 230  359.0269
 231  286.7608
 232  268.2994
 233  296.9702
 234  445.3823
 235  483.7639
 236  440.0945
 237  406.8985
 238  167.4097
 239  144.2655
 240  299.2069
 241  308.7284
 242  339.7449
 243  457.7198
 244  479.6841
 245  409.9965
 246  359.6607
 247  403.1357
 248  481.3573
 249  507.7902
 250  442.3284
 251  449.491
 252  423.3928
 253  254.4895
 254  248.3813
 255  306.0466
 256  269.2869
 257  237.7963
 258  284.6169
 259  352.5239
 260  400.7609
 261  525.7011
 262  589.2455
 263  484.2328
 264  334.5008
 265  331.9513
 266  411.9081
 267  323.2647
 268  242.9732
 269  384.1382
 270  393.6298
 271  430.9991
 272  372.9665
 273  344.1318
 274  437.532
 275  377.9673
 276  332.0436
 277  247.7417
 278  290.7578
 279  542.8757
 280  425.0423
 281  294.1425
 282  393.9466
 283  394.0039
 284  224.5292
 285  260.1611
 286  362.2788
 287  323.7458
 288  448.1725
 289  440.3677
 290  424.0292
 291  408.5824
 292  297.3844
 293  372.8937
 294  410.3381
 295  504.6205
 296  437.1777
 297  437.3628
 298  452.692
 299  567.7216
 300  506.05
 301  446.6225
 302  377.4702
 303  473.2679
 304  498.0502
 305  388.733
 306  299.6419
 307  338.514
 308  387.4639
 309  374.6837
 310  309.6903
 311  431.4431
 312  451.1984
 313  314.022
 314  343.8935
 315  502.6496
 316  426.9358
 317  379.6534
 318  330.4156
 319  488.4369
 320  457.7081
 321  393.8786
 322  434.0668
 323  382.2968
 324  353.1187
 325  268.5898
 326  391.682
 327  501.968
 328  615.6992
 329  491.377
 330  387.5515
 331  411.3384
 332  471.9093
 333  479.1489
 334  344.1344
 335  195.8451
 336  355.8719
 337  418.5034
 338  391.1341
 339  406.0775
 340  496.0574
 341  500.0534
 342  392.1693
 343  465.0532
 344  411.3681
 345  502.1569
 346  474.1688
 347  410.3176
 348  430.1378
 349  477.201
 350  430.7795
 351  468.4693
 352  488.5092
 353  470.5616
 354  313.1344
 355  212.422
 356  272.3701
 357  330.2223
 358  375.8216
 359  414.0445
 360  395.0392
 361  434.796
 362  436.3152
 363  436.0455
 364  538.6711
 365  488.9697
 366  502.7937
 367  472.4407
 368  354.1737
 369  458.1714
 370  394.7126
 371  393.3143
 372  484.3079
 373  445.3489
 374  488.1275
 375  592.7438
 376  511.8245
 377  452.3355
 378  452.2284
 379  619.3611
 380  611.4589
 381  524.8571
 382  372.3838
 383  525.4481
 384  473.3876
 385  350.3275
 386  229.1615
 387  316.9802
 388  342.2485
 389  456.3921
 390  552.6356
 391  505.7148
 392  422.2342
 393  408.7679
 394  430.6795
 395  315.4948
 396  471.3564
 397  476.9977
 398  471.4772
 399  453.8424
 400  431.8241
 401  469.2698
 402  558.6324
 403  557.7208
 404  493.5078
 405  294.9181
 406  357.4894
 407  409.5139
 408  470.6323
 409  537.4062
 410  587.8303
 411  559.1744
 412  496.9789
 413  579.623
 414  424.6785
 415  467.4705
 416  349.0264
 417  282.2139
 418  261.9523
 419  392.9096
 420  442.2853
 421  437.8214
 422  292.6949
 423  422.1247
 424  576.3943
 425  577.4191
 426  524.0165
 427  415.3484
 428  431.0662
 429  426.343
 430  410.5392
 431  381.6285
 432  284.8595
 433  249.2754
 434  358.4838
 435  198.9588
 436  239.1231
 437  457.7751
 438  459.1758
 439  353.6596
 440  360.542
 441  459.4474
 442  426.395
 443  357.5326
 444  442.8551
 445  545.1515
 446  569.6093
 447  387.3887
 448  419.371
 449  469.6149
 450  455.4038
 451  531.9598
 452  590.0514
 453  618.6664
 454  346.7177
 455  353.3925
 456  439.1032
 457  497.321
 458  451.8737
 459  433.8382
 460  477.2368
 461  540.8998
 462  503.9312
 463  404.2092
 464  460.6767
 465  596.6082
 466  383.8133
 467  339.8383
 468  415.2169
 469  402.489
 470  370.2963
 471  341.7391
 472  428.4824
 473  373.3659
 474  420.0865
 475  569.3954
 476  559.9736
 477  526.5898
 478  530.2734
 479  432.646
 480  447.5075
 481  435.8539
 482  400.7887
 483  475.3897
 484  473.0265
 485  515.4336
 486  400.8245
 487  204.6163
 488  270.7838
 489  469.733
 490  502.5609
 491  417.8004
 492  433.6094
 493  556.2774
 494  480.4917
 495  426.3086
 496  378.0565
 497  398.7827
 498  388.5879
 499  438.3311
 500  498.0392
 501  384.5963
 502  445.8494
 503  586.5908
 504  567.1331
 505  547.7201
 506  540.2834
 507  420.7802
 508  614.8095
 509  905.5735
 510  1130.255
 511  1250.366
