# Input file       =  1208958230.109069-PSRB0329-2ms-sampling-dd.dat
# Candidate        =  PSR_0332+5434
# Telescope        =  AR
# Epoch_topo       =  58236.572327651265
# Epoch_bary       =  N/A
# T_sample         =  0.002
# Data Folded      =  7340032
# Data Avg         =  -3.61237893266089e-10
# Data StdDev      =  7.36880289858358 
# Profile Bins     =  512
# Profile Avg      =  0.176676278358412
# Profile StdDev   =  882.289145509328 
# Reduced chi-sqr  =  0.569
# Prob(Noise)      <  1   (~0.0 sigma)
# P_topo (ms)      =  714.549225688157  +/- 0.000206
# P'_topo (s/s)    =  -0                +/- 1.08e-10
# P''_topo (s/s^2) =  0                 +/- 4.79e-14
# P_bary (ms)      =  N/A
# P'_bary (s/s)    =  N/A
# P''_bary (s/s^2) =  N/A
# P_orb (s)        =  N/A
# asin(i)/c (s)    =  N/A
# eccentricity     =  N/A
# w (rad)          =  N/A
# T_peri           =  N/A
######################################################
   0  -335.1802
   1  -21.36992
   2  79.83768
   3  3.858321
   4  -448.3269
   5  -158.8027
   6  18.59776
   7  413.3767
   8  242.6528
   9  426.7124
  10  329.7823
  11  446.4707
  12  219.0102
  13  55.82146
  14  -252.5474
  15  -877.6211
  16  78.42263
  17  499.5771
  18  199.9662
  19  259.3915
  20  154.3235
  21  128.6201
  22  0.09599778
  23  38.57266
  24  -179.3229
  25  -211.3688
  26  -280.395
  27  -383.6987
  28  257.6528
  29  60.96678
  30  -440.4888
  31  -664.5765
  32  -368.4319
  33  -51.22868
  34  -162.027
  35  -390.0309
  36  -226.7099
  37  115.2545
  38  76.41632
  39  56.92863
  40  -50.53811
  41  -76.59436
  42  -557.0819
  43  -423.4867
  44  189.2952
  45  109.8333
  46  116.4977
  47  -462.7642
  48  -681.1199
  49  -284.6079
  50  -195.2201
  51  181.492
  52  34.71703
  53  -248.3797
  54  -333.5053
  55  -216.3226
  56  -608.1266
  57  -936.0297
  58  -807.3541
  59  -979.8891
  60  -680.0977
  61  -516.6696
  62  -595.3018
  63  -841.1984
  64  -970.8892
  65  -855.4904
  66  -884.6769
  67  -721.4788
  68  -604.4888
  69  -500.5836
  70  -331.6984
  71  -178.9782
  72  -760.85
  73  -654.2777
  74  -496.1045
  75  -200.2638
  76  -33.48469
  77  -72.61009
  78  342.5309
  79  -34.52882
  80  -746.2922
  81  -473.9346
  82  10.21358
  83  90.65317
  84  94.17574
  85  574.3631
  86  126.0766
  87  -279.1145
  88  333.722
  89  137.1357
  90  53.42102
  91  303.0432
  92  628.7613
  93  410.0775
  94  -235.7516
  95  67.63944
  96  134.7986
  97  94.34673
  98  202.2572
  99  -324.0099
 100  -570.6911
 101  -406.6598
 102  -22.17888
 103  35.88476
 104  -453.0364
 105  -127.6755
 106  -66.15051
 107  -825.3676
 108  -572.1893
 109  -410.3381
 110  -341.1715
 111  171.0605
 112  304.2705
 113  270.4778
 114  -140.3075
 115  -35.60242
 116  105.1097
 117  5.451895
 118  -184.2084
 119  -185.5145
 120  -126.7004
 121  -678.8151
 122  -1121.968
 123  -1021.353
 124  -835.209
 125  -622.6614
 126  -629.4565
 127  -564.8696
 128  -866.8033
 129  -651.1388
 130  -357.3604
 131  -592.4391
 132  -565.0902
 133  -549.1352
 134  -795.9393
 135  -959.4957
 136  -872.2056
 137  -289.6045
 138  -341.3828
 139  -429.7875
 140  -430.1098
 141  -985.0601
 142  -955.6826
 143  -811.1758
 144  -351.7399
 145  117.0913
 146  -47.77052
 147  -130.8074
 148  -470.6641
 149  -433.2298
 150  -373.0439
 151  -388.0601
 152  -164.5085
 153  -194.2831
 154  -373.7881
 155  -305.6555
 156  -552.1479
 157  -357.298
 158  65.13955
 159  29.53108
 160  93.77859
 161  458.145
 162  471.45
 163  774.5698
 164  1082.8
 165  1076.927
 166  384.04
 167  -467.4913
 168  -461.027
 169  -438.1609
 170  -384.08
 171  -86.33544
 172  -136.6328
 173  -439.5177
 174  -429.5812
 175  -176.5613
 176  -259.9297
 177  83.63303
 178  -132.3625
 179  69.95339
 180  70.83108
 181  232.108
 182  -59.82603
 183  -634.3799
 184  -454.3686
 185  -276.5834
 186  52.12004
 187  225.0244
 188  339.3829
 189  36.16537
 190  -211.3117
 191  -323.0927
 192  -131.6043
 193  209.2744
 194  35.07531
 195  164.194
 196  355.0907
 197  384.9661
 198  113.3671
 199  -297.0833
 200  -432.3144
 201  -7.251606
 202  196.6805
 203  616.941
 204  1697.782
 205  2449.559
 206  2441.895
 207  1917.609
 208  1478.131
 209  1204.77
 210  580.8866
 211  681.6669
 212  466.6521
 213  698.9127
 214  788.4742
 215  236.4535
 216  289.7582
 217  -104.8067
 218  -156.7799
 219  1.310925
 220  47.15704
 221  170.626
 222  -224.9054
 223  -91.77746
 224  66.90208
 225  199.5718
 226  368.5023
 227  139.3205
 228  -30.33785
 229  230.565
 230  -5.67035
 231  -113.3592
 232  -202.392
 233  -60.40245
 234  -154.4726
 235  333.7603
 236  747.437
 237  847.3522
 238  858.2462
 239  628.6245
 240  458.0807
 241  469.3789
 242  324.7305
 243  -107.9827
 244  50.10583
 245  478.3797
 246  328.7392
 247  -82.98742
 248  -156.9622
 249  -14.40584
 250  -166.4447
 251  -256.5794
 252  -601.9564
 253  -646.7755
 254  -289.3034
 255  126.5395
 256  269.8681
 257  76.23296
 258  217.1902
 259  88.20457
 260  331.7703
 261  329.859
 262  324.3037
 263  156.284
 264  246.1306
 265  92.16315
 266  72.23029
 267  -7.60731
 268  155.8607
 269  533.3086
 270  807.4939
 271  599.6977
 272  433.4319
 273  106.8388
 274  94.39211
 275  -62.31034
 276  -190.8234
 277  -472.0509
 278  -748.565
 279  -646.824
 280  -268.8576
 281  -404.5179
 282  -605.9916
 283  -369.1454
 284  -253.6672
 285  -503.139
 286  -910.1019
 287  -390.6994
 288  -37.61164
 289  166.7765
 290  347.9589
 291  54.5327
 292  -84.68024
 293  -212.3939
 294  -143.2552
 295  250.0262
 296  579.124
 297  660.0826
 298  524.9193
 299  839.6188
 300  523.2163
 301  324.1544
 302  451.9053
 303  355.3126
 304  465.3296
 305  317.0821
 306  -63.53968
 307  -217.7341
 308  -191.4636
 309  83.83585
 310  -164.6138
 311  -234.4226
 312  79.35085
 313  171.5382
 314  -256.0733
 315  -226.9644
 316  -244.2035
 317  -223.1728
 318  -373.3889
 319  -61.28419
 320  -189.9597
 321  -470.7656
 322  -841.858
 323  -531.4588
 324  -620.2014
 325  -789.9586
 326  -689.1955
 327  -389.7329
 328  -599.8436
 329  -471.4607
 330  56.95207
 331  -78.98436
 332  398.991
 333  -83.39881
 334  381.9205
 335  -38.28452
 336  -216.9464
 337  -166.0213
 338  -28.84001
 339  470.1489
 340  396.7689
 341  320.3276
 342  399.8775
 343  220.1656
 344  84.86233
 345  -30.39692
 346  122.8643
 347  479.8537
 348  534.0111
 349  482.0059
 350  849.497
 351  752.4204
 352  459.038
 353  305.5639
 354  354.1036
 355  168.5871
 356  425.3835
 357  389.5064
 358  614.9246
 359  198.9489
 360  -20.96661
 361  22.26311
 362  -102.962
 363  87.56433
 364  68.90876
 365  29.82956
 366  198.5409
 367  -41.27084
 368  -399.5106
 369  -513.4651
 370  -540.2391
 371  -99.48902
 372  99.19016
 373  303.1295
 374  183.8689
 375  244.4745
 376  -168.6416
 377  -414.1578
 378  226.4989
 379  133.4871
 380  165.4104
 381  -7.551033
 382  227.534
 383  200.8134
 384  71.18349
 385  -345.8358
 386  -373.67
 387  -172.5797
 388  -526.9319
 389  -568.098
 390  -459.5325
 391  -425.7146
 392  -627.9674
 393  -433.2846
 394  -324.5185
 395  -155.8504
 396  206.7742
 397  -331.1281
 398  -412.3517
 399  71.61075
 400  -129.5027
 401  -768.2087
 402  -487.259
 403  -201.7515
 404  31.63005
 405  315.5365
 406  538.3762
 407  -315.451
 408  293.9075
 409  336.9257
 410  205.5047
 411  -183.1163
 412  -212.5339
 413  385.932
 414  265.4834
 415  379.1195
 416  192.7412
 417  -203.4117
 418  53.8277
 419  -276.9092
 420  -123.1675
 421  186.7108
 422  385.4766
 423  275.4824
 424  300.5507
 425  318.9374
 426  464.3607
 427  171.3817
 428  254.4225
 429  250.6393
 430  -101.4188
 431  -157.5241
 432  -239.1017
 433  -295.3805
 434  -44.44102
 435  -445.6193
 436  -241.3813
 437  -302.5439
 438  -406.022
 439  104.7658
 440  722.6256
 441  781.9547
 442  616.8076
 443  654.2162
 444  112.4552
 445  497.2149
 446  908.4609
 447  1332.631
 448  810.2822
 449  481.3417
 450  525.5592
 451  234.9516
 452  429.392
 453  551.1823
 454  1049.768
 455  1328.362
 456  1051.824
 457  1033.676
 458  843.0793
 459  806.6219
 460  509.7534
 461  590.9099
 462  773.2129
 463  579.0714
 464  771.2966
 465  750.4478
 466  447.5609
 467  217.5229
 468  256.6821
 469  404.9005
 470  605.8096
 471  1065.934
 472  826.1639
 473  858.6248
 474  968.6977
 475  871.1672
 476  326.8606
 477  27.30687
 478  7.783267
 479  343.5543
 480  483.623
 481  262.2249
 482  -56.72935
 483  -300.5461
 484  -319.2516
 485  -648.5035
 486  -626.5621
 487  -169.8875
 488  302.4053
 489  462.3312
 490  -32.12044
 491  -72.02971
 492  -202.5031
 493  -734.1483
 494  -649.0183
 495  -358.8576
 496  -306.5368
 497  -344.2941
 498  -315.9132
 499  -333.0884
 500  -413.9174
 501  124.9033
 502  -637.4825
 503  -903.9967
 504  -412.4235
 505  -151.0979
 506  -203.9592
 507  -12.15804
 508  171.7539
 509  17.64592
 510  -400.0288
 511  -232.237
