# Input file       =  1208183128.111974_cleaned.dat
# Candidate        =  PSR_0332+5434
# Telescope        =  AR
# Epoch_topo       =  58227.601239721924
# Epoch_bary       =  N/A
# T_sample         =  0.002
# Data Folded      =  7340032
# Data Avg         =  0.0253201240296981
# Data StdDev      =  1.00008060291968 
# Profile Bins     =  512
# Profile Avg      =  363.036429188567 
# Profile StdDev   =  119.74268720908  
# Reduced chi-sqr  =  1.366
# Prob(Noise)      <  6.36e-08   (~5.3 sigma)
# P_topo (ms)      =  714.556866235076  +/- 0.000368
# P'_topo (s/s)    =  -0                +/- 1.94e-10
# P''_topo (s/s^2) =  0                 +/- 8.58e-14
# P_bary (ms)      =  N/A
# P'_bary (s/s)    =  N/A
# P''_bary (s/s^2) =  N/A
# P_orb (s)        =  N/A
# asin(i)/c (s)    =  N/A
# eccentricity     =  N/A
# w (rad)          =  N/A
# T_peri           =  N/A
######################################################
   0  1038.286
   1  929.6497
   2  739.7345
   3  491.5369
   4  446.4734
   5  421.5288
   6  376.194
   7  454.8218
   8  419.3341
   9  442.4636
  10  411.7582
  11  494.9738
  12  556.4512
  13  576.5607
  14  639.218
  15  583.3204
  16  567.2443
  17  466.7111
  18  453.7182
  19  476.8468
  20  502.0509
  21  427.2679
  22  441.0291
  23  443.2033
  24  388.0424
  25  374.8027
  26  416.841
  27  434.3996
  28  420.9008
  29  412.2583
  30  436.8502
  31  430.4843
  32  422.8695
  33  345.7953
  34  275.1205
  35  336.5861
  36  288.9317
  37  173.6532
  38  278.3697
  39  368.6783
  40  247.4088
  41  327.6431
  42  384.5758
  43  345.5538
  44  340.3373
  45  298.1013
  46  318.1558
  47  236.7423
  48  215.8777
  49  247.5455
  50  228.134
  51  345.5043
  52  343.1646
  53  351.3683
  54  380.2243
  55  238.7116
  56  203.8241
  57  228.6456
  58  327.6078
  59  233.3714
  60  196.1279
  61  173.5701
  62  225.2961
  63  339.9634
  64  322.6004
  65  312.2833
  66  240.7081
  67  239.3082
  68  249.2118
  69  340.5641
  70  384.5422
  71  389.394
  72  348.6955
  73  210.3688
  74  237.4848
  75  284.7881
  76  329.4143
  77  320.2052
  78  362.2048
  79  386.7227
  80  327.448
  81  424.5859
  82  326.4439
  83  257.151
  84  390.1046
  85  382.7028
  86  334.4045
  87  432.0856
  88  385.7482
  89  383.4303
  90  317.3932
  91  301.2806
  92  433.8351
  93  355.6467
  94  265.2859
  95  400.818
  96  506.9712
  97  464.018
  98  351.6955
  99  465.9156
 100  478.047
 101  380.6212
 102  438.8059
 103  450.2053
 104  496.7476
 105  394.1248
 106  528.5624
 107  401.4032
 108  333.7803
 109  335.5792
 110  447.6604
 111  410.4112
 112  238.2939
 113  275.5363
 114  338.1553
 115  362.2339
 116  393.9137
 117  303.8027
 118  212.0136
 119  347.6024
 120  404.2184
 121  315.41
 122  268.7413
 123  191.8813
 124  251.0342
 125  343.1537
 126  419.8784
 127  384.9264
 128  398.7799
 129  352.7127
 130  279.0532
 131  345.6205
 132  409.1799
 133  255.9577
 134  239.3073
 135  298.8334
 136  491.7744
 137  492.0426
 138  443.6316
 139  265.3111
 140  324.6225
 141  412.8389
 142  520.6555
 143  388.9692
 144  342.081
 145  395.6006
 146  356.4878
 147  348.8391
 148  324.2563
 149  338.4554
 150  383.8205
 151  427.7278
 152  460.5353
 153  503.4967
 154  451.3418
 155  434.731
 156  445.8454
 157  374.9801
 158  323.4749
 159  458.5107
 160  499.6918
 161  337.0482
 162  222.6302
 163  381.3885
 164  455.5721
 165  435.4993
 166  383.3504
 167  439.9998
 168  341.0629
 169  257.1472
 170  371.2271
 171  336.5795
 172  345.2471
 173  428.6082
 174  418.1358
 175  318.3175
 176  187.7263
 177  258.3452
 178  393.6796
 179  417.8522
 180  252.1785
 181  214.66
 182  407.6165
 183  397.5586
 184  372.1017
 185  242.2624
 186  378.8189
 187  421.5162
 188  248.8249
 189  219.1506
 190  285.6278
 191  322.721
 192  366.1291
 193  414.7615
 194  324.996
 195  312.0662
 196  354.115
 197  405.8406
 198  471.3851
 199  502.5247
 200  434.5224
 201  286.2269
 202  200.9989
 203  364.7581
 204  405.315
 205  273.3128
 206  344.7469
 207  439.569
 208  398.7271
 209  347.5097
 210  316.1544
 211  363.3521
 212  404.5673
 213  444.6597
 214  384.3338
 215  247.4737
 216  428.8351
 217  394.8618
 218  499.4979
 219  570.7502
 220  469.414
 221  473.8432
 222  408.6306
 223  542.2804
 224  481.2039
 225  436.5108
 226  512.8022
 227  441.959
 228  475.7466
 229  342.5164
 230  390.9763
 231  514.8844
 232  432.4142
 233  412.9754
 234  199.781
 235  197.3222
 236  200.8157
 237  299.0678
 238  502.8437
 239  433.395
 240  397.5532
 241  357.5118
 242  333.271
 243  344.4333
 244  354.1323
 245  342.4366
 246  397.5457
 247  367.1571
 248  382.7982
 249  484.2562
 250  549.1144
 251  482.0687
 252  407.074
 253  376.4416
 254  298.8701
 255  334.7039
 256  456.9137
 257  384.8266
 258  463.0252
 259  415.8347
 260  430.8061
 261  402.4091
 262  415.743
 263  484.9501
 264  368.4792
 265  345.5848
 266  357.8399
 267  457.5719
 268  523.2949
 269  351.3424
 270  316.6603
 271  370.1721
 272  386.4465
 273  265.2456
 274  293.5137
 275  331.7706
 276  408.459
 277  324.3899
 278  419.5568
 279  458.6926
 280  373.9817
 281  339.7244
 282  365.0031
 283  287.8251
 284  392.3124
 285  414.7058
 286  394.4446
 287  437.8799
 288  531.2437
 289  418.4907
 290  258.9885
 291  196.1892
 292  362.9372
 293  386.6572
 294  365.1169
 295  356.4187
 296  266.8795
 297  346.6705
 298  334.9793
 299  380.8213
 300  336.938
 301  268.0487
 302  304.1449
 303  320.6504
 304  304.8506
 305  230.3913
 306  395.472
 307  345.7592
 308  363.6653
 309  360.1394
 310  246.5869
 311  308.9824
 312  265.2035
 313  211.0103
 314  261.6313
 315  333.092
 316  305.6154
 317  308.6101
 318  417.7908
 319  437.8119
 320  326.0797
 321  314.9443
 322  367.2086
 323  404.4635
 324  356.0744
 325  331.2716
 326  343.2029
 327  397.815
 328  349.5996
 329  241.8324
 330  213.0887
 331  241.8285
 332  241.032
 333  253.2711
 334  289.4655
 335  218.4879
 336  162.2272
 337  259.868
 338  273.8247
 339  244.5091
 340  196.1282
 341  188.9157
 342  266.3899
 343  280.3112
 344  226.3978
 345  216.1487
 346  243.9707
 347  349.232
 348  310.0747
 349  373.3366
 350  309.6293
 351  228.4857
 352  273.0738
 353  283.8812
 354  299.021
 355  346.1018
 356  369.5312
 357  252.5346
 358  388.1131
 359  404.4418
 360  337.1736
 361  322.8981
 362  262.6965
 363  302.9926
 364  323.8788
 365  408.3919
 366  392.4083
 367  382.3387
 368  359.4579
 369  375.7268
 370  383.6238
 371  308.1486
 372  273.7431
 373  324.8739
 374  325.5925
 375  260.4679
 376  220.608
 377  218.7749
 378  239.0758
 379  377.323
 380  431.0497
 381  390.3323
 382  338.5143
 383  392.9895
 384  233.7657
 385  246.9425
 386  360.9023
 387  359.9187
 388  420.5388
 389  255.5725
 390  308.2617
 391  369.2827
 392  338.9395
 393  337.4534
 394  385.9116
 395  315.9001
 396  297.1878
 397  481.6835
 398  399.0613
 399  344.15
 400  313.2063
 401  273.2779
 402  317.4859
 403  302.2149
 404  374.6117
 405  368.9348
 406  364.9488
 407  385.1947
 408  391.054
 409  402.8067
 410  426.6083
 411  328.7712
 412  291.4416
 413  263.3894
 414  227.0354
 415  341.9929
 416  387.6856
 417  472.8853
 418  378.964
 419  451.8515
 420  232.5634
 421  258.8679
 422  282.9012
 423  372.4421
 424  303.1432
 425  340.6395
 426  346.0584
 427  206.1758
 428  278.0229
 429  370.9937
 430  466.3431
 431  372.7373
 432  325.9279
 433  329.66
 434  307.4675
 435  315.8966
 436  392.8487
 437  297.6041
 438  299.7038
 439  355.0694
 440  341.267
 441  318.5689
 442  261.9405
 443  262.7456
 444  240.2506
 445  200.6429
 446  298.8164
 447  322.8569
 448  326.6485
 449  402.6565
 450  393.0959
 451  357.4518
 452  250.3431
 453  268.1738
 454  256.3093
 455  337.5589
 456  444.4406
 457  461.4526
 458  401.1182
 459  349.2733
 460  321.5322
 461  432.8709
 462  410.1894
 463  395.6461
 464  371.4898
 465  258.4135
 466  230.1577
 467  295.1397
 468  303.6585
 469  338.0913
 470  400.6184
 471  463.4996
 472  381.2391
 473  373.1429
 474  307.3253
 475  336.8452
 476  417.2082
 477  380.857
 478  299.9812
 479  199.7933
 480  322.8706
 481  322.3517
 482  371.2124
 483  426.8672
 484  447.4383
 485  465.4089
 486  343.8073
 487  210.7919
 488  370.1142
 489  427.9085
 490  368.1985
 491  302.2991
 492  321.172
 493  426.1585
 494  439.3365
 495  361.4278
 496  474.1884
 497  508.7098
 498  522.9286
 499  452.955
 500  399.6088
 501  470.7543
 502  424.9242
 503  514.3348
 504  513.9163
 505  422.9268
 506  345.0845
 507  402.0414
 508  512.0866
 509  807.4347
 510  900.1813
 511  969.9321
