# Input file       =  1208670671.120142_cleaned.dat
# Candidate        =  PSR_0332+5434
# Telescope        =  AR
# Epoch_topo       =  58233.244098612755
# Epoch_bary       =  N/A
# T_sample         =  0.002
# Data Folded      =  7208960
# Data Avg         =  0.243451094628439
# Data StdDev      =  6.46351491504833 
# Profile Bins     =  256
# Profile Avg      =  6856.82293726738 
# Profile StdDev   =  1084.63866130919 
# Reduced chi-sqr  =  6.556
# Prob(Noise)      <  1.9e-206   (~30.6 sigma)
# P_topo (ms)      =  714.551773212226  +/- 1.23e-05
# P'_topo (s/s)    =  -0                +/- 6.6e-12
# P''_topo (s/s^2) =  0                 +/- 2.97e-15
# P_bary (ms)      =  N/A
# P'_bary (s/s)    =  N/A
# P''_bary (s/s^2) =  N/A
# P_orb (s)        =  N/A
# asin(i)/c (s)    =  N/A
# eccentricity     =  N/A
# w (rad)          =  N/A
# T_peri           =  N/A
######################################################
   0  5176.786
   1  6937.937
   2  8036.741
   3  3034.1
   4  3665.234
   5  9405.472
   6  10597.07
   7  6247.765
   8  4736.012
   9  4887.468
  10  8371.128
  11  4596.319
  12  3129.53
  13  6500.623
  14  11492.62
  15  8283.81
  16  5050.203
  17  5714.363
  18  8717.148
  19  5792.5
  20  2557.082
  21  4923.443
  22  10718.88
  23  8973.891
  24  5209.657
  25  4560.365
  26  7656.907
  27  6755.776
  28  3724.228
  29  4640.462
  30  9262.572
  31  10842.39
  32  6758.987
  33  5527.07
  34  6299.305
  35  7106.308
  36  4425.942
  37  4685.445
  38  9306.983
  39  10975.72
  40  7676.226
  41  5631.821
  42  5101.983
  43  7817.542
  44  4384.916
  45  3544.844
  46  6370.08
  47  11951.45
  48  9649.188
  49  6729.925
  50  5373.874
  51  8757.407
  52  5940.086
  53  3082.795
  54  5297.726
  55  11011.13
  56  9532.261
  57  5536.848
  58  5150.794
  59  7769.2
  60  7530.646
  61  3432.985
  62  4001.494
  63  9474.396
  64  11008.54
  65  7050.237
  66  4769.731
  67  6772.264
  68  8296.341
  69  4513.136
  70  4005.2
  71  7886.715
  72  10437.38
  73  7924.618
  74  5702.094
  75  5905.62
  76  8669.266
  77  5990.999
  78  4215.4
  79  5983.443
  80  11251.01
  81  9590.056
  82  7079.016
  83  5495.39
  84  7748.271
  85  5469.404
  86  3951.556
  87  5065.948
  88  10876.54
  89  9699.479
  90  6564.934
  91  5108.672
  92  6771.172
  93  7000.426
  94  3440.571
  95  4574.35
  96  9799.535
  97  10762.33
  98  6162.667
  99  5494.983
 100  6498.281
 101  8382.893
 102  4488.379
 103  3683.968
 104  7772.9
 105  12093.66
 106  7876.105
 107  4428.019
 108  5188.714
 109  7864.562
 110  5204.33
 111  4158.538
 112  5879.607
 113  11501.95
 114  9912.339
 115  5759.628
 116  4416.623
 117  8145.085
 118  6635.655
 119  4183.798
 120  4501.498
 121  9147.9
 122  8966.229
 123  6421.231
 124  4750.612
 125  6433.907
 126  6868.043
 127  4194.586
 128  4002.207
 129  9624.38
 130  11213.88
 131  6604.854
 132  5399.104
 133  6854.06
 134  7874.766
 135  4423.698
 136  3679.2
 137  8677.71
 138  12037.56
 139  7741.228
 140  6231.163
 141  5685.917
 142  8687.559
 143  5450.045
 144  2822.866
 145  5962.182
 146  11887.44
 147  9965.575
 148  7615.789
 149  8570.489
 150  12983.04
 151  11755.86
 152  6560.925
 153  6029.832
 154  10400.25
 155  11536.64
 156  6843.684
 157  5124.189
 158  6369.457
 159  7842.045
 160  4615.599
 161  4488.881
 162  8911.198
 163  11876.8
 164  7250.802
 165  4880.025
 166  5609.745
 167  8713.054
 168  4250.504
 169  4279.182
 170  8300.32
 171  12417.62
 172  8341.479
 173  5694.84
 174  5163.83
 175  8165.324
 176  4623.982
 177  3805.695
 178  6384.978
 179  11052.62
 180  9382.093
 181  5457.769
 182  3953.121
 183  7479.209
 184  5843.977
 185  2977.712
 186  4358.12
 187  10470.45
 188  10429.45
 189  6767.479
 190  5390.381
 191  6582.502
 192  7060.115
 193  4132.029
 194  3494.772
 195  8545.102
 196  10968.52
 197  7294.198
 198  4422.058
 199  5339.481
 200  7956.77
 201  4740.271
 202  4213.953
 203  8068.559
 204  11087.09
 205  8119.896
 206  5136.135
 207  4824.21
 208  8009.117
 209  5693.845
 210  3768.682
 211  5758.427
 212  10850.42
 213  9330.41
 214  6329.136
 215  5742.956
 216  7669.76
 217  6704.287
 218  3022.378
 219  4705.268
 220  10064.53
 221  10205.99
 222  6477.245
 223  5725.64
 224  7092.942
 225  8323.194
 226  3856.292
 227  3608.804
 228  8930.439
 229  11141.81
 230  7323.02
 231  4899.256
 232  5468.759
 233  8522.692
 234  4853.782
 235  3584.586
 236  6132.272
 237  11140.72
 238  8427.724
 239  5266.691
 240  4511.426
 241  8106.469
 242  5558.141
 243  3674.979
 244  5604.259
 245  10315.84
 246  9505.347
 247  6321.387
 248  4748.772
 249  7187.397
 250  6262.997
 251  3236.752
 252  4510.293
 253  9388.684
 254  9400.782
 255  6172.368
