# Input file       =  1208010727.122757_cleaned.dat
# Candidate        =  PSR_0332+5434
# Telescope        =  AR
# Epoch_topo       =  58225.605857902279
# Epoch_bary       =  N/A
# T_sample         =  0.002
# Data Folded      =  7340032
# Data Avg         =  0.0267411643924433
# Data StdDev      =  1.00008904743672 
# Profile Bins     =  512
# Profile Avg      =  383.348465728719 
# Profile StdDev   =  119.743698296746 
# Reduced chi-sqr  =  1.441
# Prob(Noise)      <  2.3e-10   (~6.2 sigma)
# P_topo (ms)      =  714.558471475544  +/- 0.000277
# P'_topo (s/s)    =  -0                +/- 1.46e-10
# P''_topo (s/s^2) =  0                 +/- 6.46e-14
# P_bary (ms)      =  N/A
# P'_bary (s/s)    =  N/A
# P''_bary (s/s^2) =  N/A
# P_orb (s)        =  N/A
# asin(i)/c (s)    =  N/A
# eccentricity     =  N/A
# w (rad)          =  N/A
# T_peri           =  N/A
######################################################
   0  1008.771
   1  812.7017
   2  599.7311
   3  415.1216
   4  337.0759
   5  327.5879
   6  401.0656
   7  396.0421
   8  441.1934
   9  408.8506
  10  383.2176
  11  347.2314
  12  450.3047
  13  449.3697
  14  426.9776
  15  473.827
  16  416.3934
  17  484.7218
  18  567.2776
  19  541.5549
  20  438.9003
  21  418.9152
  22  520.5474
  23  547.9792
  24  526.9116
  25  498.7256
  26  486.0047
  27  361.9918
  28  361.4154
  29  495.6024
  30  432.994
  31  398.9925
  32  409.1215
  33  463.9032
  34  405.5171
  35  350.0981
  36  297.3662
  37  255.5509
  38  375.8625
  39  353.9809
  40  327.7015
  41  367.2308
  42  375.5659
  43  318.1581
  44  342.6888
  45  334.0817
  46  331.968
  47  383.2394
  48  326.4829
  49  274.3567
  50  291.5692
  51  324.7908
  52  226.2777
  53  242.2032
  54  312.5725
  55  239.9841
  56  250.1852
  57  404.4676
  58  270.5153
  59  163.2666
  60  256.0449
  61  264.931
  62  343.0961
  63  361.5183
  64  216.3871
  65  258.3494
  66  364.0647
  67  259.6533
  68  193.5422
  69  197.2837
  70  307.3513
  71  279.302
  72  284.3157
  73  299.8566
  74  252.7298
  75  242.8827
  76  247.8139
  77  303.3037
  78  304.0775
  79  247.9575
  80  223.5229
  81  269.7722
  82  295.1601
  83  103.2656
  84  276.2279
  85  316.2422
  86  286.8476
  87  427.9573
  88  301.6357
  89  382.4863
  90  430.3607
  91  471.0457
  92  377.9621
  93  431.0644
  94  408.9907
  95  386.1738
  96  238.3078
  97  284.5015
  98  296.3339
  99  319.0717
 100  341.2194
 101  283.0038
 102  371.6342
 103  382.685
 104  417.1238
 105  381.7372
 106  421.489
 107  466.42
 108  332.7218
 109  301.0049
 110  330.1827
 111  323.3118
 112  454.0199
 113  423.0321
 114  402.2047
 115  447.9406
 116  466.3895
 117  383.926
 118  403.7267
 119  295.9715
 120  397.1215
 121  365.5034
 122  346.6623
 123  362.9669
 124  324.7823
 125  317.6157
 126  301.4424
 127  351.8152
 128  432.6191
 129  457.5277
 130  362.4403
 131  238.2916
 132  289.1181
 133  188.5497
 134  112.0323
 135  226.5802
 136  357.2825
 137  304.0364
 138  233.3345
 139  114.1059
 140  229.7326
 141  285.522
 142  303.3752
 143  210.0215
 144  205.5703
 145  188.9694
 146  284.1705
 147  213.4677
 148  175.6093
 149  149.5439
 150  185.7455
 151  174.4059
 152  199.2392
 153  311.025
 154  277.5916
 155  264.9126
 156  326.9024
 157  340.7966
 158  337.6861
 159  334.6375
 160  295.3747
 161  302.9093
 162  283.2213
 163  337.1982
 164  389.7533
 165  500.1928
 166  498.3954
 167  463.5183
 168  421.4696
 169  383.6891
 170  306.7293
 171  413.7416
 172  475.4901
 173  413.5141
 174  323.7866
 175  349.1053
 176  315.6122
 177  449.0259
 178  350.3218
 179  305.9921
 180  296.1696
 181  484.8842
 182  367.9248
 183  340.868
 184  389.9477
 185  355.4245
 186  398.6619
 187  421.4838
 188  315.8494
 189  380.4859
 190  383.8852
 191  335.7941
 192  393.6623
 193  487.7085
 194  454.3396
 195  340.4804
 196  368.9834
 197  407.0089
 198  337.5304
 199  320.0073
 200  426.2406
 201  339.3595
 202  300.9636
 203  219.2794
 204  202.4157
 205  388.33
 206  370.989
 207  297.5894
 208  346.5782
 209  386.7093
 210  280.1271
 211  340.4472
 212  362.1995
 213  373.8845
 214  348.9707
 215  297.6262
 216  308.8374
 217  456.792
 218  439.872
 219  398.0915
 220  348.7161
 221  254.0892
 222  282.2234
 223  266.5657
 224  328.1651
 225  333.7286
 226  376.8878
 227  406.5941
 228  383.6204
 229  319.62
 230  377.8603
 231  398.3203
 232  431.6975
 233  454.106
 234  483.1779
 235  508.3699
 236  424.4151
 237  546.5648
 238  564.9944
 239  434.9529
 240  468.0588
 241  434.8209
 242  402.6049
 243  401.4074
 244  420.1982
 245  462.563
 246  448.4403
 247  540.6815
 248  494.7659
 249  421.8543
 250  378.2745
 251  492.0448
 252  577.3741
 253  574.7653
 254  474.86
 255  580.5383
 256  686.019
 257  615.3647
 258  506.9477
 259  512.1522
 260  455.312
 261  369.5921
 262  397.4239
 263  382.5719
 264  399.0664
 265  364.5654
 266  398.7525
 267  396.0976
 268  334.0614
 269  290.8628
 270  305.2257
 271  330.5218
 272  400.3063
 273  334.5163
 274  308.7952
 275  460.172
 276  403.4773
 277  326.057
 278  199.6636
 279  199.5689
 280  235.4982
 281  276.3692
 282  292.9122
 283  322.0486
 284  416.8232
 285  415.7066
 286  473.4038
 287  326.0723
 288  379.8676
 289  347.9733
 290  381.6689
 291  388.2732
 292  381.6442
 293  399.8217
 294  336.7627
 295  341.8278
 296  444.8277
 297  491.8414
 298  427.389
 299  326.6904
 300  454.1692
 301  391.708
 302  543.0292
 303  509.7961
 304  388.0232
 305  474.9012
 306  501.6249
 307  495.8557
 308  478.4821
 309  448.3741
 310  398.9076
 311  405.0905
 312  473.889
 313  616.44
 314  409.8916
 315  380.0372
 316  428.3055
 317  435.1718
 318  430.2096
 319  448.355
 320  395.0742
 321  430.2297
 322  413.8268
 323  405.3628
 324  401.2715
 325  421.215
 326  500.386
 327  394.6992
 328  357.3201
 329  406.0116
 330  438.7865
 331  386.4547
 332  371.3713
 333  356.7387
 334  449.2802
 335  445.3343
 336  350.3085
 337  309.5055
 338  422.8709
 339  383.8722
 340  472.7421
 341  462.8966
 342  461.2065
 343  424.8298
 344  348.5265
 345  333.1404
 346  337.4859
 347  327.1702
 348  309.7383
 349  283.303
 350  320.2433
 351  331.246
 352  257.337
 353  224.7375
 354  352.7578
 355  349.6484
 356  234.532
 357  200.3297
 358  307.2109
 359  337.917
 360  366.8333
 361  349.5489
 362  462.5142
 363  431.6093
 364  465.5837
 365  431.4449
 366  388.1763
 367  329.3816
 368  427.3879
 369  444.6549
 370  398.504
 371  514.7713
 372  543.1126
 373  452.996
 374  429.6053
 375  354.3806
 376  313.8286
 377  260.6287
 378  374.1096
 379  467.3129
 380  506.4756
 381  457.019
 382  303.9052
 383  370.7119
 384  385.6356
 385  341.8098
 386  374.0838
 387  362.0184
 388  291.8311
 389  347.0632
 390  403.8665
 391  393.9235
 392  356.4107
 393  346.6351
 394  359.3446
 395  429.581
 396  563.7494
 397  502.6268
 398  411.2292
 399  362.4691
 400  367.8109
 401  362.8544
 402  341.3637
 403  356.827
 404  413.4708
 405  481.6136
 406  541.7808
 407  461.3416
 408  417.7665
 409  475.8951
 410  431.9246
 411  394.73
 412  397.6837
 413  374.0533
 414  449.6421
 415  457.5048
 416  371.4105
 417  395.6025
 418  449.6608
 419  459.1541
 420  517.2751
 421  542.3089
 422  418.9521
 423  353.8003
 424  342.99
 425  252.9203
 426  351.7012
 427  416.7241
 428  253.2935
 429  255.3558
 430  243.4044
 431  341.5302
 432  241.4701
 433  311.5697
 434  434.7882
 435  339.5116
 436  263.3315
 437  467.677
 438  513.6276
 439  364.0146
 440  319.3437
 441  387.1959
 442  355.0778
 443  334.2015
 444  277.8802
 445  343.016
 446  420.341
 447  465.148
 448  501.6604
 449  495.3058
 450  500.3537
 451  473.8383
 452  456.5183
 453  445.4848
 454  468.9162
 455  525.3343
 456  557.7314
 457  369.9415
 458  319.0252
 459  423.0893
 460  573.4752
 461  592.9637
 462  518.0229
 463  534.9744
 464  482.7981
 465  447.9621
 466  447.1318
 467  410.4351
 468  459.0338
 469  460.4775
 470  430.2417
 471  391.5768
 472  496.6554
 473  586.7704
 474  526.9049
 475  421.5343
 476  367.324
 477  429.4511
 478  507.9288
 479  545.1071
 480  401.7585
 481  420.1505
 482  421.2808
 483  373.3795
 484  392.656
 485  426.7206
 486  444.3183
 487  438.5935
 488  450.046
 489  385.7744
 490  348.9521
 491  368.9377
 492  425.0778
 493  383.3567
 494  354.9129
 495  286.755
 496  239.731
 497  314.9354
 498  295.2603
 499  301.9261
 500  274.5276
 501  236.0916
 502  311.2625
 503  384.7253
 504  447.127
 505  337.903
 506  416.0711
 507  357.3931
 508  497.2832
 509  670.7875
 510  893.7064
 511  1120.077
