# Input file       =  1209906091.119043_cleaned.dat
# Candidate        =  PSR_0332+5434
# Telescope        =  AR
# Epoch_topo       =  58247.542941192631
# Epoch_bary       =  N/A
# T_sample         =  0.002
# Data Folded      =  7340032
# Data Avg         =  0.540255079189332
# Data StdDev      =  5.12179594316114 
# Profile Bins     =  1024
# Profile Avg      =  3872.35540940275 
# Profile StdDev   =  433.631946611965 
# Reduced chi-sqr  =  1.362
# Prob(Noise)      <  8.1e-14   (~7.4 sigma)
# P_topo (ms)      =  714.53917663511   +/- 0.00101
# P'_topo (s/s)    =  -0                +/- 5.31e-10
# P''_topo (s/s^2) =  0                 +/- 2.34e-13
# P_bary (ms)      =  N/A
# P'_bary (s/s)    =  N/A
# P''_bary (s/s^2) =  N/A
# P_orb (s)        =  N/A
# asin(i)/c (s)    =  N/A
# eccentricity     =  N/A
# w (rad)          =  N/A
# T_peri           =  N/A
######################################################
   0  4294.789
   1  4334.774
   2  4385.412
   3  4275.729
   4  4150.354
   5  4290.832
   6  4445.364
   7  4366.884
   8  4336.505
   9  4310.68
  10  4356.114
  11  4326.283
  12  4283.43
  13  4073.722
  14  3937.677
  15  3911.471
  16  4017.486
  17  4022.296
  18  3995.87
  19  4045.534
  20  4118.234
  21  4146.756
  22  4108.928
  23  4052.45
  24  4008.253
  25  3947.589
  26  3914.741
  27  3896.358
  28  3911.589
  29  3954.909
  30  3992.01
  31  4053.151
  32  3980.982
  33  3890.318
  34  3852.311
  35  3812.757
  36  3917.139
  37  4018.865
  38  4052.273
  39  4045.446
  40  4038.538
  41  4021.414
  42  4013.194
  43  3973.923
  44  3913.236
  45  3852.63
  46  3848.204
  47  3906.479
  48  4036.209
  49  4138.04
  50  4152.802
  51  4014.743
  52  4082.185
  53  4210.597
  54  4148.404
  55  4037.89
  56  3879.162
  57  3994.084
  58  4072.312
  59  4036.381
  60  3942.553
  61  3851.681
  62  3889.973
  63  3939.538
  64  4011.702
  65  4049.904
  66  3964.722
  67  3932.915
  68  3977.134
  69  3953.48
  70  3978.286
  71  3993.348
  72  3908.669
  73  3882.966
  74  3736.116
  75  3751.264
  76  3748.615
  77  3803.99
  78  3944.399
  79  3916.959
  80  3929.302
  81  3875.582
  82  3934.107
  83  3997.135
  84  4152.708
  85  4108.774
  86  4088.507
  87  3962.019
  88  4044.241
  89  3971.024
  90  3998.864
  91  4067.985
  92  4184.891
  93  4198.356
  94  4254.037
  95  4172.249
  96  4207.994
  97  4142.992
  98  4093.587
  99  4066.392
 100  4085.008
 101  4088.222
 102  4108.667
 103  4079.256
 104  4120.263
 105  4144.984
 106  4300.236
 107  4395.275
 108  4373.143
 109  4258.424
 110  4202.34
 111  4076.776
 112  3943.436
 113  3878.144
 114  4031.703
 115  4135.825
 116  4254.185
 117  4299.919
 118  4330.526
 119  4250.098
 120  4171.141
 121  4213.78
 122  4256.926
 123  4406.796
 124  4329.293
 125  4368.781
 126  4406.368
 127  4500.639
 128  4470.46
 129  4412.297
 130  4280.583
 131  4026.174
 132  3912.584
 133  3924.475
 134  3909.287
 135  4076.383
 136  4220.097
 137  4386.737
 138  4370.38
 139  4257.285
 140  4247.404
 141  4198.537
 142  4228.958
 143  4183.474
 144  4290.817
 145  4258.85
 146  4156.449
 147  4110.318
 148  4146.91
 149  4316.35
 150  4306.901
 151  4305.221
 152  4232.124
 153  4215.245
 154  4151.957
 155  4150.763
 156  4190.72
 157  4177.282
 158  4189.391
 159  4186.429
 160  4227.224
 161  4323.562
 162  4348.906
 163  4338.498
 164  4441.179
 165  4462.167
 166  4571.744
 167  4454.335
 168  4378.271
 169  4317.806
 170  4459.076
 171  4558.778
 172  4693.369
 173  4706.747
 174  4757.001
 175  4665.943
 176  4492.433
 177  4423.006
 178  4294.259
 179  4333.67
 180  4411.181
 181  4422.532
 182  4336.032
 183  4295.022
 184  4322.419
 185  4520.984
 186  4627.417
 187  4715.939
 188  4505.743
 189  4420.271
 190  4294.28
 191  4300.597
 192  4239.052
 193  4258.421
 194  4272.597
 195  4324.104
 196  4359.89
 197  4443.896
 198  4404.974
 199  4410.037
 200  4312.48
 201  4430.914
 202  4302.485
 203  4387.366
 204  4438.725
 205  4498.967
 206  4412.857
 207  4281.271
 208  4307.729
 209  4354.595
 210  4291.552
 211  4253.61
 212  4284.314
 213  4327.819
 214  4337.999
 215  4384.948
 216  4358.43
 217  4399.025
 218  4330.977
 219  4520.855
 220  4442.289
 221  4475.433
 222  4424.919
 223  4411.726
 224  4416.199
 225  4303.677
 226  4178.481
 227  4028.26
 228  4125.179
 229  4248.145
 230  4356.572
 231  4356.369
 232  4329.892
 233  4334.45
 234  4265.64
 235  4239.62
 236  4205.985
 237  4307.491
 238  4311.558
 239  4287.034
 240  4289.536
 241  4368.581
 242  4264.928
 243  4066.176
 244  3964.818
 245  4073.904
 246  4088.483
 247  4138.604
 248  4142.306
 249  4212.31
 250  4245.02
 251  4252.878
 252  4270.974
 253  4307.022
 254  4305.062
 255  4255.649
 256  4187.68
 257  4210.901
 258  4147.242
 259  4164.307
 260  4192.553
 261  4252.686
 262  4217.531
 263  4075.69
 264  3984.813
 265  3897.096
 266  3912.535
 267  3871.81
 268  3973.625
 269  4059.841
 270  4107.797
 271  4084.189
 272  4138.921
 273  4107.454
 274  4150.559
 275  4130.577
 276  4133.737
 277  4053.783
 278  4021.303
 279  4099.992
 280  4052.172
 281  3961.044
 282  3947.668
 283  3978.194
 284  3991.556
 285  3965.578
 286  3955.712
 287  3990.409
 288  3935.646
 289  4050.054
 290  4068.306
 291  3920.812
 292  3775.976
 293  3776.617
 294  3947.665
 295  3985.828
 296  3909.558
 297  3860.39
 298  3860.111
 299  3993.885
 300  3966.485
 301  3833.208
 302  3717.85
 303  3751.074
 304  3978.093
 305  3996.205
 306  3957.408
 307  3814.945
 308  3823.331
 309  3752.271
 310  3736.525
 311  3769.167
 312  3763.139
 313  3762.416
 314  3806.385
 315  3793.109
 316  3797.563
 317  3786.021
 318  3892.673
 319  3973.558
 320  3906.258
 321  3860.272
 322  3838.995
 323  3895.081
 324  3891.918
 325  3907.904
 326  3869.029
 327  3861.084
 328  3861.069
 329  3813.671
 330  3831.172
 331  3869.872
 332  3934.183
 333  4021.91
 334  4038.031
 335  4050.603
 336  4005.763
 337  3940.83
 338  3915.656
 339  3865.983
 340  3846.665
 341  3754.369
 342  3723.481
 343  3863.052
 344  3998.543
 345  3950.762
 346  3786.539
 347  3681.553
 348  3679.005
 349  3704.433
 350  3668.882
 351  3660.773
 352  3751.04
 353  3819.55
 354  3789.191
 355  3749.899
 356  3766.639
 357  3813.591
 358  3723.217
 359  3711.693
 360  3605.716
 361  3710.175
 362  3778.479
 363  3838.563
 364  3736.725
 365  3629.529
 366  3679.107
 367  3748.432
 368  3816.313
 369  3837.656
 370  3853.981
 371  3887.581
 372  3927.872
 373  3780.66
 374  3648.106
 375  3520.354
 376  3592.295
 377  3438.126
 378  3325.526
 379  3291.48
 380  3485.58
 381  3628.406
 382  3711.422
 383  3664.163
 384  3648.865
 385  3659.053
 386  3605.94
 387  3521.88
 388  3510.219
 389  3518.58
 390  3537.153
 391  3678.272
 392  3625.78
 393  3622.906
 394  3613.968
 395  3642.547
 396  3664.411
 397  3541.879
 398  3547.357
 399  3558.536
 400  3656.852
 401  3578.649
 402  3671.613
 403  3654.252
 404  3682.641
 405  3501.149
 406  3475.153
 407  3482.284
 408  3520.355
 409  3725.972
 410  3758.852
 411  3814.16
 412  3822.244
 413  3829.705
 414  3880.256
 415  3780.353
 416  3781.151
 417  3799.155
 418  3828.747
 419  3681.287
 420  3584.953
 421  3580.674
 422  3714.911
 423  3725.317
 424  3779.75
 425  3728.47
 426  3669.828
 427  3534.178
 428  3476.343
 429  3485.466
 430  3554.645
 431  3609.398
 432  3563.987
 433  3401.997
 434  3222.92
 435  3387.345
 436  3474.243
 437  3607.771
 438  3564.46
 439  3600.894
 440  3557.785
 441  3554.856
 442  3505.109
 443  3521.408
 444  3535.194
 445  3510.343
 446  3539.686
 447  3512.098
 448  3569.256
 449  3622.979
 450  3655.492
 451  3722.634
 452  3777.05
 453  3749.573
 454  3703.362
 455  3744.291
 456  3769.168
 457  3648.044
 458  3545.647
 459  3523.834
 460  3694.7
 461  3593.395
 462  3566.37
 463  3507.854
 464  3555.017
 465  3641.452
 466  3737.247
 467  3847.672
 468  3788.485
 469  3833.556
 470  3861.323
 471  3889.83
 472  3786.319
 473  3685.541
 474  3517.073
 475  3553.522
 476  3554.687
 477  3633.845
 478  3612.404
 479  3728.052
 480  3807.881
 481  3799.075
 482  3738.651
 483  3676.956
 484  3746.092
 485  3743.473
 486  3768.469
 487  3768.108
 488  3841.607
 489  3803.143
 490  3812.212
 491  3797.037
 492  3814.434
 493  3774.845
 494  3839.028
 495  3951.897
 496  4027.601
 497  3952.127
 498  3904.922
 499  3877.815
 500  3893.214
 501  3846.305
 502  3796.951
 503  3726.63
 504  3760.067
 505  3915.323
 506  3973.984
 507  3876.342
 508  3598.673
 509  3572.228
 510  3583.572
 511  3638.066
 512  3613.917
 513  3647.556
 514  3586.26
 515  3621.074
 516  3695.061
 517  3660.862
 518  3625.266
 519  3553.398
 520  3619.891
 521  3513.204
 522  3414.183
 523  3403.434
 524  3501.152
 525  3601.752
 526  3624.921
 527  3526.721
 528  3544.409
 529  3481.721
 530  3626.049
 531  3665.285
 532  3634.881
 533  3550.88
 534  3397.666
 535  3372.64
 536  3411.144
 537  3477.452
 538  3585.147
 539  3656.865
 540  3667.125
 541  3651.275
 542  3601.209
 543  3596.531
 544  3582.497
 545  3669.232
 546  3727.127
 547  3594.775
 548  3441.986
 549  3361.133
 550  3445.547
 551  3438.037
 552  3476.036
 553  3399.717
 554  3581.769
 555  3566.415
 556  3678.906
 557  3656.681
 558  3623.358
 559  3565.669
 560  3514.805
 561  3668.812
 562  3653.897
 563  3616.215
 564  3544.534
 565  3559.541
 566  3599.895
 567  3577.305
 568  3599.934
 569  3608.268
 570  3596.752
 571  3432.699
 572  3310.127
 573  3195.489
 574  3241.24
 575  3311.349
 576  3513.011
 577  3601.062
 578  3582.738
 579  3466.323
 580  3437.5
 581  3483.415
 582  3498.89
 583  3441.202
 584  3381.277
 585  3521.892
 586  3638.56
 587  3670.32
 588  3584.378
 589  3590.585
 590  3659.598
 591  3591.109
 592  3636.667
 593  3835.231
 594  3959.435
 595  4050.785
 596  4105.354
 597  4397.781
 598  4616.341
 599  4745.709
 600  4839.575
 601  4676.219
 602  4624.292
 603  4505.927
 604  4416.212
 605  4194.08
 606  3915.692
 607  3789.714
 608  3604.813
 609  3658.619
 610  3625.629
 611  3714.974
 612  3609.012
 613  3651.135
 614  3757.015
 615  3819.448
 616  3849.969
 617  3877.714
 618  3823.456
 619  3714.673
 620  3566.669
 621  3471.731
 622  3506.44
 623  3553.004
 624  3574.227
 625  3647.74
 626  3655.864
 627  3570.381
 628  3535.346
 629  3638.542
 630  3766.936
 631  3690.099
 632  3645.62
 633  3625.198
 634  3500.412
 635  3461.365
 636  3458.695
 637  3601.102
 638  3593.963
 639  3656.922
 640  3707.288
 641  3621.766
 642  3424.492
 643  3355.677
 644  3425.105
 645  3510.711
 646  3575.935
 647  3616.992
 648  3575.962
 649  3557.426
 650  3550.511
 651  3587.708
 652  3610.945
 653  3722.479
 654  3811.132
 655  3845.769
 656  3809.136
 657  3804.595
 658  3864.885
 659  3782.026
 660  3651.174
 661  3595.54
 662  3711.653
 663  3690.347
 664  3655.378
 665  3560.113
 666  3538.483
 667  3365.673
 668  3381.946
 669  3554.507
 670  3550.32
 671  3526.48
 672  3422.866
 673  3454.466
 674  3453.671
 675  3567.358
 676  3625.945
 677  3607.85
 678  3584.57
 679  3560.213
 680  3615.214
 681  3591.561
 682  3682.373
 683  3755.733
 684  3711.041
 685  3678.656
 686  3689.096
 687  3688.964
 688  3618.448
 689  3426.09
 690  3368.231
 691  3436.716
 692  3624.98
 693  3727.658
 694  3807.723
 695  3804.607
 696  3878.706
 697  3882.183
 698  3835.191
 699  3811.751
 700  3904.386
 701  3926.81
 702  3926.269
 703  3857.058
 704  3751.044
 705  3706.728
 706  3773.268
 707  3821.183
 708  3733.003
 709  3580.805
 710  3650.091
 711  3663.53
 712  3745.741
 713  3742.307
 714  3764.742
 715  3738.229
 716  3766.081
 717  3805.633
 718  3808.247
 719  3846.633
 720  4008.598
 721  3964.254
 722  3747.732
 723  3592.497
 724  3568.968
 725  3720.639
 726  3754.645
 727  3803.127
 728  3831.723
 729  3896.789
 730  3904.85
 731  3831.162
 732  3708.374
 733  3631.593
 734  3673.584
 735  3717.665
 736  3635.481
 737  3593.97
 738  3600.747
 739  3633.251
 740  3633.362
 741  3697.366
 742  3656.994
 743  3643.139
 744  3527.142
 745  3566.446
 746  3655.449
 747  3754.03
 748  3700.638
 749  3676.669
 750  3825.619
 751  3918.234
 752  3857.911
 753  3805.039
 754  3740.544
 755  3670.004
 756  3605.825
 757  3584.089
 758  3479.069
 759  3547.402
 760  3769.939
 761  3877.359
 762  3905.731
 763  3876.622
 764  3914.904
 765  3893.368
 766  3801.573
 767  3724.615
 768  3703.438
 769  3552.527
 770  3491.666
 771  3570.466
 772  3582.603
 773  3615.574
 774  3543.315
 775  3543.906
 776  3536.203
 777  3769.934
 778  3790.304
 779  3743.188
 780  3713.297
 781  3711.484
 782  3635.184
 783  3570.94
 784  3583.221
 785  3582.515
 786  3535.78
 787  3532.665
 788  3602.444
 789  3674.202
 790  3811.038
 791  3815.964
 792  3752.161
 793  3753.06
 794  3715.434
 795  3717.989
 796  3613.072
 797  3528.915
 798  3495.698
 799  3513.075
 800  3528.875
 801  3537.58
 802  3410.368
 803  3387.631
 804  3448.854
 805  3526.741
 806  3509.053
 807  3363.852
 808  3490.282
 809  3694.29
 810  3802.844
 811  3615.528
 812  3397.691
 813  3371.311
 814  3483.987
 815  3551.492
 816  3593.158
 817  3567.733
 818  3627.176
 819  3733.954
 820  3846.935
 821  3799.434
 822  3761.318
 823  3717.104
 824  3715.561
 825  3787.702
 826  3832.202
 827  3821.653
 828  3665.386
 829  3623.285
 830  3707.263
 831  3787.174
 832  3881.3
 833  3853.191
 834  3896.644
 835  3848.197
 836  3916.77
 837  3875.24
 838  3801.797
 839  3856.94
 840  3888.232
 841  3919.051
 842  3829.674
 843  3888.513
 844  4003.763
 845  4030.592
 846  3858.109
 847  3765.709
 848  3764.703
 849  3778.262
 850  3848.126
 851  3948.404
 852  4051.354
 853  4081.945
 854  4107.573
 855  4142.19
 856  4146.513
 857  4052.038
 858  4041.219
 859  4040.083
 860  4200.575
 861  4204.724
 862  4099.175
 863  3989.358
 864  3931.949
 865  3876.558
 866  3798.94
 867  3862.944
 868  3841.335
 869  3903.544
 870  3824.08
 871  3787.925
 872  3790.386
 873  3816.105
 874  3935.331
 875  3865.276
 876  3813.592
 877  3674.053
 878  3709.17
 879  3806.663
 880  3762.698
 881  3688.028
 882  3622.811
 883  3692.027
 884  3695.44
 885  3671.05
 886  3715.789
 887  3714.642
 888  3682.412
 889  3742.827
 890  3724.449
 891  3774.51
 892  3768.219
 893  3879.365
 894  3766.893
 895  3605.313
 896  3705.452
 897  3800.546
 898  3797.895
 899  3774.123
 900  3796.303
 901  3823.185
 902  3686.241
 903  3613.414
 904  3780.993
 905  3843.988
 906  3958.022
 907  3871.808
 908  3955.309
 909  3911.459
 910  3922.276
 911  3871.042
 912  3886.409
 913  3984.27
 914  3954.925
 915  3916.606
 916  3755.035
 917  3633.905
 918  3618.761
 919  3733.59
 920  3845.625
 921  3886.597
 922  3894.118
 923  3907.088
 924  3851.423
 925  3799.593
 926  3786.918
 927  3817.626
 928  3804.966
 929  3837.669
 930  3826.21
 931  3977.932
 932  4061.325
 933  4027.342
 934  3893.425
 935  3827.499
 936  3840.13
 937  3895.145
 938  3934.138
 939  3891.94
 940  3951.193
 941  4035.237
 942  3992.163
 943  3939.308
 944  3994.996
 945  4095.171
 946  4080.924
 947  4075.555
 948  3905.097
 949  3789.434
 950  3684.368
 951  3750.463
 952  3796.018
 953  3782.963
 954  3922.722
 955  4069.865
 956  4267.35
 957  4181.474
 958  4150.854
 959  3998.554
 960  3969.824
 961  3945.714
 962  4014.292
 963  3954.052
 964  4001.983
 965  4002.906
 966  3984.244
 967  3963.069
 968  4005.361
 969  4001.742
 970  3939.41
 971  3866.36
 972  3982.925
 973  4010.333
 974  3986.252
 975  3883.659
 976  3955.36
 977  3999.062
 978  3934.791
 979  3910.72
 980  3922.544
 981  4019.507
 982  4067.093
 983  4169.776
 984  4103.314
 985  3940.132
 986  3880.144
 987  3910.322
 988  3979.909
 989  3841.74
 990  3871.234
 991  3935.839
 992  3872.86
 993  3901.501
 994  3911.849
 995  4024.743
 996  4095.411
 997  4111.245
 998  4072.296
 999  3995.461
1000  3914.816
1001  3938.474
1002  3850.127
1003  3994.451
1004  3984.962
1005  4111.069
1006  3928.036
1007  3895.722
1008  3870.194
1009  4060.919
1010  4230.82
1011  4133.19
1012  4079.604
1013  4053.653
1014  4162.782
1015  4257.077
1016  4191.756
1017  4131.014
1018  4022.186
1019  4158.048
1020  4207.371
1021  4279.538
1022  4377.291
1023  4341.787
