# Input file       =  1209130620.106693_cleaned.dat
# Candidate        =  PSR_0332+5434
# Telescope        =  AR
# Epoch_topo       =  58238.567582253389
# Epoch_bary       =  N/A
# T_sample         =  0.002
# Data Folded      =  7340032
# Data Avg         =  0.0342302061148756
# Data StdDev      =  1.000032371349   
# Profile Bins     =  512
# Profile Avg      =  490.697896571651 
# Profile StdDev   =  119.736912296674 
# Reduced chi-sqr  =  1.396
# Prob(Noise)      <  7.34e-09   (~5.7 sigma)
# P_topo (ms)      =  714.547454735331  +/- 0.000312
# P'_topo (s/s)    =  -0                +/- 1.65e-10
# P''_topo (s/s^2) =  0                 +/- 7.27e-14
# P_bary (ms)      =  N/A
# P'_bary (s/s)    =  N/A
# P''_bary (s/s^2) =  N/A
# P_orb (s)        =  N/A
# asin(i)/c (s)    =  N/A
# eccentricity     =  N/A
# w (rad)          =  N/A
# T_peri           =  N/A
######################################################
   0  1106.358
   1  1146.592
   2  963.1306
   3  551.8351
   4  443.5128
   5  424.3125
   6  527.5092
   7  426.5059
   8  304.151
   9  302.1031
  10  343.2525
  11  354.9801
  12  453.8956
  13  414.57
  14  442.0079
  15  482.9696
  16  480.3264
  17  389.5053
  18  441.6729
  19  466.188
  20  422.8366
  21  487.3541
  22  526.1844
  23  492.9767
  24  412.7104
  25  432.9878
  26  519.2646
  27  510.6171
  28  527.867
  29  666.6771
  30  505.033
  31  427.5439
  32  527.0045
  33  598.9382
  34  631.75
  35  579.4686
  36  558.1178
  37  491.8494
  38  585.117
  39  581.9017
  40  503.6696
  41  526.3981
  42  480.0331
  43  473.7616
  44  373.8872
  45  412.2989
  46  500.2905
  47  508.8699
  48  524.3499
  49  545.3316
  50  451.9387
  51  412.2251
  52  416.6917
  53  468.6152
  54  530.5168
  55  560.6049
  56  456.2014
  57  436.6069
  58  582.0915
  59  505.7819
  60  428.7932
  61  422.233
  62  432.4194
  63  448.7357
  64  520.433
  65  410.2774
  66  517.1863
  67  530.8327
  68  471.8803
  69  354.1121
  70  489.3708
  71  624.8691
  72  501.8689
  73  429.0422
  74  502.875
  75  528.7137
  76  595.4894
  77  584.552
  78  596.9708
  79  411.54
  80  480.5439
  81  506.6759
  82  443.6215
  83  439.5677
  84  432.8282
  85  329.4521
  86  401.2705
  87  510.2529
  88  443.3869
  89  446.8532
  90  455.1207
  91  520.2214
  92  512.2836
  93  592.346
  94  585.6694
  95  449.8769
  96  478.2147
  97  537.1435
  98  488.5094
  99  482.3219
 100  454.8984
 101  465.6953
 102  437.0121
 103  457.9269
 104  614.7236
 105  619.4418
 106  459.7685
 107  419.6154
 108  370.813
 109  564.6787
 110  494.9309
 111  403.7604
 112  505.3837
 113  508.1512
 114  469.3988
 115  450.2507
 116  404.0501
 117  453.8357
 118  513.019
 119  511.291
 120  483.3102
 121  482.7896
 122  366.575
 123  442.9402
 124  344.7676
 125  469.2563
 126  431.3328
 127  335.6524
 128  346.0699
 129  542.3549
 130  488.4979
 131  441.7697
 132  406.8405
 133  376.6995
 134  454.8463
 135  622.2072
 136  683.6765
 137  614.7347
 138  502.191
 139  544.6168
 140  485.8625
 141  430.1504
 142  534.4674
 143  542.8314
 144  520.4386
 145  653.4656
 146  601.7948
 147  590.7634
 148  533.1861
 149  540.7302
 150  471.3683
 151  513.3168
 152  422.8247
 153  409.8593
 154  493.1049
 155  400.396
 156  411.6992
 157  403.8761
 158  504.4628
 159  492.2678
 160  366.0599
 161  353.3336
 162  442.6363
 163  453.8778
 164  342.4684
 165  268.407
 166  453.3929
 167  480.9305
 168  462.2727
 169  473.4956
 170  471.16
 171  531.5686
 172  539.5463
 173  459.8181
 174  539.1234
 175  596.4572
 176  601.0237
 177  574.2923
 178  644.1335
 179  553.6587
 180  562.2335
 181  578.0109
 182  566.4592
 183  441.5516
 184  397.4771
 185  457.3657
 186  531.0485
 187  446.3879
 188  414.6146
 189  460.1245
 190  554.5684
 191  566.9301
 192  574.0734
 193  622.3168
 194  541.3589
 195  497.5927
 196  491.058
 197  492.7695
 198  521.4276
 199  447.2285
 200  415.0167
 201  513.957
 202  518.34
 203  551.9913
 204  564.4677
 205  414.3318
 206  417.9358
 207  579.99
 208  565.7256
 209  513.0997
 210  534.0588
 211  527.73
 212  506.4745
 213  478.0266
 214  449.4098
 215  402.519
 216  543.7243
 217  530.8243
 218  441.4648
 219  364.7563
 220  439.3031
 221  518.7628
 222  423.874
 223  485.7032
 224  533.4441
 225  538.9844
 226  513.1024
 227  367.9046
 228  366.0228
 229  460.0783
 230  467.987
 231  457.1277
 232  425.8555
 233  445.3207
 234  482.0414
 235  454.2918
 236  439.1319
 237  511.6636
 238  664.5934
 239  557.1356
 240  453.502
 241  363.5624
 242  470.5646
 243  468.7664
 244  479.5261
 245  515.5954
 246  537.7327
 247  577.0454
 248  542.001
 249  570.4424
 250  577.5257
 251  563.7885
 252  532.8688
 253  553.4135
 254  500.4303
 255  538.9966
 256  577.3214
 257  629.3436
 258  527.5451
 259  521.0081
 260  587.7811
 261  612.7577
 262  457.401
 263  473.0077
 264  560.9097
 265  571.9229
 266  549.4037
 267  630.8744
 268  583.0972
 269  509.3779
 270  450.9645
 271  413.2152
 272  519.5269
 273  441.332
 274  504.9184
 275  452.6338
 276  488.4444
 277  465.4465
 278  475.3312
 279  478.2527
 280  393.4344
 281  429.2622
 282  503.5395
 283  535.5178
 284  459.9326
 285  468.5211
 286  428.5292
 287  361.0786
 288  289.2805
 289  412.7607
 290  625.8582
 291  745.8043
 292  605.9966
 293  400.1219
 294  300.9605
 295  349.9442
 296  467.1614
 297  542.783
 298  496.7285
 299  374.7388
 300  360.0371
 301  446.6744
 302  394.5758
 303  388.4364
 304  284.2827
 305  262.4356
 306  369.3643
 307  398.8312
 308  412.8659
 309  475.687
 310  472.8202
 311  504.3067
 312  572.0918
 313  605.3769
 314  658.767
 315  540.717
 316  563.7972
 317  647.4404
 318  572.0706
 319  549.6157
 320  570.2714
 321  577.9106
 322  603.7773
 323  666.798
 324  649.1611
 325  616.9317
 326  530.9367
 327  536.5055
 328  521.2307
 329  555.5669
 330  560.998
 331  368.3265
 332  500.1154
 333  610.1884
 334  603.0236
 335  573.1422
 336  476.0714
 337  468.2611
 338  515.3208
 339  550.8773
 340  590.7071
 341  616.3669
 342  637.3359
 343  454.8199
 344  527.1045
 345  538.48
 346  534.1758
 347  521.6498
 348  589.6633
 349  650.1871
 350  557.5743
 351  509.7335
 352  544.7968
 353  498.2897
 354  456.8766
 355  450.7026
 356  415.3118
 357  468.8782
 358  512.2584
 359  458.5588
 360  517.9457
 361  433.0301
 362  322.1241
 363  389.9339
 364  428.5388
 365  434.2091
 366  521.1628
 367  539.2295
 368  423.7026
 369  357.389
 370  418.1789
 371  319.7821
 372  277.3301
 373  269.2746
 374  284.2203
 375  247.9565
 376  370.2314
 377  365.0236
 378  437.4309
 379  408.5423
 380  370.4856
 381  508.9717
 382  620.4127
 383  482.666
 384  425.4544
 385  385.7396
 386  474.8546
 387  454.5046
 388  555.1818
 389  542.8498
 390  597.2395
 391  581.6287
 392  543.6033
 393  537.9175
 394  465.167
 395  487.2352
 396  632.5046
 397  652.5158
 398  555.4004
 399  533.549
 400  522.6774
 401  467.9289
 402  526.8011
 403  520.196
 404  469.4355
 405  457.5063
 406  556.7297
 407  579.8959
 408  568.8402
 409  626.9492
 410  467.2755
 411  409.4489
 412  408.6417
 413  369.9393
 414  451.9398
 415  435.132
 416  507.618
 417  470.348
 418  443.0461
 419  383.3803
 420  506.7097
 421  559.7991
 422  483.0329
 423  380.5687
 424  511.0133
 425  478.8904
 426  385.8527
 427  364.3124
 428  450.9751
 429  452.9347
 430  311.5824
 431  384.2313
 432  343.118
 433  459.3882
 434  544.1519
 435  460.2495
 436  320.3568
 437  380.8089
 438  407.1248
 439  452.7157
 440  490.8928
 441  531.876
 442  531.3911
 443  468.6653
 444  379.6222
 445  313.4872
 446  417.1238
 447  369.2496
 448  255.3264
 449  301.5494
 450  348.8093
 451  360.511
 452  349.0745
 453  239.2164
 454  311.1377
 455  389.0772
 456  326.9792
 457  353.3012
 458  373.8826
 459  387.3734
 460  381.1363
 461  401.6101
 462  580.6793
 463  537.1288
 464  429.1444
 465  441.3542
 466  400.6733
 467  359.6177
 468  392.7832
 469  520.1873
 470  519.7904
 471  397.752
 472  408.254
 473  482.7581
 474  510.5975
 475  599.2863
 476  644.1716
 477  566.5208
 478  473.5503
 479  423.4191
 480  473.623
 481  458.5813
 482  540.47
 483  596.5861
 484  594.1454
 485  506.2847
 486  409.2303
 487  453.3458
 488  533.2952
 489  426.4264
 490  508.6945
 491  489.4334
 492  507.8997
 493  491.4724
 494  511.9321
 495  599.7468
 496  606.2524
 497  500.9338
 498  508.6742
 499  515.2145
 500  619.1025
 501  632.3837
 502  598.1787
 503  614.3696
 504  625.7094
 505  618.1615
 506  719.0132
 507  651.2914
 508  685.111
 509  834.7134
 510  959.5554
 511  1000.088
