# Input file       =  1209014843.115618_cleaned.dat
# Candidate        =  PSR_0332+5434
# Telescope        =  AR
# Epoch_topo       =  58237.227570782612
# Epoch_bary       =  N/A
# T_sample         =  0.002
# Data Folded      =  7208960
# Data Avg         =  0.265631577138662
# Data StdDev      =  5.68260591930723 
# Profile Bins     =  512
# Profile Avg      =  3739.99840867486 
# Profile StdDev   =  674.293334744434 
# Reduced chi-sqr  =  1.143
# Prob(Noise)      <  0.0137   (~2.2 sigma)
# P_topo (ms)      =  714.548301847142  +/- 3.14e-05
# P'_topo (s/s)    =  -0                +/- 1.69e-11
# P''_topo (s/s^2) =  0                 +/- 7.58e-15
# P_bary (ms)      =  N/A
# P'_bary (s/s)    =  N/A
# P''_bary (s/s^2) =  N/A
# P_orb (s)        =  N/A
# asin(i)/c (s)    =  N/A
# eccentricity     =  N/A
# w (rad)          =  N/A
# T_peri           =  N/A
######################################################
   0  3383.854
   1  3399.758
   2  3803.715
   3  3971.191
   4  3412.506
   5  3330.674
   6  3403.987
   7  3558.076
   8  4017.192
   9  3483.11
  10  3606.989
  11  3953.502
  12  3773.924
  13  2609.139
  14  2595.294
  15  3041.562
  16  3552.686
  17  3504.81
  18  3473.98
  19  4124.051
  20  3939.115
  21  3284.754
  22  2930.604
  23  2993.466
  24  3650.839
  25  3673.984
  26  3896.786
  27  4209.529
  28  4023.59
  29  3059.663
  30  2741.994
  31  2873.865
  32  3577.763
  33  3497.007
  34  3016.081
  35  3321.832
  36  3665.601
  37  3506.669
  38  2928.863
  39  3211.692
  40  3244.184
  41  3625.38
  42  3329.031
  43  3338.452
  44  3669.365
  45  3346.425
  46  2923.044
  47  2781.117
  48  3265.227
  49  3550.78
  50  3825.629
  51  3878.161
  52  4438.099
  53  4020.191
  54  2962.497
  55  3120.244
  56  3400.225
  57  3930.693
  58  3962.805
  59  3882.485
  60  4093.213
  61  4199.52
  62  3783.698
  63  2693.649
  64  3113.523
  65  3549.204
  66  3650.06
  67  3370.889
  68  3621.907
  69  3903.428
  70  3923.564
  71  3708.264
  72  3480.203
  73  3904.685
  74  3714.517
  75  4106.267
  76  4699.329
  77  5070.545
  78  4226.58
  79  2952.604
  80  2783.808
  81  3380.86
  82  4021.514
  83  3721.762
  84  4295.738
  85  4430.67
  86  4007.38
  87  3471.515
  88  2748.599
  89  3326.783
  90  3519.988
  91  3948.868
  92  4192.567
  93  4359.234
  94  4589.371
  95  3561.231
  96  2855.657
  97  3088.268
  98  3549.194
  99  3444.377
 100  3492.467
 101  3711.3
 102  4050.954
 103  3807.274
 104  3419.956
 105  3321.47
 106  3388.101
 107  3516.846
 108  3520.244
 109  3830.771
 110  4018.075
 111  3436.343
 112  3274.435
 113  3361.19
 114  3200.386
 115  4118.544
 116  3671.528
 117  3442.662
 118  3882.805
 119  3729.976
 120  3282.96
 121  3241.927
 122  3525.294
 123  3383.309
 124  3686.903
 125  4067.668
 126  3873.658
 127  3848.975
 128  2995.599
 129  2720.184
 130  2812.519
 131  3438.077
 132  3214.236
 133  3429.821
 134  3901.83
 135  3984.564
 136  3623.647
 137  2666.731
 138  2897.75
 139  3193.449
 140  3446.447
 141  3733.107
 142  4144.169
 143  4259.68
 144  3802.447
 145  3101.658
 146  3031.45
 147  3587.885
 148  3639.819
 149  3691.707
 150  3337.219
 151  3839.431
 152  3982.242
 153  3304.286
 154  3442.516
 155  3569.125
 156  3707.239
 157  3357.831
 158  3598.557
 159  4448.749
 160  4620.43
 161  3872.664
 162  2818.119
 163  3157.908
 164  3463.483
 165  3774.982
 166  3640.024
 167  4202.616
 168  4679.647
 169  4012.912
 170  3140.234
 171  2912.835
 172  3706.523
 173  3786.587
 174  3824.313
 175  4354.843
 176  4442.404
 177  4375.006
 178  4129.237
 179  3543.371
 180  3553.652
 181  3826.117
 182  3680.111
 183  3689.944
 184  3652.632
 185  3906.399
 186  3709.124
 187  3294.993
 188  3776.979
 189  4328.508
 190  4506.699
 191  4317.166
 192  3750.018
 193  3999.515
 194  4208.16
 195  3617.629
 196  3565.227
 197  3721.065
 198  4259.378
 199  4299.15
 200  4282.417
 201  5056.387
 202  4677.658
 203  4660.475
 204  5121.821
 205  5562.838
 206  5475.376
 207  5312.807
 208  5136.553
 209  5031.226
 210  4627.877
 211  3516.833
 212  3734.772
 213  3404.953
 214  3729.895
 215  4112.946
 216  4155.757
 217  4400.359
 218  4283.602
 219  3511.474
 220  3248.053
 221  3684.261
 222  3602.191
 223  4040.254
 224  4046.395
 225  4063.976
 226  4131.408
 227  3507.949
 228  3099.904
 229  2930.882
 230  3890.61
 231  3789.369
 232  3569.975
 233  3843.988
 234  4117.126
 235  3675.819
 236  2923.331
 237  3010.783
 238  3231.608
 239  3915.856
 240  4020.072
 241  4030.572
 242  4154.306
 243  3835.811
 244  3026.503
 245  2669.381
 246  2887.557
 247  3240.499
 248  3579.941
 249  3741.502
 250  3894.288
 251  3977.235
 252  3545.2
 253  3563.792
 254  3620.083
 255  4072.076
 256  3696.265
 257  3843.254
 258  4021.114
 259  4401.823
 260  3844.342
 261  3368.03
 262  3427.214
 263  3597.871
 264  3644.25
 265  3421.808
 266  4195.201
 267  4754.713
 268  4181.673
 269  3369.573
 270  3176.752
 271  3506.501
 272  3642.754
 273  3897.321
 274  4489.153
 275  4432.698
 276  3689.766
 277  3488.212
 278  3278.175
 279  3216.405
 280  3639.53
 281  3680.375
 282  3912.89
 283  3973.732
 284  4388.277
 285  3561.782
 286  2942.748
 287  3380.856
 288  3450.486
 289  3498.984
 290  3929.204
 291  3950.179
 292  4072.157
 293  3860.752
 294  3238.058
 295  3589.738
 296  3918.457
 297  3921.796
 298  3782.556
 299  3868.424
 300  4024.732
 301  3663.705
 302  3098.422
 303  3453.576
 304  4136.417
 305  4316.145
 306  4301.358
 307  4508.471
 308  4408.955
 309  4037.078
 310  3127.111
 311  3102.255
 312  3519.401
 313  4138.47
 314  3840.423
 315  3649.23
 316  4020.879
 317  4515.805
 318  3753.036
 319  2761.458
 320  2936.603
 321  3167.496
 322  3562.401
 323  4004.29
 324  4060.927
 325  4137.523
 326  3189.138
 327  2756.051
 328  3120.133
 329  3848.731
 330  3770.597
 331  4127.606
 332  4111.481
 333  3987.63
 334  3305.884
 335  2877.562
 336  3464.608
 337  3819.493
 338  4071.937
 339  4115.932
 340  4177.75
 341  4548.46
 342  4614.541
 343  3804.268
 344  3443.938
 345  3722.333
 346  3610.035
 347  3825.786
 348  4148.665
 349  5050.619
 350  5330.887
 351  4462.172
 352  3768.097
 353  3729.067
 354  4085.2
 355  3923.155
 356  3946.226
 357  4670.405
 358  4935.969
 359  4432.437
 360  4286.272
 361  3779.539
 362  3850.804
 363  4016.284
 364  3702.423
 365  4026.229
 366  4328.538
 367  4086.75
 368  3280.371
 369  3082.618
 370  3971.821
 371  4407.295
 372  4312.061
 373  4239.204
 374  4254.849
 375  3891.617
 376  3407.66
 377  3180.615
 378  3411.15
 379  3962.067
 380  4040.377
 381  3410.408
 382  3586.595
 383  4048.501
 384  3391.648
 385  3069.343
 386  3441.421
 387  4046.549
 388  4170.144
 389  4421.467
 390  4327.626
 391  3978.953
 392  3583.588
 393  2896.928
 394  2991.388
 395  3383.963
 396  3598.947
 397  3265.781
 398  3351.348
 399  3644.881
 400  3359.503
 401  2794.46
 402  2957.714
 403  3355.34
 404  3555.485
 405  4138.455
 406  4109.22
 407  4129.967
 408  3529.887
 409  2546.588
 410  2430.964
 411  2670.041
 412  3602.94
 413  3507.124
 414  3339.091
 415  3777.541
 416  3722.842
 417  2959.084
 418  2406.627
 419  2772.571
 420  3154.996
 421  3590.24
 422  3802.322
 423  4080.716
 424  4500.096
 425  4271.521
 426  3196.543
 427  2746.318
 428  2983.482
 429  2914.589
 430  3386.885
 431  3539.126
 432  4395.399
 433  4490.784
 434  3713.784
 435  3570.504
 436  3927.376
 437  4126.258
 438  3543.714
 439  3762.702
 440  4307.695
 441  4499.953
 442  3766.826
 443  3456.577
 444  3921.967
 445  4378.663
 446  4525.454
 447  4099.923
 448  4247.326
 449  4159.089
 450  3672.236
 451  3455.33
 452  3630.094
 453  3820.884
 454  4372.617
 455  4619.123
 456  4788.943
 457  4780.429
 458  4024.988
 459  3559.88
 460  3326.901
 461  3668.061
 462  4269.46
 463  4343.962
 464  4192.792
 465  4256.075
 466  4496.866
 467  3473.812
 468  3089.303
 469  3433.917
 470  3880.083
 471  3828.249
 472  4238.746
 473  4378.676
 474  4439.889
 475  3533.001
 476  3257.219
 477  3908.129
 478  4009.783
 479  4082.054
 480  4006.514
 481  4083.144
 482  3882.128
 483  3596.087
 484  3472.78
 485  3637.99
 486  4557.312
 487  4547.956
 488  4668.784
 489  4641.193
 490  4552.506
 491  4300.915
 492  3092.417
 493  3261.911
 494  3358.551
 495  4183.452
 496  4072.214
 497  3647.389
 498  4137.985
 499  4350.449
 500  3586.197
 501  3062.493
 502  3225.073
 503  3335.147
 504  4002.649
 505  3960.433
 506  4439.116
 507  4235.287
 508  3596.966
 509  2722.012
 510  2663.958
 511  3453.618
