# Input file       =  1209977319.111644_cleaned.dat
# Candidate        =  PSR_0332+5434
# Telescope        =  AR
# Epoch_topo       =  58248.367339255143
# Epoch_bary       =  N/A
# T_sample         =  0.002
# Data Folded      =  7340032
# Data Avg         =  0.163545666074372
# Data StdDev      =  4.51661231059631 
# Profile Bins     =  256
# Profile Avg      =  4689.29821316502 
# Profile StdDev   =  764.789308309163 
# Reduced chi-sqr  =  1.369
# Prob(Noise)      <  8.17e-05   (~3.8 sigma)
# P_topo (ms)      =  714.538058080259  +/- 0.000532
# P'_topo (s/s)    =  -0                +/- 2.81e-10
# P''_topo (s/s^2) =  0                 +/- 1.24e-13
# P_bary (ms)      =  N/A
# P'_bary (s/s)    =  N/A
# P''_bary (s/s^2) =  N/A
# P_orb (s)        =  N/A
# asin(i)/c (s)    =  N/A
# eccentricity     =  N/A
# w (rad)          =  N/A
# T_peri           =  N/A
######################################################
   0  3506.864
   1  3630.53
   2  3999.785
   3  3625.034
   4  4310.158
   5  4637.129
   6  4559.499
   7  4604.596
   8  4165.694
   9  3919.667
  10  4108.09
  11  3666.086
  12  3605.747
  13  3856.705
  14  4531.035
  15  4646.271
  16  4753.229
  17  4777.823
  18  4181.706
  19  3952.103
  20  3960.617
  21  4584.453
  22  4716.727
  23  4883.986
  24  4766.916
  25  4817.361
  26  4951.896
  27  4968.764
  28  4884.093
  29  5219.53
  30  5421.714
  31  5378.507
  32  4858.097
  33  5285.373
  34  5384.49
  35  5094.401
  36  5025.932
  37  5257.961
  38  4531.724
  39  4176.593
  40  4621.649
  41  4695.904
  42  5090.122
  43  4727.75
  44  5371.585
  45  5134.93
  46  4887.081
  47  5006.347
  48  4702.876
  49  4976.72
  50  4627.838
  51  5448.553
  52  5791.86
  53  5579.612
  54  5400.282
  55  5177.447
  56  5664.494
  57  5187.239
  58  4920.586
  59  4308.607
  60  4769.318
  61  4465.873
  62  4095.779
  63  4196.119
  64  4461.03
  65  4442.112
  66  4902.714
  67  4863.213
  68  5124.235
  69  4651.883
  70  4500.05
  71  4426.494
  72  4442.137
  73  5258.02
  74  4699.186
  75  5009.848
  76  5352.646
  77  5344.224
  78  4622.107
  79  4737.066
  80  4030.302
  81  3692.742
  82  3673.086
  83  4152.879
  84  3762.434
  85  4182.067
  86  3897.812
  87  4453.956
  88  4465.621
  89  4293.801
  90  4057.975
  91  4024.747
  92  3663.691
  93  4290.984
  94  3959.861
  95  3739.463
  96  4571.187
  97  4840.208
  98  4954.53
  99  4402.606
 100  4563.218
 101  4246.018
 102  4470.547
 103  4725.393
 104  4623.05
 105  4541.612
 106  4093.966
 107  3912.922
 108  4329.561
 109  3433.234
 110  4330.46
 111  3935.306
 112  4188.547
 113  3850.422
 114  4578.108
 115  3788.423
 116  4166.202
 117  4297.184
 118  4882.037
 119  4638.405
 120  4594.447
 121  4113.116
 122  3756.278
 123  3870.104
 124  4572.55
 125  4681.99
 126  5084.745
 127  4340.59
 128  5026.188
 129  4413.973
 130  4622.082
 131  4305.833
 132  4816.078
 133  4666.699
 134  4288.908
 135  4165.945
 136  4839.245
 137  5430.873
 138  4776.692
 139  4953.83
 140  5373.434
 141  5309.169
 142  5443.307
 143  5133.362
 144  5076.205
 145  5522.681
 146  5273.325
 147  5795.327
 148  6926.33
 149  9023.902
 150  9863.688
 151  8559.451
 152  5913.147
 153  5695.711
 154  4509.012
 155  4791.706
 156  5370.742
 157  4972.528
 158  5004.725
 159  3908.685
 160  4142.614
 161  5026.938
 162  4616.932
 163  4379.677
 164  4876.896
 165  4881.965
 166  4448.684
 167  4872.773
 168  5117.345
 169  4910.572
 170  5621.394
 171  5101.365
 172  5068.03
 173  4991.327
 174  4847.691
 175  5614.729
 176  5792
 177  5615.732
 178  5869.23
 179  6187.221
 180  6000.889
 181  5730.282
 182  5462.729
 183  6582.312
 184  5920.255
 185  5201.353
 186  5525.434
 187  6038.846
 188  5253.165
 189  5412.431
 190  5099.118
 191  4882.5
 192  4464.908
 193  4654.36
 194  4490.388
 195  4874.512
 196  4432.956
 197  4352.072
 198  4365.36
 199  3880.997
 200  3632.42
 201  3471.787
 202  3482.034
 203  3688.407
 204  4089.134
 205  4369.134
 206  4069.689
 207  4868.874
 208  4970.461
 209  4730.4
 210  4016.551
 211  4123.461
 212  4605.775
 213  4417.838
 214  3930.904
 215  3628.186
 216  3881.263
 217  4369.845
 218  4850.896
 219  4301.115
 220  4351.45
 221  4530.001
 222  4697.199
 223  4921.617
 224  4875.022
 225  4642.329
 226  4411.147
 227  4751.814
 228  4582.629
 229  4260.512
 230  4961.113
 231  4908.173
 232  4377.259
 233  4152.065
 234  4164.982
 235  4745.476
 236  4031.408
 237  3229.782
 238  4612.886
 239  4170.215
 240  4234.799
 241  4733.967
 242  4347.467
 243  3705.052
 244  3548.568
 245  4187.265
 246  4720.257
 247  4102.194
 248  4789.843
 249  4722.013
 250  4582.278
 251  4731.914
 252  4347.079
 253  3782.15
 254  4459.515
 255  3599.153
