# Input file       =  1209531821.109581_cleaned.dat
# Candidate        =  PSR_0332+5434
# Telescope        =  AR
# Epoch_topo       =  58243.211112379409
# Epoch_bary       =  N/A
# T_sample         =  0.002
# Data Folded      =  7143424
# Data Avg         =  0.294462077925196
# Data StdDev      =  5.95856400447976 
# Profile Bins     =  512
# Profile Avg      =  4108.38117373479 
# Profile StdDev   =  703.817145753755 
# Reduced chi-sqr  =  1.233
# Prob(Noise)      <  0.000236   (~3.5 sigma)
# P_topo (ms)      =  714.542886911965  +/- 3.89e-05
# P'_topo (s/s)    =  -0                +/- 2.11e-11
# P''_topo (s/s^2) =  0                 +/- 9.57e-15
# P_bary (ms)      =  N/A
# P'_bary (s/s)    =  N/A
# P''_bary (s/s^2) =  N/A
# P_orb (s)        =  N/A
# asin(i)/c (s)    =  N/A
# eccentricity     =  N/A
# w (rad)          =  N/A
# T_peri           =  N/A
######################################################
   0  3582.916
   1  4192.733
   2  4568.409
   3  4049.406
   4  3284.878
   5  3170.914
   6  2964.487
   7  3467.715
   8  4153.161
   9  4839.059
  10  4563.51
  11  4025.831
  12  3607.85
  13  3379.409
  14  2997.245
  15  2656.737
  16  2794.045
  17  3243.469
  18  4053.227
  19  4067.131
  20  4169.556
  21  4043.086
  22  3845.074
  23  4034.621
  24  4303.062
  25  4870.751
  26  4781.802
  27  4643.963
  28  3938.82
  29  3603.846
  30  4055.395
  31  3717.061
  32  3480.951
  33  3415.265
  34  3896.63
  35  3729.448
  36  3689.666
  37  4326.677
  38  4508.748
  39  4573.115
  40  4046.012
  41  4653.941
  42  4848.386
  43  4714.674
  44  4319.201
  45  3933.763
  46  4154.046
  47  4179.648
  48  3970.452
  49  3647.202
  50  4101.326
  51  3851.081
  52  4367.815
  53  3979.694
  54  3929.327
  55  4073.649
  56  3709.786
  57  4219.336
  58  4700.212
  59  5152.605
  60  4489.075
  61  3814.542
  62  3386.909
  63  3586.998
  64  3999.623
  65  3865.385
  66  4440.595
  67  4295.528
  68  3890.556
  69  3518.474
  70  3250.752
  71  3722.447
  72  4085.471
  73  4699.961
  74  4636.876
  75  4983.755
  76  4704.457
  77  3654.392
  78  3543.36
  79  3769.593
  80  3707.644
  81  3442.428
  82  3834.466
  83  4382.257
  84  4411.387
  85  4569.484
  86  3662.232
  87  3533.612
  88  3478.958
  89  3759.878
  90  4259.348
  91  4879.269
  92  5160.612
  93  4617.534
  94  4132.25
  95  3766.053
  96  3538.055
  97  3666.903
  98  3630.931
  99  3714.02
 100  3894.477
 101  4438.146
 102  4250.174
 103  4284.541
 104  4129.559
 105  3637.177
 106  4004.165
 107  4678.172
 108  4867.845
 109  4541.601
 110  4361.547
 111  4084.513
 112  3796.024
 113  3769.663
 114  3653.103
 115  3577.312
 116  3692.718
 117  4131.243
 118  3907.268
 119  4207.051
 120  4307.231
 121  3954.037
 122  3846.186
 123  3896.254
 124  4497.942
 125  4351.13
 126  4499.114
 127  4584.987
 128  4528.144
 129  4520.638
 130  3814.747
 131  3410.577
 132  3104.591
 133  4140.195
 134  4183.989
 135  4323.734
 136  4035.578
 137  3808.827
 138  4091.17
 139  3885.849
 140  4444.932
 141  4536.492
 142  4710.945
 143  4166.769
 144  3700.441
 145  3566.781
 146  3212.74
 147  3314.008
 148  3672.16
 149  4719.601
 150  4470.128
 151  4004.117
 152  3949.023
 153  3907.324
 154  3715.36
 155  4104.558
 156  4509.678
 157  4827.911
 158  5017.181
 159  4306.008
 160  4032.845
 161  3889.864
 162  3167.992
 163  2792.491
 164  3162.246
 165  3585.441
 166  4283.766
 167  4263.752
 168  3879.946
 169  3381.224
 170  3113.744
 171  3392.046
 172  3771.205
 173  4015.76
 174  4416.36
 175  4573.132
 176  4389.981
 177  3746.643
 178  3291.458
 179  3697.315
 180  3567.747
 181  3413.496
 182  3781.319
 183  3721.862
 184  4139.333
 185  4059.394
 186  4169.83
 187  3616.291
 188  3205.979
 189  3465.665
 190  4062.484
 191  4742.371
 192  4186.679
 193  3943.219
 194  3731.415
 195  3459.309
 196  2848.373
 197  2775.054
 198  3230.406
 199  3387.053
 200  4358.102
 201  4254.26
 202  3834.316
 203  4230.622
 204  3548.567
 205  3943.939
 206  3907.961
 207  4837.113
 208  4804.083
 209  4334.016
 210  3893.118
 211  3533.527
 212  3925.365
 213  3489.801
 214  3850.568
 215  3990.76
 216  4209.362
 217  4269.239
 218  4096.837
 219  4081.03
 220  4086.99
 221  4088.245
 222  4224.442
 223  4722.414
 224  4807.524
 225  5004.399
 226  4632.05
 227  4395.12
 228  4284.239
 229  3382.832
 230  3417.919
 231  3961.303
 232  4754.952
 233  4603.032
 234  4909.941
 235  4594.018
 236  3774.719
 237  4022.386
 238  4274.911
 239  4790.626
 240  4935.57
 241  5158.017
 242  4760.389
 243  3952.463
 244  3813.993
 245  3840.559
 246  3258.803
 247  3500.937
 248  4236.333
 249  4737.223
 250  4776.407
 251  4445.272
 252  4306.11
 253  4137.591
 254  4018.976
 255  4278.925
 256  4962.14
 257  5194.495
 258  4821.037
 259  4685.481
 260  4400.445
 261  3764.615
 262  3257.219
 263  3176.694
 264  3575.849
 265  4104.713
 266  4383.2
 267  4268.274
 268  3826.32
 269  3729.727
 270  3671.41
 271  3547.551
 272  3606.324
 273  4368.012
 274  4689.375
 275  4572.715
 276  3958.298
 277  4001.748
 278  3728.497
 279  3173.521
 280  2839.406
 281  3739.629
 282  4054.924
 283  4269.631
 284  4346.977
 285  3790.6
 286  3999.807
 287  3370.973
 288  4047.688
 289  4538.245
 290  4816.556
 291  4196.819
 292  4008.827
 293  3966.055
 294  3596.529
 295  3355.928
 296  3210.014
 297  3697.195
 298  3727.117
 299  3875.906
 300  3760.214
 301  3972.765
 302  4301.502
 303  3915.044
 304  3903.825
 305  4093.51
 306  4824.411
 307  4317.08
 308  4514.34
 309  4086.552
 310  3118.302
 311  3203.96
 312  3188.957
 313  3800.967
 314  3934.553
 315  4376.229
 316  4327.773
 317  4322.822
 318  4441.138
 319  3930.648
 320  4107.432
 321  4009.863
 322  4649.09
 323  5299.604
 324  5223.865
 325  4136.536
 326  3840.904
 327  3633.176
 328  3210.93
 329  3751.031
 330  4167.938
 331  4773.167
 332  4822.243
 333  4206.735
 334  3832.484
 335  3530.954
 336  4328.088
 337  4555.587
 338  4837.971
 339  5072.267
 340  4863.585
 341  4733.7
 342  4339.874
 343  4088.076
 344  3927.56
 345  3878.698
 346  3866.275
 347  3683.95
 348  4331.197
 349  4655.152
 350  4648.862
 351  4145.032
 352  3742.978
 353  3765.726
 354  3899.74
 355  4883.138
 356  5474.27
 357  5366.47
 358  4764.877
 359  4241.839
 360  4457.243
 361  3751.279
 362  3497.766
 363  3548.527
 364  4247.8
 365  4780.987
 366  4914.101
 367  4482.45
 368  4467.028
 369  4235.057
 370  3899.746
 371  4433.812
 372  4836.215
 373  5049.794
 374  4481.232
 375  4341.186
 376  4382.192
 377  4065.989
 378  3801.533
 379  3685.334
 380  4355.407
 381  4281.442
 382  4701.689
 383  3854.343
 384  4221.525
 385  4660.879
 386  4306.1
 387  4477.908
 388  4419.823
 389  5346.412
 390  5378.865
 391  4808.365
 392  4476.454
 393  4253.373
 394  4240.663
 395  4024.422
 396  4896.708
 397  4943.099
 398  5244.374
 399  5398.249
 400  6199.694
 401  6448.805
 402  6147.258
 403  5802.926
 404  5017.362
 405  5530.343
 406  5300.23
 407  4574.189
 408  4292.585
 409  3943.403
 410  3908.081
 411  3516.547
 412  3847.73
 413  4489.994
 414  5092.681
 415  4665.871
 416  4413.833
 417  4219.121
 418  3975.345
 419  3873.907
 420  3919.855
 421  4409.058
 422  4997.338
 423  5137.937
 424  4602.619
 425  3987.623
 426  3555.023
 427  3229.976
 428  2944.165
 429  3425.056
 430  4019.052
 431  4387.414
 432  4883.101
 433  4284.764
 434  4032.863
 435  3458.8
 436  3699.747
 437  4341.906
 438  5361.574
 439  5351.308
 440  4894.671
 441  4379.035
 442  4004.662
 443  3601.444
 444  3315.498
 445  3162.881
 446  3635.117
 447  4645.663
 448  4548.101
 449  4381.624
 450  4118.175
 451  4200.887
 452  3825.759
 453  3791.788
 454  4381.649
 455  4857.833
 456  4789.887
 457  4185.62
 458  3914.708
 459  4174.874
 460  3630.999
 461  3605
 462  3701.379
 463  4135.12
 464  4110.341
 465  4160.679
 466  4081.809
 467  3920.848
 468  4586.253
 469  4040.038
 470  4426.515
 471  4840.128
 472  5103.146
 473  4632.982
 474  4202.869
 475  3718.35
 476  3235.737
 477  3606.492
 478  3729.886
 479  4502.652
 480  4296.886
 481  3943.107
 482  3483.42
 483  3721.137
 484  4607.029
 485  4196.856
 486  4180.428
 487  4391.549
 488  4976.437
 489  4633.014
 490  3823.321
 491  3200.667
 492  3253.816
 493  2962.583
 494  2757.184
 495  3414.804
 496  3695.514
 497  3872.4
 498  3829.458
 499  3720.214
 500  3483.998
 501  3112.552
 502  3738.245
 503  4043.905
 504  4386.919
 505  4655.814
 506  4580.238
 507  3517.216
 508  3513.009
 509  3383.888
 510  3073.42
 511  3268.66
