# Input file       =  1209216790.123209-PSRB0329-2ms-sampling-dd.dat
# Candidate        =  PSR_0332+5434
# Telescope        =  AR
# Epoch_topo       =  58239.564920407509
# Epoch_bary       =  N/A
# T_sample         =  0.002
# Data Folded      =  7340032
# Data Avg         =  -1.60934378523194e-09
# Data StdDev      =  7.93242694688627 
# Profile Bins     =  512
# Profile Avg      =  -0.0547893133050238
# Profile StdDev   =  949.773564187574 
# Reduced chi-sqr  =  0.394
# Prob(Noise)      <  1   (~0.0 sigma)
# P_topo (ms)      =  714.546560401417  +/- 0.00118
# P'_topo (s/s)    =  -0                +/- 6.24e-10
# P''_topo (s/s^2) =  0                 +/- 2.75e-13
# P_bary (ms)      =  N/A
# P'_bary (s/s)    =  N/A
# P''_bary (s/s^2) =  N/A
# P_orb (s)        =  N/A
# asin(i)/c (s)    =  N/A
# eccentricity     =  N/A
# w (rad)          =  N/A
# T_peri           =  N/A
######################################################
   0  -663.6485
   1  -726.8588
   2  -594.8748
   3  -443.0826
   4  -562.3188
   5  -415.6342
   6  -609.1913
   7  -928.0052
   8  -947.7699
   9  -875.6656
  10  -727.4319
  11  -619.3316
  12  -617.0927
  13  -771.4924
  14  -1039.083
  15  -962.1317
  16  -1009.433
  17  -685.6391
  18  -557.4475
  19  -234.7869
  20  -675.0148
  21  -900.7663
  22  -865.5344
  23  -844.3049
  24  -829.3982
  25  -989.3541
  26  -812.0298
  27  -685.3858
  28  -719.014
  29  -884.7563
  30  -1185.508
  31  -1059.291
  32  -691.2711
  33  -405.0417
  34  -304.1648
  35  -229.9915
  36  -471.7093
  37  -425.0497
  38  -551.8515
  39  -578.4966
  40  2.769673
  41  91.45765
  42  -39.62366
  43  -228.8827
  44  100.6867
  45  145.3404
  46  328.6983
  47  208.7336
  48  -65.24789
  49  -106.0393
  50  -180.001
  51  -166.2791
  52  -308.8126
  53  46.83567
  54  183.5159
  55  -198.8472
  56  -395.4489
  57  -676.765
  58  -433.668
  59  -25.7868
  60  -432.2617
  61  -222.7908
  62  -409.8112
  63  -603.2491
  64  -224.8515
  65  -26.65472
  66  134.0497
  67  -169.602
  68  30.89093
  69  -56.1726
  70  20.31362
  71  -198.9205
  72  -152.9197
  73  -116.4267
  74  136.3196
  75  436.6696
  76  259.8683
  77  308.3692
  78  101.5473
  79  6.469406
  80  -194.7746
  81  -143.8336
  82  223.4678
  83  239.1845
  84  417.3281
  85  89.3446
  86  257.6379
  87  296.8151
  88  -1.350691
  89  18.03752
  90  77.905
  91  -212.2609
  92  -21.90573
  93  816.8912
  94  1085.113
  95  1675.445
  96  2357.186
  97  1771.221
  98  1038.119
  99  245.6504
 100  218.1567
 101  154.9973
 102  498.1093
 103  531.2265
 104  467.3056
 105  -175.9983
 106  -506.2634
 107  -505.7282
 108  -309.0856
 109  -87.35222
 110  115.831
 111  384.719
 112  132.4982
 113  -17.98301
 114  -384.9202
 115  -323.4543
 116  186.8718
 117  23.05328
 118  148.9892
 119  510.5618
 120  180.075
 121  42.52526
 122  -127.9401
 123  143.6913
 124  277.6957
 125  251.9687
 126  166.4824
 127  9.756913
 128  -7.773115
 129  -390.9421
 130  -396.476
 131  -148.0961
 132  234.3187
 133  408.2885
 134  229.4074
 135  -205.4343
 136  -307.5565
 137  -351.0122
 138  -570.0836
 139  -437.5939
 140  -27.6858
 141  -77.11347
 142  76.33247
 143  -141.6526
 144  -34.98583
 145  -109.3746
 146  258.3542
 147  339.4851
 148  427.6888
 149  476.3657
 150  399.5955
 151  -14.6323
 152  -167.7636
 153  -139.3406
 154  -29.8833
 155  -336.9238
 156  -348.4465
 157  -179.5076
 158  227.7528
 159  82.17701
 160  -305.1185
 161  -192.7075
 162  138.7093
 163  343.955
 164  424.3838
 165  211.9901
 166  215.022
 167  -57.52496
 168  -455.3474
 169  -547.3834
 170  -579.5731
 171  -335.648
 172  -146.1796
 173  100.2881
 174  -314.0157
 175  -640.7311
 176  -436.6229
 177  -191.6241
 178  243.7287
 179  460.0407
 180  460.4796
 181  119.9259
 182  52.23078
 183  -179.9178
 184  41.27357
 185  -48.07866
 186  139.693
 187  303.6661
 188  -10.49967
 189  -178.6598
 190  17.67184
 191  171.7007
 192  322.2642
 193  659.0654
 194  467.0543
 195  67.54377
 196  115.2248
 197  506.1421
 198  535.8151
 199  588.4969
 200  380.7882
 201  424.2823
 202  678.6608
 203  276.2227
 204  128.5863
 205  266.9895
 206  538.3619
 207  602.7378
 208  227.6413
 209  -34.62621
 210  -455.0829
 211  -411.0277
 212  162.3839
 213  348.4421
 214  51.18404
 215  -203.3955
 216  -60.26533
 217  -112.9767
 218  49.57884
 219  133.9636
 220  144.6234
 221  288.8412
 222  170.8684
 223  154.4194
 224  -388.7538
 225  125.4494
 226  -32.33402
 227  -584.7904
 228  -327.9171
 229  -17.40214
 230  203.2483
 231  -53.85215
 232  -221.625
 233  -53.74567
 234  -217.367
 235  -513.3132
 236  -518.1517
 237  -523.2934
 238  -339.6529
 239  219.7235
 240  257.7538
 241  -182.1523
 242  -773.5225
 243  -421.6179
 244  -550.2982
 245  -364.3297
 246  134.889
 247  85.36921
 248  -132.1602
 249  -279.569
 250  -89.40814
 251  -470.7942
 252  -651.9839
 253  -411.7774
 254  -426
 255  -69.22492
 256  -145.144
 257  -764.5651
 258  -737.097
 259  -546.8072
 260  -490.9816
 261  -739.3909
 262  -603.3433
 263  -436.6876
 264  -492.6457
 265  -231.0109
 266  -265.4297
 267  15.33967
 268  -66.89706
 269  -281.7508
 270  -594.6293
 271  -726.1721
 272  158.9232
 273  3.161977
 274  -353.538
 275  -187.8449
 276  -266.2563
 277  -516.0952
 278  -526.8515
 279  -440.1981
 280  -567.1577
 281  -585.5132
 282  -241.7195
 283  -273.903
 284  -431.0485
 285  -98.16854
 286  188.5334
 287  92.9984
 288  561.2098
 289  722.0588
 290  510.2078
 291  26.02883
 292  -2.297211
 293  -22.1359
 294  366.2401
 295  984.4255
 296  910.9939
 297  864.7783
 298  386.6976
 299  521.4272
 300  593.3602
 301  735.1563
 302  853.7046
 303  777.5264
 304  789.4385
 305  1142.271
 306  1090.538
 307  867.6324
 308  812.8547
 309  552.8334
 310  259.9294
 311  298.2779
 312  293.9958
 313  634.0701
 314  562.4931
 315  123.1296
 316  -193.8126
 317  -320.071
 318  -211.1082
 319  -32.56131
 320  54.54774
 321  202.5542
 322  15.90133
 323  16.91211
 324  -42.294
 325  -315.0758
 326  -370.5521
 327  232.813
 328  254.0241
 329  101.7653
 330  351.8593
 331  589.818
 332  491.862
 333  152.4026
 334  443.1035
 335  639.545
 336  400.7872
 337  441.4813
 338  339.9186
 339  211.8752
 340  279.3333
 341  558.0846
 342  582.0278
 343  880.4182
 344  422.6796
 345  501.4886
 346  243.3403
 347  -45.82685
 348  -16.75371
 349  140.29
 350  184.7481
 351  -83.37358
 352  -520.4156
 353  -221.3803
 354  -188.336
 355  -279.8541
 356  -151.5556
 357  178.6717
 358  362.4492
 359  -60.83509
 360  -264.6091
 361  -26.65718
 362  194.4706
 363  158.3903
 364  319.8594
 365  173.4426
 366  133.781
 367  61.55045
 368  163.695
 369  234.6632
 370  -72.03779
 371  -75.64276
 372  -7.132635
 373  42.88107
 374  15.86578
 375  81.97077
 376  -143.5558
 377  9.443088
 378  177.6726
 379  171.5784
 380  89.12206
 381  12.80635
 382  -55.77027
 383  88.08551
 384  250.3827
 385  104.4791
 386  90.66479
 387  367.2115
 388  453.0072
 389  116.8804
 390  -147.7606
 391  47.50425
 392  -238.569
 393  -792.4296
 394  -472.9761
 395  -371.0022
 396  121.3912
 397  61.06799
 398  -238.6193
 399  -125.1231
 400  -1.199143
 401  319.2471
 402  332.0213
 403  -137.2973
 404  359.0345
 405  145.6784
 406  26.78112
 407  -21.62127
 408  260.252
 409  59.41869
 410  -188.6893
 411  -431.3529
 412  -312.4399
 413  -560.3605
 414  -212.8673
 415  349.2341
 416  482.8558
 417  578.9298
 418  146.2487
 419  -442.9748
 420  -333.8847
 421  -67.63936
 422  146.3283
 423  693.5856
 424  506.8944
 425  276.5953
 426  180.052
 427  105.9971
 428  15.57783
 429  164.2607
 430  333.9917
 431  573.4388
 432  632.5454
 433  399.0899
 434  444.2983
 435  443.7329
 436  681.8248
 437  501.6358
 438  815.8502
 439  585.6516
 440  194.2404
 441  401.6194
 442  555.7961
 443  605.4534
 444  495.5104
 445  357.4435
 446  515.2304
 447  289.0762
 448  803.4277
 449  658.1205
 450  491.2219
 451  586.7535
 452  147.9059
 453  67.29482
 454  -54.115
 455  -107.7083
 456  9.288318
 457  -83.17928
 458  401.8133
 459  379.5476
 460  327.5696
 461  -241.1086
 462  166.9188
 463  -72.11582
 464  196.3954
 465  451.4245
 466  294.6747
 467  245.002
 468  304.0992
 469  -32.12511
 470  58.224
 471  125.5398
 472  486.045
 473  510.943
 474  159.5958
 475  -127.399
 476  -148.0355
 477  -255.8988
 478  -59.50562
 479  -476.7305
 480  -133.7216
 481  263.0525
 482  78.90943
 483  -317.5573
 484  -561.1803
 485  -395.001
 486  -136.5903
 487  -185.663
 488  -278.9457
 489  -246.9827
 490  135.8448
 491  -492.1694
 492  -596.2071
 493  -469.6795
 494  -504.0666
 495  -416.9328
 496  -400.0197
 497  -173.6971
 498  -125.471
 499  227.5502
 500  278.1593
 501  141.983
 502  101.0622
 503  -109.8201
 504  -2.83286
 505  -139.6962
 506  -224.3279
 507  -24.46449
 508  -64.43415
 509  -271.5858
 510  -640.7689
 511  -850.0602
