# Input file       =  1209876521.110726-PSRB0329-2ms-sampling-dd.dat
# Candidate        =  PSR_0332+5434
# Telescope        =  AR
# Epoch_topo       =  58247.200695725995
# Epoch_bary       =  N/A
# T_sample         =  0.002
# Data Folded      =  7208960
# Data Avg         =  -5.18823319331655e-10
# Data StdDev      =  7.54338527143518 
# Profile Bins     =  512
# Profile Avg      =  0.626936505072976
# Profile StdDev   =  895.091879001556 
# Reduced chi-sqr  =  0.912
# Prob(Noise)      <  0.923   (~0.0 sigma)
# P_topo (ms)      =  714.539154163868  +/- 3.45e-05
# P'_topo (s/s)    =  -0                +/- 1.85e-11
# P''_topo (s/s^2) =  0                 +/- 8.33e-15
# P_bary (ms)      =  N/A
# P'_bary (s/s)    =  N/A
# P''_bary (s/s^2) =  N/A
# P_orb (s)        =  N/A
# asin(i)/c (s)    =  N/A
# eccentricity     =  N/A
# w (rad)          =  N/A
# T_peri           =  N/A
######################################################
   0  140.3936
   1  530.3619
   2  141.0563
   3  -357.5974
   4  -1160.206
   5  168.9459
   6  -405.7492
   7  304.86
   8  -157.8265
   9  -335.1646
  10  -241.8225
  11  -1068.013
  12  -755.1671
  13  -430.0252
  14  883.4039
  15  628.3668
  16  117.6715
  17  -152.12
  18  -800.9728
  19  -724.4431
  20  -1051.973
  21  -228.4025
  22  42.99441
  23  631.2238
  24  -508.5404
  25  -632.5284
  26  -1103.714
  27  -1123.242
  28  -698.4126
  29  -579.7397
  30  507.2824
  31  560.5932
  32  792.5938
  33  -324.7257
  34  -475.546
  35  -566.517
  36  -891.4851
  37  -1433.297
  38  -548.2474
  39  815.0669
  40  396.6585
  41  63.57169
  42  -316.8897
  43  -732.0719
  44  -1005.992
  45  -818.3035
  46  -120.6906
  47  1023.321
  48  1025.612
  49  377.4835
  50  14.74439
  51  -310.2701
  52  -718.5353
  53  -1267.037
  54  193.2403
  55  919.9906
  56  1279.526
  57  537.413
  58  169.0494
  59  257.6568
  60  -1078.881
  61  -570.0639
  62  -735.5058
  63  601.3669
  64  1057.092
  65  860.0113
  66  581.6985
  67  -104.5811
  68  -151.5941
  69  -1482.419
  70  -1076.206
  71  -1000.141
  72  131.2069
  73  -149.7372
  74  -205.6461
  75  -526.5487
  76  -272.5201
  77  -464.469
  78  -1198.42
  79  -295
  80  246.3164
  81  993.5842
  82  448.1084
  83  8.678226
  84  -18.73072
  85  -1062.067
  86  -912.8815
  87  -854.2236
  88  201.0223
  89  -203.7885
  90  -72.7923
  91  -591.7096
  92  -729.1701
  93  -519.8699
  94  -1242.267
  95  -527.7922
  96  7.368613
  97  556.9879
  98  820.5292
  99  291.9133
 100  68.36512
 101  -623.1855
 102  -821.7507
 103  -1271.055
 104  -533.4264
 105  -319.0618
 106  7.40766
 107  -335.5139
 108  -519.9074
 109  -787.337
 110  -700.551
 111  -611.7039
 112  -334.0149
 113  826.4142
 114  498.8152
 115  201.2432
 116  198.0125
 117  -179.3656
 118  -254.786
 119  -906.7856
 120  -461.5307
 121  36.31339
 122  489.3453
 123  -325.0346
 124  -387.2865
 125  -319.2962
 126  -684.7344
 127  -632.3854
 128  -249.9891
 129  339.9505
 130  1028.194
 131  772.7578
 132  472.8202
 133  229.3684
 134  -422.0042
 135  -767.4154
 136  -1048.963
 137  157.8899
 138  336.5517
 139  317.3055
 140  56.84265
 141  -666.5008
 142  -1016.437
 143  -1485.697
 144  -218.7956
 145  128.1362
 146  895.4181
 147  899.2801
 148  407.1436
 149  -22.62204
 150  -589.2085
 151  -288.1384
 152  -848.9254
 153  -415.1171
 154  37.66477
 155  524.6591
 156  67.58351
 157  -54.04143
 158  28.37199
 159  -55.57245
 160  224.056
 161  -322.7192
 162  807.0972
 163  713.6759
 164  1210.53
 165  520.8169
 166  -186.2631
 167  -121.1288
 168  -1189.851
 169  -675.1249
 170  -854.4763
 171  174.033
 172  19.65791
 173  -279.5071
 174  -257.0298
 175  -152.8246
 176  -131.8194
 177  -814.2195
 178  195.2853
 179  434.7555
 180  837.119
 181  546.4356
 182  -3.604841
 183  -294.9495
 184  -1099.152
 185  -475.308
 186  -605.5475
 187  441.6613
 188  188.1682
 189  102.3803
 190  -4.441771
 191  90.40999
 192  170.983
 193  -483.0822
 194  113.6146
 195  296.9926
 196  1166.002
 197  1587.037
 198  972.5751
 199  746.0068
 200  -138.4836
 201  -106.5216
 202  -514.8685
 203  63.72705
 204  516.0782
 205  356.4629
 206  -314.512
 207  171.7388
 208  -246.6693
 209  -271.721
 210  -29.21443
 211  327.2358
 212  1052.964
 213  1256.852
 214  1604.075
 215  1499.299
 216  2143.371
 217  2159.98
 218  1525.847
 219  808.3953
 220  952.7593
 221  1219.609
 222  389.9012
 223  262.1113
 224  169.9498
 225  -65.19309
 226  -633.637
 227  28.07268
 228  805.6144
 229  1004.33
 230  1316.507
 231  928.6706
 232  895.1094
 233  -71.21177
 234  -7.609416
 235  -584.9139
 236  -39.20906
 237  -16.37596
 238  -125.4693
 239  -531.7509
 240  -397.1823
 241  24.55719
 242  -719.7227
 243  293.5674
 244  -322.3321
 245  961.9253
 246  1075.539
 247  788.0601
 248  608.7154
 249  -242.8318
 250  -97.84061
 251  -1181.502
 252  -436.7779
 253  1.799139
 254  541.8486
 255  158.1774
 256  -81.21151
 257  -48.29288
 258  -459.8056
 259  -84.47798
 260  -490.485
 261  861.9134
 262  746.2745
 263  1007.499
 264  662.7899
 265  47.6486
 266  614.3292
 267  -644.5696
 268  -237.1786
 269  -270.7818
 270  576.4237
 271  120.5159
 272  -352.1347
 273  -7.438936
 274  -48.30296
 275  -293.0807
 276  -1045.174
 277  31.71669
 278  283.4798
 279  623.875
 280  140.5476
 281  857.1456
 282  560.4377
 283  101.2014
 284  -628.1628
 285  -1171.304
 286  46.67341
 287  509.6319
 288  611.4984
 289  -305.8291
 290  -427.2549
 291  -436.5701
 292  -810.5171
 293  -586.4729
 294  21.05155
 295  656.7137
 296  649.8303
 297  473.8279
 298  -29.00161
 299  -122.1945
 300  -612.6072
 301  -1164.816
 302  -980.4779
 303  -407.7488
 304  248.2829
 305  -363.6272
 306  -167.6871
 307  -268.5752
 308  -488.7598
 309  -602.6783
 310  -97.65268
 311  142.6873
 312  712.5251
 313  743.3845
 314  650.3918
 315  977.311
 316  156.7923
 317  43.02582
 318  -415.2455
 319  240.0048
 320  94.8532
 321  122.7484
 322  -27.50722
 323  -55.14583
 324  274.963
 325  -574.3231
 326  -65.6892
 327  -239.2796
 328  845.486
 329  1089.416
 330  902.8785
 331  643.5145
 332  109.6702
 333  211.3852
 334  -701.1447
 335  -202.1426
 336  -179.5166
 337  57.5229
 338  -263.2221
 339  -31.72707
 340  424.9131
 341  -264.7661
 342  9.483016
 343  -330.3368
 344  1171.305
 345  1348.8
 346  1056.607
 347  602.7193
 348  526.328
 349  351.9807
 350  -588.0293
 351  225.0078
 352  139.4567
 353  808.1903
 354  -77.99582
 355  -91.76607
 356  373.2064
 357  277.6115
 358  59.84202
 359  -504.381
 360  745.9468
 361  407.0958
 362  414.9229
 363  448.2459
 364  445.704
 365  243.957
 366  -207.1654
 367  -362.1435
 368  -576.0845
 369  575.7169
 370  171.3668
 371  -209.0357
 372  -645.25
 373  -492.1252
 374  -412.1751
 375  -380.0623
 376  321.604
 377  764.1062
 378  1340.857
 379  510.6902
 380  -89.26263
 381  42.98677
 382  437.24
 383  -536.564
 384  -824.1879
 385  -141.8248
 386  554.5819
 387  107.5082
 388  -897.657
 389  -617.801
 390  -669.3773
 391  -525.0043
 392  -619.0518
 393  281.5557
 394  520.6168
 395  577.1419
 396  68.02746
 397  -322.7712
 398  248.7516
 399  -547.7994
 400  -455.193
 401  -673.1362
 402  140.2959
 403  327.5631
 404  330.169
 405  324.6204
 406  -568.4944
 407  -741.9238
 408  -661.6989
 409  59.91313
 410  285.168
 411  1254.36
 412  1160.216
 413  583.0988
 414  464.2925
 415  -90.05448
 416  73.33853
 417  -1099.078
 418  -268.0271
 419  -12.8586
 420  61.87412
 421  -430.6936
 422  -514.9926
 423  362.7468
 424  -347.7917
 425  -198.1711
 426  -64.44561
 427  696.1199
 428  -50.17907
 429  -90.50617
 430  535.519
 431  389.9576
 432  -48.58122
 433  -980.7043
 434  -6.608491
 435  64.91245
 436  411.993
 437  -173.8395
 438  235.5277
 439  -51.24374
 440  -865.6644
 441  -393.1091
 442  -222.8021
 443  1060.96
 444  860.03
 445  937.53
 446  270.1523
 447  -530.2834
 448  -441.1677
 449  -684.3271
 450  -241.4
 451  -34.30484
 452  917.6576
 453  -261.2777
 454  -809.6382
 455  -603.771
 456  -795.0023
 457  -695.2418
 458  -445.0815
 459  41.0649
 460  491.9602
 461  970.9881
 462  257.8858
 463  112.8589
 464  -32.302
 465  -113.9395
 466  -672.0015
 467  43.14343
 468  817.8382
 469  568.8228
 470  59.66954
 471  -395.4471
 472  -165.7227
 473  -616.3111
 474  -474.1108
 475  39.38889
 476  735.1307
 477  829.6335
 478  660.3079
 479  272.4643
 480  -180.4956
 481  -398.8732
 482  -1322.938
 483  -1147.35
 484  -276.7596
 485  1128.3
 486  708.7814
 487  3.010551
 488  -291.1471
 489  -970.6191
 490  -1111.042
 491  -1450.101
 492  45.23739
 493  543.3582
 494  1239.452
 495  729.5611
 496  231.7907
 497  512.5408
 498  -841.1169
 499  -380.3329
 500  -385.0618
 501  569.5909
 502  116.3559
 503  -33.97804
 504  -541.3009
 505  -363.7323
 506  545.7509
 507  -237.2678
 508  151.8825
 509  102.4533
 510  1029.588
 511  723.9682
