# Input file       =  1209302938.11285_cleaned.dat
# Candidate        =  PSR_0332+5434
# Telescope        =  AR
# Epoch_topo       =  58240.562003620951
# Epoch_bary       =  N/A
# T_sample         =  0.002
# Data Folded      =  7340032
# Data Avg         =  0.252881769855906
# Data StdDev      =  5.91320532778862 
# Profile Bins     =  512
# Profile Avg      =  3625.3808207628  
# Profile StdDev   =  708.006028615402 
# Reduced chi-sqr  =  0.734
# Prob(Noise)      <  1   (~0.0 sigma)
# P_topo (ms)      =  714.545658615598  +/- 0.000859
# P'_topo (s/s)    =  -0                +/- 4.53e-10
# P''_topo (s/s^2) =  0                 +/- 2e-13
# P_bary (ms)      =  N/A
# P'_bary (s/s)    =  N/A
# P''_bary (s/s^2) =  N/A
# P_orb (s)        =  N/A
# asin(i)/c (s)    =  N/A
# eccentricity     =  N/A
# w (rad)          =  N/A
# T_peri           =  N/A
######################################################
   0  3894.676
   1  3945.705
   2  4143.582
   3  3941.114
   4  4019.851
   5  4538.492
   6  4620.182
   7  4136.074
   8  3981.015
   9  3787.713
  10  4072.803
  11  4287.788
  12  3949.962
  13  4033.845
  14  3728.267
  15  3788.822
  16  4257.163
  17  4353.812
  18  4103.29
  19  4173.335
  20  3980.919
  21  3797.212
  22  3891.156
  23  3886.649
  24  3812.51
  25  3947.355
  26  3799.157
  27  3422.042
  28  3282.793
  29  3733.741
  30  3638.693
  31  3820.167
  32  3957.08
  33  3677.805
  34  3650.082
  35  3446.5
  36  3180.966
  37  3316.379
  38  3693.417
  39  3828.887
  40  3759.861
  41  3752.549
  42  3676.042
  43  3662.083
  44  3836.483
  45  3599.598
  46  3386.73
  47  3567.721
  48  3391.742
  49  3713.469
  50  3374.071
  51  3760.963
  52  3667.995
  53  3703.545
  54  3928.021
  55  3579.622
  56  3140.597
  57  3405.459
  58  3532.9
  59  3541.541
  60  3621.309
  61  3545.114
  62  3830.708
  63  3704.091
  64  3802.2
  65  3908.155
  66  3901.886
  67  3960.647
  68  3947.489
  69  3652.797
  70  3749.93
  71  4012.693
  72  4126.961
  73  3792.26
  74  3661.923
  75  4187.611
  76  4200.181
  77  3823.605
  78  3806.341
  79  3823.352
  80  3879.327
  81  3942.612
  82  3671.176
  83  3816.293
  84  4168.651
  85  4095.027
  86  3671.675
  87  3806.998
  88  4022.49
  89  3686.106
  90  3890.666
  91  4421.2
  92  4350.456
  93  4178.514
  94  4248.722
  95  4361.065
  96  4415.509
  97  4537.173
  98  4264.09
  99  4021.362
 100  4245.316
 101  4405.543
 102  3969.047
 103  4035.324
 104  3831.346
 105  3600.097
 106  3210.132
 107  3445.618
 108  3850.341
 109  3830.717
 110  3695.813
 111  3631.265
 112  3546.675
 113  3712.444
 114  3986.892
 115  4153.118
 116  4121.092
 117  3820.116
 118  3737.385
 119  3355.625
 120  3353.641
 121  2903.232
 122  3131.038
 123  3627.868
 124  3452.076
 125  3260.778
 126  3083.925
 127  2940.304
 128  3038.282
 129  3104.456
 130  3590.785
 131  3454.016
 132  2955.672
 133  2824.039
 134  2394.483
 135  2422.415
 136  2947.199
 137  3189.312
 138  3235.193
 139  3085.542
 140  3412.671
 141  3429.271
 142  3320.278
 143  3525.436
 144  3600.023
 145  3274.334
 146  3213.288
 147  3126.576
 148  3322.989
 149  3587.484
 150  3445.585
 151  3410.53
 152  3134.66
 153  3234.813
 154  3070.31
 155  3304.397
 156  3128.499
 157  3285.854
 158  3313.896
 159  3194.194
 160  3048.575
 161  3185.68
 162  3588.067
 163  3586.926
 164  3675.353
 165  3477.213
 166  3295.669
 167  3366.994
 168  3656.017
 169  3457.792
 170  3313.802
 171  3589.605
 172  3361.729
 173  3198.811
 174  3321.791
 175  3394.695
 176  3148.358
 177  2921.875
 178  2981.71
 179  3395.795
 180  3495.483
 181  3451.365
 182  3309.857
 183  3222.305
 184  3589.324
 185  3454.85
 186  3243.157
 187  3236.123
 188  3159.752
 189  3233.569
 190  3375.717
 191  3715.994
 192  3670.866
 193  3474.652
 194  3883.554
 195  3706.544
 196  3858.489
 197  3878.046
 198  3915.09
 199  4125.176
 200  4154.352
 201  3934.838
 202  3690.028
 203  3935.207
 204  3991.844
 205  3777.659
 206  3411.212
 207  3449.318
 208  3266.234
 209  3212.027
 210  3072.946
 211  3622.083
 212  3861.43
 213  3997.185
 214  3902.418
 215  4205.964
 216  3981.984
 217  3633.395
 218  3816.493
 219  3723.905
 220  4150.81
 221  4483.654
 222  4323.439
 223  3582.409
 224  3809.229
 225  3788.394
 226  3931.32
 227  4236.683
 228  4246.974
 229  4264.437
 230  3757.426
 231  3795.127
 232  3525.15
 233  3608.846
 234  3445.038
 235  3427.015
 236  3623.402
 237  3662.702
 238  3521.217
 239  3387.128
 240  3212.395
 241  3035.15
 242  3068.978
 243  3194.279
 244  3511.397
 245  3677.947
 246  3817.083
 247  3598.169
 248  3659.059
 249  3677.157
 250  3584.227
 251  3812.67
 252  4144.237
 253  3652.018
 254  3913.712
 255  4201.228
 256  4091.126
 257  3932.585
 258  3815.963
 259  4243.354
 260  3694.349
 261  3816.994
 262  4584.724
 263  4217.96
 264  3700.387
 265  3751.483
 266  3606.234
 267  3340.091
 268  3326.893
 269  3767.562
 270  3647.993
 271  3035.627
 272  3042.309
 273  3114.589
 274  3227.108
 275  2982.848
 276  3224.634
 277  3871.923
 278  3968.546
 279  3717.01
 280  3476.745
 281  3173.966
 282  3015.865
 283  3366.913
 284  3497.791
 285  3531.092
 286  3298.487
 287  3482.481
 288  3694.243
 289  3345.893
 290  3351.774
 291  3469.202
 292  3823.629
 293  3538.229
 294  3712.158
 295  3735.641
 296  3760.733
 297  3482.881
 298  3496.246
 299  3612.8
 300  3495.077
 301  3613.255
 302  3440.993
 303  3469.122
 304  2951.576
 305  3235.093
 306  3914.841
 307  4006.684
 308  3657.521
 309  3427.231
 310  3517.685
 311  3912.447
 312  3976.355
 313  3794.642
 314  3638.552
 315  3627.312
 316  3568.528
 317  3647.557
 318  3750.637
 319  3762.021
 320  3685.412
 321  3065.14
 322  3144.213
 323  3531.501
 324  3475.198
 325  3485.09
 326  3883.601
 327  3486.496
 328  3351.895
 329  3327.826
 330  3333.238
 331  2867.328
 332  3084.876
 333  3487.601
 334  3450.282
 335  3216.218
 336  3657.771
 337  3925.751
 338  3393.046
 339  3302.053
 340  3557.995
 341  3468.113
 342  3438.771
 343  3380.149
 344  3118.638
 345  3327.038
 346  3192.493
 347  3508.588
 348  3691.181
 349  3263.098
 350  3157.66
 351  3106.959
 352  3311.728
 353  3177.129
 354  3296.408
 355  3078.759
 356  3017.284
 357  3123.779
 358  3438.774
 359  3356.489
 360  3244.405
 361  3697.515
 362  3283.83
 363  3136.132
 364  3711.066
 365  3882.164
 366  4013.467
 367  3904.598
 368  4062.823
 369  4062.591
 370  3704.458
 371  3515.752
 372  3831.617
 373  3898.934
 374  4002.58
 375  3799.04
 376  3724.69
 377  3829.513
 378  3468.226
 379  3515.927
 380  3348.695
 381  3291.477
 382  3418.029
 383  3482.141
 384  4014.423
 385  3566.133
 386  3484.51
 387  3352.332
 388  3385.089
 389  3310.093
 390  3250.437
 391  3215.677
 392  2986.292
 393  2851.669
 394  3045.648
 395  3106.066
 396  3285.69
 397  2897.438
 398  2736.489
 399  3004.443
 400  3108.322
 401  3087.059
 402  3492.822
 403  3362.451
 404  3251.765
 405  3326.8
 406  3758.891
 407  3744.982
 408  3497.768
 409  3460.709
 410  3376.64
 411  3299.142
 412  3418.758
 413  3052.449
 414  3021.073
 415  3177.106
 416  3524.067
 417  3313.751
 418  3246.606
 419  3266.144
 420  3461.065
 421  3441.227
 422  3278.39
 423  3426.747
 424  3175.745
 425  3138.133
 426  3474.039
 427  3665.678
 428  3523.162
 429  3238.579
 430  3123.439
 431  3202.852
 432  3234.553
 433  3184.354
 434  3009.011
 435  3116.233
 436  3225.76
 437  3474.801
 438  3131.583
 439  3359.478
 440  3373.392
 441  3723.631
 442  3913.458
 443  3344.471
 444  3055.605
 445  3141.373
 446  3353.079
 447  3435.789
 448  3426.485
 449  3147.043
 450  3051.275
 451  3040.37
 452  3184.146
 453  3282.429
 454  3179.676
 455  3201.186
 456  3252.767
 457  3251.331
 458  3225.021
 459  3163.582
 460  3722.113
 461  3817.744
 462  3497.024
 463  3526.159
 464  3475.395
 465  3399.441
 466  3398.978
 467  3389.647
 468  3493.45
 469  3420.351
 470  3693.131
 471  3765.513
 472  3739.213
 473  3557.997
 474  3828.15
 475  3620.116
 476  3907.103
 477  4139.719
 478  4240.73
 479  4203.18
 480  4181.113
 481  4414.71
 482  4944.073
 483  5243.601
 484  5530.089
 485  5798.645
 486  6136.327
 487  5469.396
 488  4928.36
 489  4543.828
 490  4709.501
 491  4818.557
 492  4290.979
 493  4119.216
 494  4163.73
 495  4662.53
 496  4466.942
 497  4313.595
 498  4285.978
 499  4184.202
 500  4345.048
 501  4296.562
 502  3999.95
 503  3644.373
 504  3626.177
 505  3582.894
 506  3671.821
 507  3936.544
 508  4201.534
 509  4275.141
 510  4192.203
 511  4019.496
