# Input file       =  1209460304.110143_cleaned.dat
# Candidate        =  PSR_0332+5434
# Telescope        =  AR
# Epoch_topo       =  58242.383369330360
# Epoch_bary       =  N/A
# T_sample         =  0.002
# Data Folded      =  7340032
# Data Avg         =  0.482256845183397
# Data StdDev      =  6.53355956865015 
# Profile Bins     =  256
# Profile Avg      =  13821.3690041811 
# Profile StdDev   =  1106.31512285918 
# Reduced chi-sqr  =  0.826
# Prob(Noise)      <  0.981   (~0.0 sigma)
# P_topo (ms)      =  714.543660621648  +/- 0.000499
# P'_topo (s/s)    =  -0                +/- 2.64e-10
# P''_topo (s/s^2) =  0                 +/- 1.16e-13
# P_bary (ms)      =  N/A
# P'_bary (s/s)    =  N/A
# P''_bary (s/s^2) =  N/A
# P_orb (s)        =  N/A
# asin(i)/c (s)    =  N/A
# eccentricity     =  N/A
# w (rad)          =  N/A
# T_peri           =  N/A
######################################################
   0  13146.81
   1  12428.42
   2  11735.79
   3  12069.65
   4  12757.65
   5  12809.75
   6  13176.28
   7  13248.14
   8  13669.26
   9  13845.03
  10  13054.8
  11  13216.64
  12  13354.37
  13  13744.25
  14  13402.79
  15  13747.49
  16  14086.4
  17  13601.27
  18  12183.63
  19  12268.76
  20  12599.58
  21  12003.64
  22  12404.6
  23  12756.93
  24  13204.13
  25  13295.06
  26  13612.75
  27  12754.25
  28  13804.23
  29  13963.8
  30  14192.49
  31  14374.95
  32  13952.15
  33  14137.12
  34  14595.65
  35  14340.88
  36  14434.95
  37  15909.85
  38  16011.13
  39  15033.17
  40  14501.41
  41  14999.38
  42  14390.04
  43  13047.59
  44  13104.9
  45  13627.75
  46  13360.26
  47  13271.52
  48  13668.17
  49  14022.71
  50  14117.97
  51  12938.76
  52  12866.13
  53  13101.72
  54  13025.17
  55  13336.39
  56  13779.18
  57  13823.93
  58  13923.04
  59  13908.15
  60  13697.08
  61  13783.58
  62  14020.06
  63  15556.07
  64  14800.57
  65  13959.52
  66  14280.49
  67  14629.73
  68  14954.81
  69  14108.82
  70  13718.64
  71  14331.13
  72  14175.47
  73  13195.51
  74  13746.27
  75  14321.02
  76  13889.15
  77  12692.82
  78  14524.77
  79  14604.97
  80  14110.5
  81  14750.92
  82  15725.53
  83  15045.34
  84  15202.02
  85  14801.13
  86  13869.78
  87  13734.62
  88  14421.53
  89  13400.7
  90  12967.3
  91  13437.59
  92  13514.66
  93  12914.59
  94  12721.32
  95  13477.55
  96  14351
  97  13910.23
  98  14106.41
  99  14460
 100  14383
 101  13163.23
 102  13179.94
 103  13161.15
 104  12841.01
 105  13027.26
 106  14082.92
 107  13457.11
 108  13274.41
 109  14074.87
 110  13870.61
 111  14499.25
 112  14476.19
 113  14225.9
 114  15379.58
 115  15155.58
 116  13047.68
 117  13149
 118  13416.6
 119  13111.37
 120  13754.26
 121  14151.92
 122  14216.3
 123  14428.1
 124  13541.91
 125  14560.09
 126  15649.92
 127  15029.31
 128  14268.89
 129  14858.87
 130  14226.2
 131  14532.17
 132  14269.84
 133  13877.82
 134  12875.22
 135  13492.09
 136  13274.61
 137  13356.83
 138  13515.07
 139  13921.11
 140  13985.65
 141  12839.89
 142  13879.83
 143  13011.28
 144  13875.63
 145  13901.96
 146  13824.72
 147  14858.4
 148  14902.31
 149  16087.74
 150  17374.02
 151  16064.78
 152  13408.44
 153  13881.7
 154  13557.92
 155  13631.11
 156  14374.89
 157  14712.8
 158  14814.75
 159  14432.71
 160  15379.77
 161  15781.2
 162  15052.21
 163  15003.64
 164  15215.41
 165  15247.84
 166  14666.29
 167  15391
 168  14736.22
 169  14562.56
 170  15306.81
 171  14340.26
 172  14050.49
 173  13124.46
 174  13373.53
 175  14191.13
 176  14098.04
 177  13562.44
 178  14355.02
 179  14574.67
 180  14387.71
 181  15362.07
 182  14362.25
 183  14272.05
 184  13292.32
 185  12536.79
 186  13010.77
 187  13668.54
 188  13182.24
 189  13507.34
 190  13657.55
 191  13173.98
 192  12635.81
 193  13558.61
 194  13015.54
 195  12026.58
 196  12165.14
 197  13682.65
 198  13771.68
 199  12745.04
 200  12822.42
 201  12708.48
 202  13553.36
 203  13985.08
 204  13896.46
 205  13082.04
 206  13675.9
 207  13671.63
 208  13833.8
 209  13337.07
 210  13626.74
 211  14032.12
 212  13540.51
 213  13166.23
 214  13503.25
 215  13615.43
 216  14127.61
 217  14035.37
 218  14802.09
 219  14143.49
 220  13820.06
 221  13712.84
 222  13686.65
 223  13046.13
 224  12874.51
 225  12556.64
 226  13296.12
 227  13195.46
 228  12867.21
 229  13217.87
 230  13717.19
 231  14267.7
 232  14262.01
 233  13907.81
 234  14424.91
 235  14649.74
 236  14187.77
 237  14453.96
 238  15059.24
 239  15111.63
 240  14250.96
 241  13665.13
 242  12590.77
 243  11699.95
 244  11749.48
 245  12155.85
 246  12005.8
 247  12740.68
 248  13969.62
 249  13730.55
 250  13138.07
 251  13204.41
 252  13529.26
 253  13493.35
 254  13564.51
 255  13426.31
