# Input file       =  1209273393.117833_cleaned.dat
# Candidate        =  PSR_0332+5434
# Telescope        =  AR
# Epoch_topo       =  58240.220047660107
# Epoch_bary       =  N/A
# T_sample         =  0.002
# Data Folded      =  7208960
# Data Avg         =  0.436126057423693
# Data StdDev      =  7.17601788219683 
# Profile Bins     =  1024
# Profile Avg      =  3070.19216128048 
# Profile StdDev   =  602.101683958022 
# Reduced chi-sqr  =  1.624
# Prob(Noise)      <  3.4e-33   (~11.9 sigma)
# P_topo (ms)      =  714.545621527404  +/- 2.3e-05
# P'_topo (s/s)    =  -0                +/- 1.24e-11
# P''_topo (s/s^2) =  0                 +/- 5.56e-15
# P_bary (ms)      =  N/A
# P'_bary (s/s)    =  N/A
# P''_bary (s/s^2) =  N/A
# P_orb (s)        =  N/A
# asin(i)/c (s)    =  N/A
# eccentricity     =  N/A
# w (rad)          =  N/A
# T_peri           =  N/A
######################################################
   0  3334.18
   1  3326.634
   2  3150.431
   3  3131.932
   4  2714.151
   5  2690.642
   6  2811.229
   7  2442.778
   8  2754.669
   9  2695.972
  10  2706.708
  11  2744.541
  12  2764.023
  13  3246.555
  14  2955.541
  15  2956.612
  16  3031.16
  17  2798.094
  18  2701.742
  19  2487.765
  20  2628.993
  21  2781.033
  22  2234.1
  23  2570.741
  24  2604.742
  25  2479.282
  26  2845.061
  27  2870.118
  28  3263.593
  29  3469.328
  30  3771.571
  31  4263.656
  32  3869.054
  33  3803.879
  34  3950.573
  35  3621.681
  36  3403.508
  37  2847.274
  38  3001.434
  39  3003.188
  40  2820.741
  41  2844.619
  42  2587.983
  43  2637.916
  44  2805.898
  45  3091.68
  46  2944.924
  47  2672.635
  48  3103.925
  49  3304.148
  50  2842.465
  51  2743.24
  52  2701.581
  53  3010.995
  54  2766.112
  55  2749.112
  56  3135.385
  57  2779.307
  58  2806.315
  59  2835.998
  60  2873.9
  61  3388.76
  62  3343.655
  63  3847.993
  64  4059.246
  65  3729.638
  66  3940.691
  67  3980.611
  68  3920.771
  69  3717.533
  70  3475.354
  71  3616.17
  72  3308.871
  73  3431.231
  74  3199.954
  75  2963.917
  76  3199.681
  77  3040.655
  78  3182.657
  79  3064.299
  80  3005.429
  81  3318.907
  82  2769.291
  83  2606.371
  84  2318.364
  85  2246.085
  86  2790.376
  87  2732.844
  88  3011.715
  89  3106.76
  90  2854.601
  91  3275.932
  92  3055.25
  93  3262.986
  94  3762.43
  95  3728.49
  96  4016.771
  97  3673.067
  98  3748.233
  99  3966.069
 100  3425.338
 101  3388.961
 102  3119.157
 103  3302.6
 104  3478.508
 105  3055.207
 106  2923.719
 107  2842.721
 108  3096.607
 109  3379.448
 110  3241.478
 111  3291.002
 112  3248.512
 113  3261.334
 114  3380.708
 115  2842.568
 116  2859.117
 117  2629.635
 118  2668.966
 119  2598.933
 120  2165.662
 121  2614.292
 122  2678.725
 123  2867.469
 124  2955.591
 125  2889.25
 126  3469.58
 127  3592.537
 128  3814.35
 129  3950.882
 130  3441.476
 131  3654.989
 132  3677.525
 133  3453.154
 134  3217.532
 135  3080.958
 136  3291.834
 137  3171.149
 138  3102.26
 139  3119.857
 140  2867.217
 141  3076.893
 142  2877.593
 143  3051.493
 144  3146.245
 145  3135.028
 146  3520.083
 147  3238.544
 148  2985.799
 149  2912.244
 150  2547.32
 151  2849.758
 152  2455.22
 153  2361.356
 154  2734.206
 155  2322.051
 156  2635.878
 157  2644.946
 158  2720.814
 159  3298.524
 160  3269.994
 161  3809.486
 162  3803.758
 163  3557.197
 164  3824.569
 165  3358.778
 166  3193.979
 167  3121.638
 168  3003.206
 169  3048.036
 170  2411.344
 171  2568.678
 172  2766.998
 173  2730.424
 174  2880.77
 175  2861.32
 176  2848.119
 177  2796.963
 178  2879.009
 179  3254.058
 180  3037.148
 181  2966.875
 182  3032.958
 183  2908.387
 184  2842.535
 185  2463.276
 186  2877.958
 187  2793.173
 188  2367.827
 189  2497.995
 190  2403.981
 191  2696.086
 192  3065.919
 193  3316.395
 194  3845.825
 195  3804.462
 196  4215.312
 197  4282.494
 198  3688.265
 199  3552.122
 200  3535.833
 201  3460.137
 202  3166.715
 203  2868.774
 204  3174.752
 205  3047.875
 206  3091.903
 207  2939.239
 208  2821.016
 209  2778.212
 210  2700.547
 211  3147.371
 212  3118.306
 213  2764.802
 214  3144.081
 215  2888.541
 216  3033.909
 217  2785.433
 218  2583.046
 219  3023.557
 220  2588.529
 221  2932.397
 222  3014.178
 223  2595.753
 224  2927.46
 225  2845.087
 226  3168.4
 227  3586.604
 228  3443.571
 229  3914.103
 230  3707.021
 231  3605.502
 232  3778.073
 233  3435.445
 234  3601.805
 235  3392.242
 236  3374.218
 237  3317.047
 238  2848.313
 239  3023.715
 240  2983.483
 241  2938.616
 242  3323.758
 243  3057.451
 244  3028.271
 245  2917.291
 246  3234.154
 247  3460.904
 248  2863.545
 249  2868.24
 250  2703.576
 251  2931.658
 252  2985.04
 253  2726.733
 254  3063.741
 255  3096.692
 256  2989.669
 257  3309.475
 258  3091.714
 259  3279.235
 260  3359.437
 261  3655.662
 262  4010.733
 263  3588.92
 264  3753.431
 265  3812.45
 266  3541.351
 267  3359.189
 268  3270.967
 269  3494.843
 270  3478.059
 271  3285.824
 272  3213.761
 273  2989.067
 274  3224.508
 275  3205.778
 276  3296.618
 277  3173.948
 278  3000.456
 279  3283.315
 280  3147.539
 281  2923.447
 282  2957.875
 283  2514.587
 284  2819.094
 285  2557.889
 286  2776.713
 287  3227.019
 288  3023.296
 289  3320.777
 290  3223.176
 291  2997.334
 292  3491.544
 293  3330.163
 294  4042.393
 295  4085.204
 296  3834.294
 297  3919.771
 298  3597.661
 299  3417.576
 300  3157.293
 301  2964.273
 302  3276.744
 303  2844.201
 304  3074.934
 305  3141.26
 306  3013.621
 307  3299.236
 308  3161.24
 309  3206.425
 310  3329.916
 311  3092.77
 312  3274.041
 313  2799.836
 314  2811.486
 315  2721.451
 316  2490.273
 317  2591.339
 318  2285.645
 319  2713.532
 320  2973.295
 321  2558.051
 322  2770.032
 323  2951.405
 324  3374.168
 325  3884.937
 326  3718.275
 327  4067.385
 328  3679.824
 329  3664.482
 330  3756.946
 331  3288.662
 332  3140.284
 333  3065.838
 334  3293.837
 335  3300.651
 336  3036.698
 337  3110.971
 338  2897.814
 339  2901.07
 340  2798.112
 341  2998.976
 342  2971.767
 343  2823.004
 344  3293.851
 345  3360.709
 346  3044.761
 347  3082.86
 348  2992.109
 349  3027.563
 350  2483.806
 351  2269.085
 352  2754.966
 353  2402.477
 354  2569.461
 355  2744.063
 356  2583.48
 357  3073.43
 358  3054.38
 359  3556.887
 360  3836.32
 361  3580.323
 362  3992.405
 363  3928.415
 364  3621.061
 365  3501.446
 366  3298.88
 367  3287.406
 368  2789.75
 369  2784.774
 370  3064.334
 371  2800.233
 372  3070.24
 373  3011.953
 374  2916.887
 375  3002.403
 376  2814.68
 377  3288.227
 378  2969.245
 379  2881.008
 380  2877.177
 381  2346.724
 382  2508.098
 383  2350.856
 384  2779.589
 385  2909.471
 386  2559.103
 387  2760.038
 388  2732.827
 389  2664.665
 390  3162.812
 391  3245.229
 392  3589.865
 393  3782.577
 394  3896.067
 395  4286.415
 396  3613.443
 397  3600.326
 398  3611.47
 399  3594.257
 400  3501.491
 401  3175.097
 402  3311.025
 403  3243.464
 404  3226.465
 405  3180.359
 406  2834.309
 407  2842.725
 408  2860.154
 409  3089.171
 410  3052.672
 411  2836.656
 412  3225.078
 413  3248.444
 414  2985.598
 415  2979.876
 416  2890.741
 417  3320.614
 418  3013.271
 419  2834.218
 420  3213.202
 421  3010.954
 422  3421.533
 423  3243.905
 424  3081.833
 425  3348.538
 426  3227.335
 427  4051.195
 428  4064.347
 429  3623.211
 430  3698.078
 431  3712.113
 432  3792.261
 433  3424.828
 434  3223.85
 435  3409.479
 436  3042.244
 437  3216.599
 438  3077.189
 439  2940.505
 440  3276.571
 441  3025.001
 442  3219.368
 443  2912.927
 444  2890.073
 445  3259.82
 446  2829.3
 447  2774.502
 448  2704.602
 449  2589.072
 450  2873.79
 451  2399.177
 452  2815.371
 453  3119.343
 454  2794.834
 455  3060.044
 456  2905.381
 457  3197.627
 458  3560.084
 459  3475.522
 460  4070.896
 461  3691.411
 462  3626.184
 463  3573.186
 464  3246.939
 465  3189.637
 466  2988.795
 467  3099.845
 468  3318.579
 469  2966.874
 470  2988.039
 471  2876.165
 472  3045.506
 473  3213.558
 474  3253.085
 475  3420.615
 476  3192.884
 477  3161.08
 478  3156.74
 479  2829.354
 480  2612.771
 481  2155.214
 482  2334.211
 483  2427.573
 484  2285.633
 485  2766.407
 486  2724.042
 487  2953.585
 488  3049.806
 489  3019.397
 490  3594.65
 491  3520.989
 492  3740.544
 493  3919.478
 494  3403.749
 495  3425.32
 496  3287.051
 497  3180.131
 498  3178.227
 499  2950.397
 500  3311.385
 501  3076.989
 502  2836.693
 503  2874.667
 504  2640.668
 505  2729.972
 506  2400.068
 507  2731.997
 508  2913.014
 509  2782.81
 510  3303.91
 511  2998.784
 512  2778.062
 513  2637.624
 514  2389.039
 515  2490.178
 516  1968.486
 517  2137.812
 518  2611.528
 519  2335.493
 520  2501.42
 521  2544.271
 522  2600.941
 523  3248.632
 524  3286.069
 525  3854.265
 526  3783.462
 527  3684.325
 528  3939.458
 529  3474.615
 530  3231.004
 531  3108.153
 532  2999.535
 533  3071.073
 534  2701.49
 535  2924.45
 536  2876.928
 537  2824.504
 538  3096.745
 539  3249.19
 540  3201.731
 541  3016.652
 542  3123.845
 543  3346.514
 544  3020.633
 545  3026.778
 546  2933.058
 547  2811.84
 548  2746.213
 549  2591.028
 550  3167.018
 551  3062.622
 552  2799.743
 553  2914.044
 554  2640.763
 555  2889.557
 556  3203.601
 557  3378.953
 558  3622.006
 559  3332.477
 560  3876.631
 561  4120.917
 562  3760.683
 563  3665.796
 564  3472.578
 565  3489.621
 566  3321.316
 567  3035
 568  3154.844
 569  2957.605
 570  3161.112
 571  3081.436
 572  2893.677
 573  2855.726
 574  2729.921
 575  3323.94
 576  2996.165
 577  2771.384
 578  2960.312
 579  2933.506
 580  2898.176
 581  2736.934
 582  2705.382
 583  3334.792
 584  2898.582
 585  3053.449
 586  3165.16
 587  2859.698
 588  3396.952
 589  3276.329
 590  3640.212
 591  3581.56
 592  3330.886
 593  3826.869
 594  3894.51
 595  3877.021
 596  3865.209
 597  3804.539
 598  4117.177
 599  3977.305
 600  3866.458
 601  4026.946
 602  3849.135
 603  4134.695
 604  3800.796
 605  3507.123
 606  3560.797
 607  3310.168
 608  3529.189
 609  3198.608
 610  3227.454
 611  3109.195
 612  2699.943
 613  2645.483
 614  2231.872
 615  2662.021
 616  3065.734
 617  2796.658
 618  3097.447
 619  2815.098
 620  3096.725
 621  3341.122
 622  3325.639
 623  3685.772
 624  3642.646
 625  3855.673
 626  3989.558
 627  3703.28
 628  3760.108
 629  3606.085
 630  3330.281
 631  3198.311
 632  2974.6
 633  3226.403
 634  2970.713
 635  2909.259
 636  2755.887
 637  2733.838
 638  2994.999
 639  3108.754
 640  3329.179
 641  3248.595
 642  2912.016
 643  3292.444
 644  3139.854
 645  2869.643
 646  2604.314
 647  2239.813
 648  2514.332
 649  2164.862
 650  2213.243
 651  2695.491
 652  2496.421
 653  3036.163
 654  3004.63
 655  3089.755
 656  3473.315
 657  3369.294
 658  3805.85
 659  3690.752
 660  3307.31
 661  3276.495
 662  3149.862
 663  2951.795
 664  2698.413
 665  2521.14
 666  2796.015
 667  2408.162
 668  2681.006
 669  2730.832
 670  2669.502
 671  2883.41
 672  2935.558
 673  3397.86
 674  3113.595
 675  3108.933
 676  3191.409
 677  3007.567
 678  2686.427
 679  2359.905
 680  2403.39
 681  2521.935
 682  2003.37
 683  2164.689
 684  2371.439
 685  2197.767
 686  2541.606
 687  2497.278
 688  2969.004
 689  3269.665
 690  3416.913
 691  3821.441
 692  3428.344
 693  3589.583
 694  3706.757
 695  3309.046
 696  2939.057
 697  2508.496
 698  2761.484
 699  2781.444
 700  2523.044
 701  2831.785
 702  2788.618
 703  2905.479
 704  2731.97
 705  2884.902
 706  2979.199
 707  2800.554
 708  3198.459
 709  3189.972
 710  2737.572
 711  2714.348
 712  2705.573
 713  2970.713
 714  2581.67
 715  2415.222
 716  2740.597
 717  2333.869
 718  2353.887
 719  2649.216
 720  2654.582
 721  3078.847
 722  3080.706
 723  3557.816
 724  3766.953
 725  3429.674
 726  3822.926
 727  4004.852
 728  3678.892
 729  3543.393
 730  3385.201
 731  3411.294
 732  2962.692
 733  2945.05
 734  2954.209
 735  2767.395
 736  2902.372
 737  2905.666
 738  2939.096
 739  2892.704
 740  2812.294
 741  3134.762
 742  2850.166
 743  2695.755
 744  2680.393
 745  2659.65
 746  2990.608
 747  2687.771
 748  2745.75
 749  2816.05
 750  2524.747
 751  2902.397
 752  2764.136
 753  2827.611
 754  3178.653
 755  3219.334
 756  3618.157
 757  3551.164
 758  3773.98
 759  4163.152
 760  3747.102
 761  3610.032
 762  3318.159
 763  3242.923
 764  3275.248
 765  3061.22
 766  3142.02
 767  2993.097
 768  2943.131
 769  3140.804
 770  2975.042
 771  3104.312
 772  3074.976
 773  3274.916
 774  3342.205
 775  2795.198
 776  2874.129
 777  2656.956
 778  2553.352
 779  2320.385
 780  2025.148
 781  2632.317
 782  2742.172
 783  2829.487
 784  2920.434
 785  2605.228
 786  2965.057
 787  3079.582
 788  3193.228
 789  3607.427
 790  3418.39
 791  3935.184
 792  3905.137
 793  3322.087
 794  3102.1
 795  3035.531
 796  3227.075
 797  3095.248
 798  2948.017
 799  3104.989
 800  2837.487
 801  2973.054
 802  2776.923
 803  2850.506
 804  3070.505
 805  3149.721
 806  3474.4
 807  3191.784
 808  2918.774
 809  3001.31
 810  2643.327
 811  2437.963
 812  2112.703
 813  2146.96
 814  2722.383
 815  2292.094
 816  2402.309
 817  2642.12
 818  2560.085
 819  3213.174
 820  3076.909
 821  3634.988
 822  3568.458
 823  3611.928
 824  4141.53
 825  3790.517
 826  3352.627
 827  3139.015
 828  2919.858
 829  2845.38
 830  2401.639
 831  2675.796
 832  2946.281
 833  2832.579
 834  2831.758
 835  2760.528
 836  2984.168
 837  3139.599
 838  3322.934
 839  3429.904
 840  2928.287
 841  2915.4
 842  3002.21
 843  2910.111
 844  2645.531
 845  2266.523
 846  2523.599
 847  2439.155
 848  2075.584
 849  2308.102
 850  2222.268
 851  2479.455
 852  2765.753
 853  2701.727
 854  3256.779
 855  3180.435
 856  3680.731
 857  3767.539
 858  3255.435
 859  3194.302
 860  3232.86
 861  3182.384
 862  2985.447
 863  2686.102
 864  2910.025
 865  2657.542
 866  2590.472
 867  2624.045
 868  2609.703
 869  2764.08
 870  2773.747
 871  3101.708
 872  3093.245
 873  2696.201
 874  3082.629
 875  2876.441
 876  2777.362
 877  2740.764
 878  2713.803
 879  3053.263
 880  2507.263
 881  2531.43
 882  2620.039
 883  2337.622
 884  2630.471
 885  2678.386
 886  2809.214
 887  3241.333
 888  3371.57
 889  3948.15
 890  3803.583
 891  3529.919
 892  3654.031
 893  3295.589
 894  3101.35
 895  2858.651
 896  2954.68
 897  3149.104
 898  2670.382
 899  2939.154
 900  2769.436
 901  2521.966
 902  2557.443
 903  2652.961
 904  2965.54
 905  2867.103
 906  2962.571
 907  3081.752
 908  2586.674
 909  2587.152
 910  2581.379
 911  2639.802
 912  2619.174
 913  2309.924
 914  2843.488
 915  2896.364
 916  2699.622
 917  2911.858
 918  2483.425
 919  2654.198
 920  2877.638
 921  3294.607
 922  3758.752
 923  3537.677
 924  3850.916
 925  4034.114
 926  3473.003
 927  3263.473
 928  3077.936
 929  3378.101
 930  3243.245
 931  2926.076
 932  2957.303
 933  2973.294
 934  3100.205
 935  3132.809
 936  3097.065
 937  3218.636
 938  3057.53
 939  3461.43
 940  3383.434
 941  3003.636
 942  2826.218
 943  2547.681
 944  2858.602
 945  2733.604
 946  2569.807
 947  2906.354
 948  2637.109
 949  2930.526
 950  2911.599
 951  2871.572
 952  3408.376
 953  3404.142
 954  3715.54
 955  3725.176
 956  3441.141
 957  3677.641
 958  3479.655
 959  3271.489
 960  3184.748
 961  3090.603
 962  3314.431
 963  2845.66
 964  2936.174
 965  2923.426
 966  2810.708
 967  3124.145
 968  3070.916
 969  3220.451
 970  3255.089
 971  3080.561
 972  3104.91
 973  2794.632
 974  2671.552
 975  2571.789
 976  2233.97
 977  2366.857
 978  1931.311
 979  2145.776
 980  2617.943
 981  2362.968
 982  2862.145
 983  2782.579
 984  3111.771
 985  3502.928
 986  3357.435
 987  3735.143
 988  3508.782
 989  3627.197
 990  3774.537
 991  3364.543
 992  3256.338
 993  3067.019
 994  2983.147
 995  2921.998
 996  2654.279
 997  2756.365
 998  2812.453
 999  2822.211
1000  2668.151
1001  2533.777
1002  2617.354
1003  2787.468
1004  3204.593
1005  3374.775
1006  2901.696
1007  2990.164
1008  2987.527
1009  2940.287
1010  2511.081
1011  2121.562
1012  2530.191
1013  2084.92
1014  2086.688
1015  2320.89
1016  2281.428
1017  2684.766
1018  2838.99
1019  3199.681
1020  3613.1
1021  3286.24
1022  3706.816
1023  3629.237
