# Input file       =  1209374171.10886_cleaned.dat
# Candidate        =  PSR_0332+5434
# Telescope        =  AR
# Epoch_topo       =  58241.386459593290
# Epoch_bary       =  N/A
# T_sample         =  0.002
# Data Folded      =  7340032
# Data Avg         =  0.0269091859050152
# Data StdDev      =  1.00006788766757 
# Profile Bins     =  512
# Profile Avg      =  385.769962647334 
# Profile StdDev   =  119.741164773336 
# Reduced chi-sqr  =  0.840
# Prob(Noise)      <  0.996   (~0.0 sigma)
# P_topo (ms)      =  714.54457397556   +/- 0.00101
# P'_topo (s/s)    =  -0                +/- 5.31e-10
# P''_topo (s/s^2) =  0                 +/- 2.34e-13
# P_bary (ms)      =  N/A
# P'_bary (s/s)    =  N/A
# P''_bary (s/s^2) =  N/A
# P_orb (s)        =  N/A
# asin(i)/c (s)    =  N/A
# eccentricity     =  N/A
# w (rad)          =  N/A
# T_peri           =  N/A
######################################################
   0  509.7412
   1  458.7401
   2  465.6176
   3  465.7919
   4  495.0081
   5  524.8937
   6  463.1584
   7  475.8804
   8  452.571
   9  427.587
  10  470.2721
  11  412.9461
  12  436.0997
  13  381.8485
  14  399.9385
  15  471.8398
  16  484.1149
  17  392.3805
  18  338.8758
  19  389.5844
  20  403.4337
  21  402.7554
  22  402.3764
  23  365.9156
  24  414.4279
  25  400.9281
  26  403.0534
  27  443.7797
  28  436.4444
  29  465.8113
  30  420.2137
  31  455.964
  32  450.6258
  33  406.5987
  34  346.1454
  35  348.1827
  36  404.8776
  37  477.5914
  38  469.464
  39  404.3193
  40  399.0385
  41  388.657
  42  426.327
  43  460.784
  44  432.8073
  45  415.9167
  46  455.566
  47  373.7787
  48  418.6101
  49  432.134
  50  406.2413
  51  390.0716
  52  388.5517
  53  414.4843
  54  327.5623
  55  383.1547
  56  380.2532
  57  380.378
  58  392.9186
  59  385.1052
  60  360.4258
  61  343.6995
  62  463.1037
  63  478.4872
  64  423.8137
  65  378.9417
  66  375.6534
  67  376.4761
  68  442.4585
  69  407.3372
  70  379.569
  71  412.4961
  72  396.2723
  73  470.3668
  74  492.791
  75  415.3083
  76  464.7695
  77  449.4291
  78  370.4818
  79  398.3332
  80  459.334
  81  492.5797
  82  446.3548
  83  387.3317
  84  399.9037
  85  446.2198
  86  431.8977
  87  444.4088
  88  480.7351
  89  498.2935
  90  499.9596
  91  493.3436
  92  442.6544
  93  422.466
  94  422.9349
  95  407.55
  96  364.9095
  97  410.5896
  98  408.6897
  99  404.1351
 100  443.8298
 101  388.8158
 102  357.426
 103  374.4317
 104  394.554
 105  459.4069
 106  392.9656
 107  371.1232
 108  335.0793
 109  268.5736
 110  353.7423
 111  423.6281
 112  436.8015
 113  402.4122
 114  315.3814
 115  342.6368
 116  381.3589
 117  384.5321
 118  369.9689
 119  323.2672
 120  353.5339
 121  432.6378
 122  399.1465
 123  374.1379
 124  407.9364
 125  432.1808
 126  431.6416
 127  389.5635
 128  450.3988
 129  448.7376
 130  431.9904
 131  384.2465
 132  396.1889
 133  459.095
 134  496.307
 135  479.3773
 136  458.58
 137  546.8525
 138  520.8904
 139  454.035
 140  520.0851
 141  501.5055
 142  529.4642
 143  547.9007
 144  399.6894
 145  416.2815
 146  392.4655
 147  437.0687
 148  372.4116
 149  409.1638
 150  471.225
 151  496.6227
 152  459.616
 153  455.7798
 154  461.9195
 155  490.33
 156  462.4815
 157  441.9323
 158  473.2423
 159  474.9953
 160  435.7416
 161  418.8871
 162  470.5735
 163  470.6101
 164  461.5173
 165  494.3417
 166  519.4228
 167  476.6012
 168  466.1383
 169  417.467
 170  424.6653
 171  385.8024
 172  398.9739
 173  410.394
 174  326.4409
 175  339.7523
 176  445.3426
 177  401.8257
 178  347.3405
 179  403.6096
 180  430.6262
 181  380.3843
 182  405.9797
 183  444.5144
 184  429.3448
 185  327.3324
 186  369.5137
 187  419.3401
 188  419.8322
 189  407.1393
 190  374.5512
 191  393.9591
 192  382.4556
 193  342.5289
 194  423.4362
 195  440.6837
 196  446.3733
 197  432.5451
 198  397.0799
 199  383.4839
 200  368.6068
 201  360.7261
 202  355.922
 203  336.2539
 204  325.1589
 205  335.7326
 206  285.7523
 207  337.0319
 208  283.6964
 209  347.8904
 210  330.6826
 211  339.5782
 212  310.5828
 213  329.0326
 214  372.1068
 215  297.2865
 216  339.2975
 217  335.3483
 218  327.894
 219  353.8805
 220  356.4847
 221  296.431
 222  273.118
 223  330.8158
 224  324.5793
 225  335.381
 226  337.3323
 227  294.8557
 228  312.2112
 229  270.4696
 230  302.9683
 231  277.4151
 232  293.0513
 233  330.5434
 234  328.6529
 235  328.8398
 236  321.1132
 237  336.2025
 238  386.2237
 239  391.5088
 240  338.5903
 241  341.7627
 242  325.7248
 243  334.8603
 244  401.7461
 245  413.2299
 246  418.1407
 247  398.1536
 248  364.4474
 249  306.8593
 250  313.5428
 251  352.8592
 252  355.3265
 253  332.0667
 254  281.693
 255  310.0225
 256  283.4486
 257  330.7606
 258  398.5
 259  333.3026
 260  305.8765
 261  315.7546
 262  376.0796
 263  374.2022
 264  327.5457
 265  298.3706
 266  268.698
 267  299.7531
 268  272.278
 269  296.766
 270  295.3427
 271  299.6378
 272  366.683
 273  379.7948
 274  319.9714
 275  285.5864
 276  262.9085
 277  286.2732
 278  309.5681
 279  352.7314
 280  310.7937
 281  322.3979
 282  284.1411
 283  314.1648
 284  288.5931
 285  270.6706
 286  293.7998
 287  328.8934
 288  307.1267
 289  246.0735
 290  228.0836
 291  209.2713
 292  296.8208
 293  282.4443
 294  252.7563
 295  293.0458
 296  260.9867
 297  273.3449
 298  315.1741
 299  350.1134
 300  291.219
 301  230.1582
 302  307.7447
 303  284.3501
 304  282.6268
 305  284.2309
 306  349.3405
 307  310.4535
 308  281.9245
 309  283.053
 310  271.0896
 311  273.1631
 312  278.3838
 313  321.2516
 314  319.2468
 315  345.9092
 316  336.565
 317  373.4847
 318  305.1449
 319  248.7976
 320  358.4179
 321  421.3163
 322  381.2129
 323  380.3242
 324  322.9268
 325  345.8461
 326  304.7591
 327  331.3677
 328  372.0621
 329  377.6706
 330  327.788
 331  361.7331
 332  445.0424
 333  430.1068
 334  339.0109
 335  354.6443
 336  452.7747
 337  449.0634
 338  457.6059
 339  481.6623
 340  433.5856
 341  415.7973
 342  450.3771
 343  458.0531
 344  522.1829
 345  549.6829
 346  489.2239
 347  380.1144
 348  461.349
 349  506.7852
 350  464.8674
 351  455.6708
 352  453.5072
 353  436.6967
 354  451.7971
 355  440.5639
 356  429.4911
 357  439.7062
 358  473.3488
 359  445.9528
 360  410.1295
 361  467.3967
 362  481.245
 363  461.2983
 364  415.4984
 365  456.6808
 366  475.9147
 367  457.2887
 368  413.7487
 369  461.1274
 370  514.7331
 371  510.623
 372  450.1894
 373  461.6958
 374  444.9641
 375  469.7481
 376  459.9969
 377  426.7951
 378  445.8018
 379  468.8912
 380  410.9404
 381  354.8991
 382  406.3573
 383  368.4993
 384  365.0664
 385  344.1093
 386  326.3606
 387  316.6443
 388  344.8718
 389  362.6639
 390  359.796
 391  390.0098
 392  412.9498
 393  301.3261
 394  288.9912
 395  282.8672
 396  302.6522
 397  325.6434
 398  283.7777
 399  295.3361
 400  322.7364
 401  302.3835
 402  291.7952
 403  331.9517
 404  323.0335
 405  318.7551
 406  289.1903
 407  301.2358
 408  300.1932
 409  291.1779
 410  284.4118
 411  322.1854
 412  264.4871
 413  299.6347
 414  269.2453
 415  276.6661
 416  209.3971
 417  242.263
 418  291.2003
 419  278.0432
 420  227.6761
 421  225.3327
 422  260.7559
 423  333.5977
 424  335.2318
 425  285.022
 426  277.9864
 427  281.825
 428  275.8617
 429  269.1591
 430  258.6678
 431  257.315
 432  236.7469
 433  272.4876
 434  285.8798
 435  305.3607
 436  329.3936
 437  331.7719
 438  287.7567
 439  306.6643
 440  286.6114
 441  277.0468
 442  353.6119
 443  414.1555
 444  377.128
 445  315.3611
 446  317.3508
 447  347.3271
 448  305.7156
 449  302.0206
 450  344.1848
 451  353.0848
 452  384.1557
 453  422.1456
 454  461.6427
 455  416.1076
 456  349.3264
 457  431.0804
 458  463.3348
 459  413.6854
 460  435.1279
 461  414.5594
 462  402.9889
 463  430.3638
 464  419.5183
 465  400.4967
 466  333.1721
 467  414.6739
 468  356.2028
 469  369.1107
 470  369.9486
 471  348.8615
 472  350.7727
 473  348.5257
 474  399.6578
 475  385.5214
 476  378.1682
 477  317.6762
 478  360.114
 479  420.4821
 480  441.3398
 481  429.3244
 482  477.7473
 483  454.9154
 484  438.733
 485  437.1399
 486  443.1326
 487  377.5308
 488  386.3235
 489  461.8494
 490  464.7036
 491  385.8477
 492  370.453
 493  350.2346
 494  373.534
 495  391.2131
 496  473.4281
 497  456.9891
 498  532.6652
 499  629.6489
 500  663.8411
 501  763.3265
 502  808.9896
 503  784.3358
 504  757.3443
 505  569.3427
 506  462.7897
 507  445.209
 508  437.2965
 509  421.8529
 510  411.9432
 511  472.9395
