# Input file       =  1209130620.106693_cleaned.dat
# Candidate        =  PSR_0332+5434
# Telescope        =  AR
# Epoch_topo       =  58238.567582253389
# Epoch_bary       =  N/A
# T_sample         =  0.002
# Data Folded      =  7340032
# Data Avg         =  0.258969148051359
# Data StdDev      =  5.81458080311327 
# Profile Bins     =  512
# Profile Avg      =  3712.52900982574 
# Profile StdDev   =  696.197414814807 
# Reduced chi-sqr  =  1.020
# Prob(Noise)      <  0.365   (~0.3 sigma)
# P_topo (ms)      =  714.547455587971  +/- 0.000187
# P'_topo (s/s)    =  -0                +/- 9.88e-11
# P''_topo (s/s^2) =  0                 +/- 4.36e-14
# P_bary (ms)      =  N/A
# P'_bary (s/s)    =  N/A
# P''_bary (s/s^2) =  N/A
# P_orb (s)        =  N/A
# asin(i)/c (s)    =  N/A
# eccentricity     =  N/A
# w (rad)          =  N/A
# T_peri           =  N/A
######################################################
   0  3213.441
   1  3491.683
   2  3911.717
   3  3514.527
   4  3280.982
   5  3332.859
   6  3454.563
   7  3486.142
   8  3456.641
   9  3682.952
  10  3351.145
  11  3079.435
  12  3081.681
  13  3420.629
  14  3373.332
  15  3830.568
  16  3871.597
  17  3663.119
  18  3206.128
  19  3167.042
  20  3261.155
  21  3365.839
  22  3664.776
  23  3650.778
  24  3645.331
  25  3211.52
  26  2760.241
  27  3095.4
  28  3348.491
  29  3246.401
  30  3386.401
  31  3484.988
  32  3292.916
  33  3155.023
  34  3490.53
  35  3990.834
  36  3862.374
  37  3840.392
  38  4037.538
  39  3998.62
  40  4518.422
  41  4228.935
  42  4178.046
  43  4434.308
  44  4488.684
  45  4569.203
  46  4686.183
  47  4625.909
  48  4593.718
  49  5382.288
  50  5443.911
  51  5562.852
  52  5795.78
  53  5756.311
  54  4721.302
  55  3754.434
  56  3387.773
  57  3326.663
  58  3405.172
  59  3036.063
  60  2884.106
  61  2991.117
  62  2942.881
  63  3064.439
  64  3521.769
  65  3514.878
  66  3569.695
  67  3576.383
  68  3530.472
  69  3251.305
  70  3441.205
  71  3786.126
  72  3611.541
  73  3933.813
  74  3997.505
  75  3654.267
  76  3312.868
  77  3532.458
  78  4210.237
  79  4124.052
  80  4257.452
  81  4503.74
  82  4069.418
  83  3851.802
  84  4155.509
  85  4192.142
  86  4179.496
  87  3993.627
  88  3624.378
  89  3570.413
  90  3769.897
  91  3661.976
  92  3382.98
  93  3597.802
  94  3471.3
  95  3497.038
  96  3242.584
  97  3494.139
  98  3659.693
  99  3844.376
 100  3911.411
 101  3859.922
 102  3663.648
 103  3537.842
 104  3349.69
 105  3608.123
 106  3791.733
 107  3679.134
 108  3428.81
 109  3939.969
 110  4303.863
 111  3974.562
 112  3483.068
 113  3617.852
 114  3668.565
 115  3948.003
 116  3960.294
 117  3875.16
 118  4174.941
 119  4142.699
 120  3952.362
 121  3736.86
 122  4342.21
 123  4423.068
 124  3805.663
 125  3748.438
 126  3951.705
 127  4084.519
 128  4283.113
 129  4082.873
 130  3983.165
 131  3418.448
 132  3878.025
 133  3779.662
 134  3645.332
 135  3516.504
 136  3257.726
 137  2872.281
 138  3183.242
 139  3438.475
 140  3201.787
 141  3460.748
 142  3653.029
 143  4033.91
 144  3819.294
 145  3832.593
 146  3730.284
 147  3581.063
 148  3625.477
 149  3727.303
 150  3403.041
 151  3427.3
 152  3307.643
 153  3560.563
 154  3327.137
 155  3674.044
 156  4004.415
 157  3625.983
 158  3279.087
 159  3147.876
 160  3188.737
 161  3812.122
 162  3269.559
 163  3077.479
 164  3292.345
 165  3466.169
 166  3407.781
 167  3266.725
 168  3152.207
 169  3378.95
 170  3529.263
 171  3382.41
 172  3416.252
 173  3148.518
 174  3016.756
 175  3372
 176  3048.719
 177  3622.17
 178  3200.551
 179  3006.219
 180  3209.599
 181  3998.302
 182  3707.677
 183  3627.721
 184  3481.482
 185  3516.038
 186  3954.987
 187  4582.68
 188  4729.338
 189  4730.666
 190  4467.852
 191  4376.366
 192  4390.011
 193  4546.586
 194  5048.781
 195  4751.812
 196  4926.559
 197  5234.257
 198  4847.333
 199  4800.458
 200  4665.117
 201  4526.725
 202  4036.213
 203  4136.94
 204  3708.747
 205  3749.137
 206  3861.748
 207  3703.207
 208  3589.805
 209  3599.752
 210  3892.946
 211  3679.932
 212  3118.013
 213  3569.044
 214  3885.371
 215  3859.219
 216  3638.92
 217  3564.206
 218  3984.794
 219  4111.345
 220  4035.176
 221  4123.87
 222  4164.064
 223  4588.947
 224  4440.527
 225  4325.481
 226  4470.149
 227  4486.589
 228  4496.997
 229  4687.95
 230  4593.994
 231  4354.916
 232  4364.943
 233  4301.951
 234  4240.619
 235  3836.886
 236  3433.543
 237  3685.228
 238  4030.614
 239  3733.515
 240  3478.316
 241  3501.422
 242  3769.967
 243  3828.793
 244  3964.208
 245  4007.372
 246  3631.225
 247  3408.422
 248  3480.562
 249  3238.586
 250  3254.635
 251  3264.158
 252  3544.477
 253  3780.019
 254  3883.291
 255  4156.848
 256  4118.533
 257  3614.975
 258  3828.732
 259  4440.532
 260  4369.524
 261  4355.093
 262  4587.904
 263  4451.004
 264  4427.772
 265  4289.844
 266  4259.797
 267  4133.434
 268  4504.66
 269  4075.828
 270  3965.812
 271  3543.984
 272  3815.764
 273  3882.657
 274  3594.275
 275  3752.754
 276  3755.299
 277  3823.547
 278  3841.804
 279  3306.958
 280  3459.557
 281  3528.358
 282  3400.415
 283  3492.833
 284  3461.887
 285  3765.158
 286  3827.62
 287  3593.603
 288  3524.488
 289  3789.643
 290  4151.627
 291  4013.382
 292  3698.36
 293  3568.727
 294  3600.029
 295  3570.4
 296  3872.762
 297  4056.96
 298  4129.448
 299  4378.949
 300  4238.34
 301  4274.086
 302  4179.058
 303  4100.104
 304  4162.47
 305  3967.863
 306  3787.815
 307  4009.956
 308  4043.685
 309  4237.36
 310  3806.472
 311  3845.547
 312  3910.627
 313  4043.261
 314  3723.791
 315  3920.318
 316  3922.955
 317  3844.131
 318  3884.461
 319  4072.996
 320  3845.059
 321  3503.908
 322  3332.893
 323  3463.275
 324  3593.865
 325  3572.361
 326  3691.06
 327  3530.572
 328  3595.83
 329  3514.592
 330  3701.972
 331  3788.614
 332  3465.098
 333  3896.428
 334  4069.049
 335  3811.908
 336  3755.777
 337  3916.605
 338  3746.313
 339  3639.656
 340  3390.793
 341  4028.096
 342  4706.655
 343  4665.176
 344  3912.618
 345  3354.342
 346  3160.329
 347  3150.523
 348  3489.153
 349  3712.359
 350  3467.188
 351  2954.667
 352  2965.723
 353  3095.606
 354  2764.233
 355  2831.947
 356  2453.152
 357  2628.684
 358  3165.387
 359  3301.173
 360  3332.136
 361  3625.287
 362  3875.735
 363  4001.715
 364  4249.201
 365  4517.948
 366  4658.714
 367  4496.871
 368  4447.621
 369  4532.246
 370  4224.881
 371  4067.61
 372  4120.556
 373  4190.693
 374  4385.489
 375  4482.999
 376  4234.302
 377  4121.025
 378  3896.319
 379  3760.456
 380  3695.38
 381  3826.221
 382  3539.081
 383  3462.973
 384  3751.781
 385  3899.848
 386  3914.793
 387  3687.071
 388  3003.905
 389  3010.788
 390  3147.254
 391  3556.909
 392  3573.355
 393  3756.796
 394  3709.35
 395  3127.656
 396  3320.824
 397  3279.421
 398  3408.78
 399  3540.968
 400  3875.637
 401  3909.121
 402  3558.118
 403  3740.218
 404  3892.87
 405  3611.433
 406  3357.77
 407  3389.668
 408  3538.372
 409  3865.731
 410  4043.314
 411  3855.556
 412  4164.315
 413  3529.068
 414  3198.845
 415  3335.294
 416  3509.539
 417  3649.006
 418  3889.638
 419  3829.25
 420  3294.466
 421  3190.864
 422  3043.894
 423  2753.468
 424  2833.142
 425  2777.69
 426  2856.48
 427  2832.986
 428  3195.044
 429  3295.461
 430  3537.177
 431  3507.371
 432  3774.518
 433  4274.013
 434  4191.939
 435  3682.145
 436  3531.383
 437  3705.62
 438  4106.981
 439  4109.603
 440  4291.79
 441  4201.314
 442  4528.181
 443  4393.71
 444  4365.54
 445  4442.501
 446  3965.53
 447  4080.937
 448  4355.489
 449  4221.701
 450  3961.561
 451  3965.717
 452  3611.599
 453  3410.402
 454  3405.175
 455  3516.618
 456  3369.8
 457  3450.279
 458  3573.973
 459  3559.732
 460  3535.859
 461  3619.106
 462  3266.907
 463  3173.28
 464  2978.86
 465  2847.73
 466  3299.384
 467  3096.507
 468  3415.381
 469  3288.255
 470  3144.634
 471  3200.962
 472  3511.578
 473  3621.472
 474  3269.194
 475  3157.37
 476  3566.338
 477  3296.475
 478  3102.935
 479  3007.594
 480  3529.7
 481  3224.773
 482  2891.123
 483  2994.05
 484  3025.271
 485  3612.343
 486  3635.419
 487  3307.114
 488  3136.505
 489  3346.706
 490  3170.482
 491  3275.007
 492  3671.113
 493  3785.477
 494  3708.111
 495  3167.328
 496  2780.675
 497  2576.903
 498  2975.455
 499  2817.402
 500  2644.734
 501  2640.748
 502  2732.006
 503  2604.575
 504  2703.163
 505  2348.408
 506  2634.121
 507  3061.942
 508  3155.062
 509  3075.892
 510  3210.747
 511  3191.537
