# Input file       =  1209819896.111669_cleaned.dat
# Candidate        =  PSR_0332+5434
# Telescope        =  AR
# Epoch_topo       =  58246.545313792463
# Epoch_bary       =  N/A
# T_sample         =  0.002
# Data Folded      =  7340032
# Data Avg         =  0.256914210166932
# Data StdDev      =  6.76165212583826 
# Profile Bins     =  512
# Profile Avg      =  3683.5316992728  
# Profile StdDev   =  809.593139950031 
# Reduced chi-sqr  =  0.751
# Prob(Noise)      <  1   (~0.0 sigma)
# P_topo (ms)      =  714.540119413523  +/- 0.0005
# P'_topo (s/s)    =  -0                +/- 2.64e-10
# P''_topo (s/s^2) =  0                 +/- 1.17e-13
# P_bary (ms)      =  N/A
# P'_bary (s/s)    =  N/A
# P''_bary (s/s^2) =  N/A
# P_orb (s)        =  N/A
# asin(i)/c (s)    =  N/A
# eccentricity     =  N/A
# w (rad)          =  N/A
# T_peri           =  N/A
######################################################
   0  3482.669
   1  3868.111
   2  3722.292
   3  3918.42
   4  3929.452
   5  3782.823
   6  3808.555
   7  3727.475
   8  4001.113
   9  3650.932
  10  3986.666
  11  3962.575
  12  3665.842
  13  3822.458
  14  4118.658
  15  4375.365
  16  4408.425
  17  4567.13
  18  4832.858
  19  4818.279
  20  4805.753
  21  5149.067
  22  4756.052
  23  4715.83
  24  4947.105
  25  4386.034
  26  4764.52
  27  5113.149
  28  4609.1
  29  4096.838
  30  4006.028
  31  4009.045
  32  4121.898
  33  4111.589
  34  3884.839
  35  4011.265
  36  4283.202
  37  4524.511
  38  4752.032
  39  4520.31
  40  4257.406
  41  3858.575
  42  3873.761
  43  4353.172
  44  4297.917
  45  4135.909
  46  3774.314
  47  3890.648
  48  4003.513
  49  4277.864
  50  4157.333
  51  4481.062
  52  4553.448
  53  4519.192
  54  4206.623
  55  4155.808
  56  4331.753
  57  4372.294
  58  4194.152
  59  4211.419
  60  4251.752
  61  4243.545
  62  4346.056
  63  4453.979
  64  3997.665
  65  3879.55
  66  4118.362
  67  4241.145
  68  4130.095
  69  4440.615
  70  4438.135
  71  3971.637
  72  3204.123
  73  3502.08
  74  3842.721
  75  3769.104
  76  3935.207
  77  3623.295
  78  3464.618
  79  3224.449
  80  3290.377
  81  3332.735
  82  3272.471
  83  3475.769
  84  4074.976
  85  3927.306
  86  3690.844
  87  3381.708
  88  3269.181
  89  3208.459
  90  3185.774
  91  3135.342
  92  3135.671
  93  3232.107
  94  3032.755
  95  2804.537
  96  2912.484
  97  3132.352
  98  2888.63
  99  2842.827
 100  2836.098
 101  2969.808
 102  3038.753
 103  3161.642
 104  3835.66
 105  4265.09
 106  3710.634
 107  3714.307
 108  3985.919
 109  4100.292
 110  4291.646
 111  4703.1
 112  5093.854
 113  5372.169
 114  5201.48
 115  4818.409
 116  4149.95
 117  3503.982
 118  3477.452
 119  3665.037
 120  3170.306
 121  3189.646
 122  3260.754
 123  3280.056
 124  3650.329
 125  3979.727
 126  3861.181
 127  3849.688
 128  4204.31
 129  3663.374
 130  3471.635
 131  3325.751
 132  3249.356
 133  3291.624
 134  3347.667
 135  3407.922
 136  3230.246
 137  3066.88
 138  3502.856
 139  3474.721
 140  3345.509
 141  3349.901
 142  3523.741
 143  3235.434
 144  3519.614
 145  3542.423
 146  3441.44
 147  3543.69
 148  3712.408
 149  3585.933
 150  3348.819
 151  3843.885
 152  4209.447
 153  4242.373
 154  3846.033
 155  4092.611
 156  3661.076
 157  3709.862
 158  3971.129
 159  4168.396
 160  4121.229
 161  4148.842
 162  3874.075
 163  3828.771
 164  3760.981
 165  3982.894
 166  3699.485
 167  3771.556
 168  3797.477
 169  3785.338
 170  3821.996
 171  3999.864
 172  3606.366
 173  3369.035
 174  3325.879
 175  3438.097
 176  3245.537
 177  3060.739
 178  2931.047
 179  2841.945
 180  2936.071
 181  2972.139
 182  2911.956
 183  2639.224
 184  2783.436
 185  3009.935
 186  2694.401
 187  2825.328
 188  2973.463
 189  2706.676
 190  2599.204
 191  2481.79
 192  2405.018
 193  2648.432
 194  3137.205
 195  2832.985
 196  2953.851
 197  3182.436
 198  3177.199
 199  3246.448
 200  3094.731
 201  2662.311
 202  2625.673
 203  2871.676
 204  3077.843
 205  3369.403
 206  3242.104
 207  2887.951
 208  3077.362
 209  2684.655
 210  2526.915
 211  2563.013
 212  2407.234
 213  2961.013
 214  3457.099
 215  3521.127
 216  3183.243
 217  3321.928
 218  3457.057
 219  3484.879
 220  3793.964
 221  3895.712
 222  3717.885
 223  3682.69
 224  3812.914
 225  3701.203
 226  4042.405
 227  3969.386
 228  3817.879
 229  4135.278
 230  3714.573
 231  3627.665
 232  3658.003
 233  3862.667
 234  4127.985
 235  4213.615
 236  3700.912
 237  3701.23
 238  3658.087
 239  3604.065
 240  3470.668
 241  3481.144
 242  3358.619
 243  3281.02
 244  3436.498
 245  2970.813
 246  2995.023
 247  3199.676
 248  3261.906
 249  3314.21
 250  3134.603
 251  2898.703
 252  2885.689
 253  2731.949
 254  2920.798
 255  3247.577
 256  3489.374
 257  3483.061
 258  3315.643
 259  3451.564
 260  3280.956
 261  3098.423
 262  2932.612
 263  2879.416
 264  2839.602
 265  3171.833
 266  3280.004
 267  3096.302
 268  3512.748
 269  3784.904
 270  3941.428
 271  4137.575
 272  3986.187
 273  4090.392
 274  4010.317
 275  4512.509
 276  4594.776
 277  4205.412
 278  4122.387
 279  4211.09
 280  4418.503
 281  4550.88
 282  4197.466
 283  4065.56
 284  4019.065
 285  3864.044
 286  3690.545
 287  4011.575
 288  3496.476
 289  3790.097
 290  4268.125
 291  4165.867
 292  3832.306
 293  3645.261
 294  3818.54
 295  3828.969
 296  3894.993
 297  3868.296
 298  3594.547
 299  3456.709
 300  3589.251
 301  3372.036
 302  3702.832
 303  3703.426
 304  3672.489
 305  3549.259
 306  3466.033
 307  3500.738
 308  3562.558
 309  3909.105
 310  4190.691
 311  4224.744
 312  4059.34
 313  3816.95
 314  3813.357
 315  3979.602
 316  4597.844
 317  5011.117
 318  5073.848
 319  5138.599
 320  4906.762
 321  4509.754
 322  4500.685
 323  4327.354
 324  4113.867
 325  3968.281
 326  3659.931
 327  3749.477
 328  3808.366
 329  3951.631
 330  3836.272
 331  3744.356
 332  3710.512
 333  3669.479
 334  3655.705
 335  4168.389
 336  3823.221
 337  3333.957
 338  3584.148
 339  3835.641
 340  3757.125
 341  3693.786
 342  3684.58
 343  3029.428
 344  3246.184
 345  2910.278
 346  3370.479
 347  3484.949
 348  3381.689
 349  3860.566
 350  3921.078
 351  3755.719
 352  3890.892
 353  4109.054
 354  4080.072
 355  4182.996
 356  3398.038
 357  3338.273
 358  3254.802
 359  3253.323
 360  3601.324
 361  3697.116
 362  4271.315
 363  4061.072
 364  4048.942
 365  4032.077
 366  4478.883
 367  4388.389
 368  4099.004
 369  3921.457
 370  3797.765
 371  3625.002
 372  3777.589
 373  3926.5
 374  3650.027
 375  3843.322
 376  3555.687
 377  3486.984
 378  3370.862
 379  2983.752
 380  3219.666
 381  3524.325
 382  3628.525
 383  3515.698
 384  3374.846
 385  3394.926
 386  3138.898
 387  3031.408
 388  2873.557
 389  3440.169
 390  3423.581
 391  3335.194
 392  3433.259
 393  3514.818
 394  3226.654
 395  3321.925
 396  3260.921
 397  3541.207
 398  3404.359
 399  2942.595
 400  2859.955
 401  2775.376
 402  3108.215
 403  3115.2
 404  3405.394
 405  3591.171
 406  3289.557
 407  3510.212
 408  3537.554
 409  3245.188
 410  3082.676
 411  3169.275
 412  3347.962
 413  3543.774
 414  3808.569
 415  3478.996
 416  3432.385
 417  3800.474
 418  3738.803
 419  3615.638
 420  3263.054
 421  3043.281
 422  3228.968
 423  3692.582
 424  3504.77
 425  3759.012
 426  3846.903
 427  3621.886
 428  3419.736
 429  3290.627
 430  3656.69
 431  4093.888
 432  4431.534
 433  4123.483
 434  3855.812
 435  4073.615
 436  4094.857
 437  3933.006
 438  4016.591
 439  4287.62
 440  3970.72
 441  3736.117
 442  3769.698
 443  3820.546
 444  3726.694
 445  3837.843
 446  3846.027
 447  4057.25
 448  4270.539
 449  3956.624
 450  3977.304
 451  3665.477
 452  3592.311
 453  3730.412
 454  3589.079
 455  3541.077
 456  3852.445
 457  3874.313
 458  3577.685
 459  3729.208
 460  3613.643
 461  3759.708
 462  3649.802
 463  3439.859
 464  3514.293
 465  3612.686
 466  3561.096
 467  3557.637
 468  3157.031
 469  2726.994
 470  3253.014
 471  3488.158
 472  3594.03
 473  3046.861
 474  2792.161
 475  3284.287
 476  3092.614
 477  3408.212
 478  3510.375
 479  3566.771
 480  3893.088
 481  3788.091
 482  3707.771
 483  3595.783
 484  3471.898
 485  3540.614
 486  3873.423
 487  4164.847
 488  3786.989
 489  3878.096
 490  4326.792
 491  4432.079
 492  3870.225
 493  3685.047
 494  4105.713
 495  4092.964
 496  4393.85
 497  4405.534
 498  4156.823
 499  3805.801
 500  3562.546
 501  3275.777
 502  3878.5
 503  3493.681
 504  3102.545
 505  3407.323
 506  3847.963
 507  3563.614
 508  3683.868
 509  3751.094
 510  3570.535
 511  3417.113
