# Input file       =  1209561351.137129-PSRB0329-2ms-sampling-dd.dat
# Candidate        =  PSR_0332+5434
# Telescope        =  AR
# Epoch_topo       =  58243.552895105662
# Epoch_bary       =  N/A
# T_sample         =  0.002
# Data Folded      =  7340032
# Data Avg         =  7.22297676282712e-11
# Data StdDev      =  7.82124413379228 
# Profile Bins     =  512
# Profile Avg      =  -0.845872710753  
# Profile StdDev   =  936.46130838292  
# Reduced chi-sqr  =  0.602
# Prob(Noise)      <  1   (~0.0 sigma)
# P_topo (ms)      =  714.542914918828  +/- 0.000905
# P'_topo (s/s)    =  -0                +/- 4.78e-10
# P''_topo (s/s^2) =  0                 +/- 2.11e-13
# P_bary (ms)      =  N/A
# P'_bary (s/s)    =  N/A
# P''_bary (s/s^2) =  N/A
# P_orb (s)        =  N/A
# asin(i)/c (s)    =  N/A
# eccentricity     =  N/A
# w (rad)          =  N/A
# T_peri           =  N/A
######################################################
   0  -627.2089
   1  -742.7427
   2  -538.5328
   3  -722.9382
   4  -784.7022
   5  -860.35
   6  -806.5668
   7  -958.7999
   8  -642.7268
   9  -482.7043
  10  -552.455
  11  -565.9982
  12  -631.2324
  13  -641.1196
  14  -894.3914
  15  -776.0859
  16  -273.6157
  17  -397.8551
  18  -312.9984
  19  -303.202
  20  -328.281
  21  -247.9028
  22  -174.5844
  23  -361.92
  24  -319.4015
  25  -688.2701
  26  -1049.34
  27  -708.4114
  28  -554.0064
  29  -257.6446
  30  -487.1372
  31  -290.8702
  32  -484.5367
  33  -1029.138
  34  -847.6932
  35  -797.0281
  36  -888.6512
  37  -484.307
  38  -387.8692
  39  -109.6567
  40  -237.3351
  41  -245.7006
  42  -576.6104
  43  -526.2529
  44  -712.5269
  45  -508.9897
  46  -132.6311
  47  25.36995
  48  260.953
  49  -263.0396
  50  -336.1794
  51  -255.9303
  52  -292.4699
  53  -198.8431
  54  574.1791
  55  225.9421
  56  -511.9886
  57  -444.416
  58  -172.861
  59  -3.083682
  60  -470.2509
  61  9.043725
  62  91.06931
  63  59.75483
  64  -368.8784
  65  -853.5566
  66  -607.1283
  67  -1051.297
  68  -468.4271
  69  -276.4174
  70  -418.1365
  71  -155.2264
  72  -443.6665
  73  -958.2316
  74  -1154.969
  75  -937.1457
  76  -521.8203
  77  -727.53
  78  -383.2393
  79  -305.16
  80  -499.4412
  81  -222.6416
  82  79.42128
  83  -84.15446
  84  -552.3797
  85  -384.4791
  86  -415.6067
  87  -330.2258
  88  -25.19123
  89  -20.25541
  90  -273.5829
  91  -469.8576
  92  -579.1291
  93  -612.4924
  94  -414.1635
  95  -165.8357
  96  74.52082
  97  -34.34218
  98  237.9279
  99  75.63502
 100  -307.2106
 101  -533.1736
 102  -55.31625
 103  589.0419
 104  958.0477
 105  792.7435
 106  784.6308
 107  515.3504
 108  731.6246
 109  555.3049
 110  581.5763
 111  826.6366
 112  923.043
 113  953.2146
 114  622.8331
 115  919.3337
 116  1162.304
 117  960.7811
 118  593.4504
 119  352.4159
 120  572.8469
 121  378.8288
 122  574.2975
 123  530.7693
 124  -239.078
 125  70.86426
 126  -108.4568
 127  240.9747
 128  71.72372
 129  -347.1427
 130  22.13801
 131  -35.12248
 132  -521.7795
 133  -326.3859
 134  -554.9175
 135  -267.817
 136  -28.83915
 137  -8.124174
 138  78.40474
 139  -30.22289
 140  163.2022
 141  -394.1947
 142  -448.607
 143  151.2222
 144  336.0201
 145  429.3601
 146  -55.12827
 147  108.1721
 148  -10.87338
 149  23.0453
 150  -232.1758
 151  -515.9286
 152  -402.5018
 153  -659.7271
 154  -270.6952
 155  -25.62486
 156  -453.1244
 157  -140.8781
 158  -342.3254
 159  -819.691
 160  -560.4497
 161  -353.8029
 162  -341.6186
 163  -79.02997
 164  -150.5317
 165  -401.7703
 166  -385.6634
 167  -457.0925
 168  -416.979
 169  -586.2595
 170  -395.2061
 171  -637.9036
 172  -130.5566
 173  -214.8003
 174  -149.6102
 175  -603.9891
 176  -249.9386
 177  -90.77125
 178  -112.1977
 179  -46.83653
 180  170.3164
 181  -24.16486
 182  -129.0202
 183  -325.8929
 184  -301.5889
 185  -321.1264
 186  -301.9791
 187  324.1389
 188  334.0098
 189  344.343
 190  -179.3303
 191  -148.426
 192  99.69355
 193  -52.21794
 194  -270.4389
 195  -761.4805
 196  -498.6349
 197  96.59626
 198  229.2956
 199  -28.0232
 200  -237.1463
 201  158.5146
 202  256.1444
 203  211.2178
 204  -102.5032
 205  -302.1341
 206  -17.43467
 207  -6.150815
 208  -136.6123
 209  -201.0548
 210  279.0371
 211  19.23021
 212  29.06014
 213  36.71349
 214  136.87
 215  153.1528
 216  187.476
 217  322.1349
 218  445.4321
 219  475.9515
 220  421.5563
 221  342.1302
 222  33.97981
 223  -252.4879
 224  -280.2592
 225  -173.0553
 226  150.8727
 227  56.23654
 228  107.2344
 229  -32.27011
 230  -118.7446
 231  492.8958
 232  326.2512
 233  400.2649
 234  122.8613
 235  124.4934
 236  241.2138
 237  302.8641
 238  467.6495
 239  684.835
 240  742.4705
 241  542.4626
 242  -75.62325
 243  -145.6985
 244  82.8827
 245  146.2126
 246  141.196
 247  482.1157
 248  1016.867
 249  546.4261
 250  265.9673
 251  280.8798
 252  477.2504
 253  668.749
 254  695.0479
 255  350.8295
 256  276.7811
 257  227.8489
 258  -29.13175
 259  96.2993
 260  203.4368
 261  510.2282
 262  402.8437
 263  959.9905
 264  1061.59
 265  812.678
 266  639.8893
 267  403.9829
 268  866.0782
 269  695.3051
 270  588.1103
 271  598.0744
 272  658.0119
 273  881.6719
 274  838.4211
 275  755.8663
 276  464.6107
 277  123.1043
 278  147.1233
 279  158.5657
 280  20.1834
 281  248.1509
 282  274.7935
 283  -87.10684
 284  -1.581568
 285  172.9499
 286  140.3882
 287  206.5651
 288  71.75376
 289  116.8557
 290  107.1541
 291  -31.59124
 292  -67.3035
 293  294.9935
 294  512.9582
 295  843.9003
 296  900.7121
 297  998.7904
 298  895.4613
 299  454.5787
 300  188.1794
 301  268.2001
 302  850.3679
 303  646.4595
 304  425.487
 305  248.1532
 306  271.5324
 307  1041.462
 308  573.017
 309  264.5785
 310  634.3195
 311  950.8781
 312  1026.26
 313  879.0353
 314  1687.826
 315  2059.471
 316  1993.403
 317  2161.955
 318  2078.268
 319  1778.916
 320  1238.191
 321  775.8754
 322  269.981
 323  -1.222305
 324  208.5986
 325  263.459
 326  10.05646
 327  215.9101
 328  273.0284
 329  -60.16603
 330  115.6928
 331  435.2213
 332  321.4062
 333  441.6343
 334  331.6269
 335  -81.90694
 336  -36.53957
 337  185.9531
 338  374.8437
 339  463.2856
 340  389.7379
 341  369.8743
 342  -57.7833
 343  -397.7094
 344  24.21733
 345  49.92436
 346  104.1372
 347  182.6819
 348  -268.2586
 349  -429.6516
 350  -702.4056
 351  -689.8605
 352  -612.252
 353  -648.6323
 354  -632.8561
 355  -478.1467
 356  -208.7607
 357  -699.8234
 358  -798.9238
 359  -882.7303
 360  -948.9369
 361  -1040.674
 362  -1046.844
 363  -526.9752
 364  -701.4421
 365  -726.6357
 366  -750.8688
 367  -805.6911
 368  -1238.896
 369  -688.3976
 370  -717.0222
 371  -662.1259
 372  -656.7992
 373  -492.9798
 374  -989.6926
 375  -1373.599
 376  -854.8346
 377  -841.9208
 378  -705.2054
 379  -796.6075
 380  -946.4417
 381  -892.4885
 382  -832.8433
 383  -1101.715
 384  -1210.651
 385  -811.0385
 386  -661.973
 387  -487.6723
 388  -385.4127
 389  -237.3922
 390  166.0898
 391  312.8254
 392  327.5317
 393  817.3814
 394  385.8127
 395  0.2340742
 396  41.87355
 397  -163.0794
 398  -177.3724
 399  -380.2019
 400  -78.7082
 401  140.9455
 402  63.73222
 403  406.6059
 404  461.5282
 405  871.7849
 406  675.7173
 407  618.2279
 408  568.3177
 409  437.7508
 410  282.5473
 411  97.50462
 412  349.2288
 413  424.5617
 414  151.3212
 415  346.7642
 416  83.60514
 417  376.7374
 418  458.1218
 419  454.8573
 420  721.1323
 421  456.3535
 422  638.9279
 423  582.4816
 424  800.4744
 425  882.9198
 426  826.9838
 427  319.3562
 428  441.5206
 429  509.755
 430  527.1586
 431  463.6559
 432  -12.1108
 433  97.26749
 434  -95.04542
 435  57.42534
 436  -409.6621
 437  -517.3927
 438  -398.7494
 439  -327.6088
 440  -409.6759
 441  -630.7526
 442  -373.3224
 443  -618.8419
 444  -703.2813
 445  -573.5001
 446  -623.6083
 447  -227.5338
 448  173.9516
 449  366.9135
 450  -55.38887
 451  -170.7176
 452  -105.4274
 453  -168.6527
 454  28.48915
 455  109.0463
 456  336.9165
 457  6.077478
 458  69.90981
 459  55.9902
 460  342.6778
 461  137.9845
 462  -219.2779
 463  240.3882
 464  229.8319
 465  63.98314
 466  32.85772
 467  166.1574
 468  421.045
 469  192.506
 470  -111.8287
 471  65.80813
 472  361.0368
 473  177.0808
 474  320.755
 475  49.39653
 476  71.75568
 477  117.967
 478  -459.429
 479  150.204
 480  434.246
 481  241.5689
 482  -8.574665
 483  184.4815
 484  45.12786
 485  -16.16483
 486  113.5933
 487  204.1568
 488  -21.74933
 489  -69.39839
 490  396.8339
 491  325.8465
 492  181.898
 493  -130.8867
 494  -139.5574
 495  -343.2979
 496  -498.4746
 497  170.2824
 498  734.76
 499  353.9013
 500  75.3225
 501  295.2672
 502  134.2848
 503  57.10584
 504  124.5841
 505  158.8838
 506  174.9767
 507  264.0957
 508  9.609402
 509  -52.65688
 510  -205.7169
 511  10.41485
