# Input file       =  1209029504.11775_cleaned.dat
# Candidate        =  PSR_0332+5434
# Telescope        =  AR
# Epoch_topo       =  58237.397258307290
# Epoch_bary       =  N/A
# T_sample         =  0.002
# Data Folded      =  7340032
# Data Avg         =  0.260913282419747
# Data StdDev      =  5.9393178441379  
# Profile Bins     =  512
# Profile Avg      =  3739.81585028091 
# Profile StdDev   =  711.13255948534  
# Reduced chi-sqr  =  0.768
# Prob(Noise)      <  1   (~0.0 sigma)
# P_topo (ms)      =  714.54816295678   +/- 0.000713
# P'_topo (s/s)    =  -0                +/- 3.76e-10
# P''_topo (s/s^2) =  0                 +/- 1.66e-13
# P_bary (ms)      =  N/A
# P'_bary (s/s)    =  N/A
# P''_bary (s/s^2) =  N/A
# P_orb (s)        =  N/A
# asin(i)/c (s)    =  N/A
# eccentricity     =  N/A
# w (rad)          =  N/A
# T_peri           =  N/A
######################################################
   0  4418.307
   1  4390.233
   2  4083.118
   3  3973.319
   4  4295.483
   5  3863.059
   6  4164.792
   7  4091.192
   8  4576.67
   9  4426.935
  10  4219.698
  11  3931.814
  12  4338.265
  13  4446.636
  14  4424.237
  15  4184.745
  16  4213.023
  17  4415.379
  18  4011.785
  19  3952.717
  20  4464.956
  21  4390.575
  22  4491.92
  23  4385.385
  24  4233.33
  25  3958.247
  26  4060.344
  27  4073.872
  28  4234.499
  29  3906.604
  30  3657.319
  31  3767.522
  32  3977.235
  33  3738.102
  34  3494.275
  35  3507.621
  36  3594.851
  37  3363.402
  38  3268.094
  39  3234.698
  40  3117.144
  41  3240.792
  42  3541.198
  43  3369.245
  44  3119.72
  45  3311.26
  46  3257.587
  47  3430.816
  48  3909.092
  49  3812.868
  50  3502.506
  51  3889.887
  52  4182.243
  53  3643.309
  54  3506.775
  55  3727.681
  56  3606.176
  57  3387.92
  58  3441.749
  59  3538.615
  60  3795.131
  61  3780.641
  62  3939.851
  63  3831.645
  64  3877.489
  65  4311.411
  66  3821.663
  67  3946.88
  68  3863.757
  69  4141.135
  70  4099.479
  71  3680.727
  72  3763.011
  73  4180.862
  74  4153.724
  75  4315.24
  76  4327.959
  77  4030.774
  78  3833.396
  79  3823.84
  80  4001.143
  81  3854.138
  82  3946.749
  83  3787.674
  84  3676.93
  85  3875.347
  86  4238.74
  87  4028.048
  88  3947.239
  89  3958.653
  90  4009.13
  91  4105.941
  92  4030.993
  93  3757.032
  94  3771.183
  95  3609.597
  96  3606.28
  97  3610.193
  98  3273.807
  99  3267.194
 100  3070.968
 101  3352.656
 102  3353.054
 103  3373.744
 104  3479.306
 105  3463.678
 106  3478.14
 107  3200.552
 108  3589.707
 109  3883.721
 110  4028.318
 111  3725.652
 112  3657.668
 113  3309.113
 114  3532.166
 115  3710.041
 116  3822.844
 117  3954.362
 118  3741.74
 119  3651.856
 120  3444.329
 121  3571.731
 122  3656.189
 123  3428.781
 124  3662.888
 125  3649.664
 126  3239.421
 127  3490.196
 128  3710.871
 129  3542.105
 130  3278.95
 131  3644.642
 132  3388.622
 133  3229.848
 134  3270.794
 135  3499.507
 136  3450.705
 137  3394.953
 138  3613.494
 139  3860.916
 140  3614.561
 141  3805.772
 142  4040.588
 143  3605.886
 144  3534.085
 145  3515.235
 146  3767.919
 147  3502.616
 148  3431.2
 149  3392.913
 150  3357.801
 151  3554.125
 152  3639.606
 153  3426.327
 154  3713.695
 155  3864.708
 156  3849.424
 157  3854.816
 158  4180.47
 159  4168.102
 160  4017.59
 161  3491.998
 162  3332.94
 163  3156.638
 164  3342.547
 165  3149.175
 166  3321.706
 167  3461.526
 168  3506.089
 169  3789.512
 170  3446.956
 171  3484.638
 172  3683.623
 173  3864.752
 174  3928.06
 175  3910.091
 176  3854.521
 177  3198.542
 178  3479.315
 179  3530.267
 180  3193.934
 181  2887.511
 182  2946.333
 183  3341.596
 184  3015.804
 185  3295.546
 186  3436.821
 187  3381.334
 188  3270.539
 189  3350.22
 190  3262.417
 191  3077.333
 192  3132.666
 193  3680.086
 194  3908.989
 195  3767.416
 196  3495.967
 197  3413.728
 198  3200.628
 199  2979.347
 200  3421.318
 201  3822.957
 202  3924.735
 203  3729.989
 204  3337.425
 205  3129.477
 206  3593.273
 207  3763.721
 208  3590.166
 209  3698.861
 210  3798.884
 211  3488.45
 212  3530.644
 213  3406.576
 214  3567.133
 215  3569.937
 216  3676.113
 217  3402.277
 218  3126.904
 219  3194.873
 220  3153.536
 221  3417.929
 222  3646.65
 223  3585.543
 224  3757.646
 225  3466.906
 226  3603.565
 227  3788.447
 228  3806.158
 229  3556.182
 230  3771.216
 231  3886.354
 232  3848.865
 233  3629.249
 234  3899.616
 235  3921.396
 236  3592.574
 237  3346.343
 238  3582.957
 239  3700.271
 240  3487.73
 241  3787.73
 242  3440.057
 243  4043.202
 244  3968.326
 245  3763.906
 246  3794.679
 247  3682.523
 248  3321.142
 249  3222.288
 250  3455.094
 251  3496.209
 252  3505.013
 253  3338.091
 254  3166.304
 255  3049.312
 256  3265.039
 257  3461.117
 258  3352.3
 259  3470.31
 260  3465.168
 261  3229.345
 262  2952.595
 263  3083.754
 264  3036.649
 265  3479.916
 266  3474.705
 267  3368.367
 268  3561.074
 269  3489.027
 270  3632.518
 271  3920.426
 272  4344.257
 273  5270.708
 274  5651.488
 275  5724.218
 276  6042.488
 277  5689.311
 278  4702.023
 279  4438.771
 280  4041.22
 281  4030.827
 282  3943.231
 283  3683.431
 284  3494.14
 285  3441.717
 286  3611.01
 287  3685.169
 288  3353.457
 289  3361.083
 290  3372.045
 291  3480.959
 292  3473.314
 293  3441.385
 294  3566.326
 295  3170.18
 296  3319.304
 297  3398.753
 298  3362.043
 299  3825.021
 300  4090.479
 301  3859.04
 302  3355.834
 303  3356.143
 304  3908.688
 305  4050.25
 306  3908.065
 307  4293.183
 308  4420.532
 309  3996.24
 310  3403.56
 311  3486.797
 312  3818.144
 313  3657.671
 314  3376.805
 315  3620.567
 316  3452.088
 317  3611.713
 318  3082.77
 319  3442.178
 320  3680.213
 321  3681.834
 322  3138.625
 323  2954.808
 324  2908.254
 325  3022.744
 326  2854.826
 327  2985.015
 328  3104.193
 329  3097.082
 330  3125.557
 331  3200.563
 332  2901.49
 333  2886.277
 334  3139.161
 335  3093.456
 336  2949.117
 337  2758.899
 338  3171.438
 339  2898.058
 340  2795.368
 341  2836.299
 342  2784.493
 343  3040.693
 344  3499.498
 345  3263.019
 346  3325.359
 347  3450.176
 348  3362.223
 349  3456.29
 350  3749.931
 351  3971.179
 352  3627.369
 353  3529.834
 354  3592.909
 355  3639.77
 356  3521.022
 357  3519.506
 358  3353.152
 359  3634.797
 360  4007.765
 361  3483.668
 362  3366.552
 363  3318.776
 364  3502.286
 365  3458.4
 366  3325.868
 367  3301.235
 368  3541.042
 369  3461.181
 370  3337.05
 371  3445.291
 372  3487.114
 373  3423.657
 374  3603.301
 375  3754.396
 376  3824.273
 377  3744.006
 378  3899.5
 379  3594.686
 380  3364.198
 381  3508.81
 382  3811.808
 383  3608.875
 384  3789.76
 385  3552.21
 386  3308.949
 387  3253.983
 388  3538.435
 389  3399.16
 390  3410.397
 391  4011.87
 392  3654.193
 393  3570.5
 394  3628.461
 395  3655.908
 396  3473.666
 397  3479.55
 398  3807.015
 399  3674.643
 400  3664.625
 401  3524.997
 402  3240.443
 403  3504.135
 404  3977.621
 405  3852.602
 406  3619.95
 407  3824.458
 408  3732.777
 409  3396.687
 410  3770.397
 411  3914.2
 412  3558.056
 413  3224.323
 414  3555.6
 415  3684.691
 416  3745.341
 417  3756.569
 418  3895.193
 419  4038.753
 420  4058.157
 421  4046.791
 422  4213.308
 423  4510.511
 424  4420.833
 425  4445.049
 426  4182.754
 427  4107.344
 428  4070.688
 429  3614.941
 430  3595.46
 431  3861.202
 432  3835.387
 433  3954.388
 434  4003.468
 435  4351.759
 436  4269.147
 437  3986.06
 438  4169.657
 439  4252.996
 440  4156.249
 441  3995.763
 442  3758.357
 443  3803.03
 444  4096.477
 445  4059.677
 446  4147.59
 447  4015.402
 448  3685.081
 449  3667.638
 450  4117.429
 451  4436.044
 452  4663.789
 453  4196.731
 454  4197.522
 455  4156.431
 456  3825.042
 457  4295.117
 458  4338.06
 459  4204.614
 460  4156.147
 461  4229.656
 462  4596.25
 463  4212.149
 464  4320.304
 465  4503.633
 466  4075.285
 467  4031.478
 468  4262.777
 469  3936.265
 470  3788.871
 471  3820.658
 472  4097.559
 473  4416.519
 474  4456.558
 475  3766.606
 476  3773.13
 477  3662.876
 478  3773.874
 479  3939.815
 480  4234.253
 481  4491.396
 482  4705.064
 483  4828.373
 484  4746.335
 485  4618.291
 486  4771.769
 487  4738.69
 488  4531.281
 489  4444.979
 490  4778.153
 491  4635.243
 492  4180.877
 493  4086.406
 494  4235.001
 495  4316.671
 496  4354.537
 497  4559.317
 498  4407.055
 499  4320.668
 500  4094.13
 501  4058.141
 502  3987.119
 503  4279.272
 504  4698.335
 505  4518.977
 506  4572.791
 507  4626.323
 508  4437.937
 509  3969.323
 510  4050.301
 511  4094.432
