# Input file       =  1209632602.116271-PSRB0329-2ms-sampling-dd.dat
# Candidate        =  PSR_0332+5434
# Telescope        =  AR
# Epoch_topo       =  58244.377559216096
# Epoch_bary       =  N/A
# T_sample         =  0.002
# Data Folded      =  7340032
# Data Avg         =  -6.80681644085505e-10
# Data StdDev      =  5.98509651122726 
# Profile Bins     =  512
# Profile Avg      =  -0.364921047751638
# Profile StdDev   =  716.61377829723  
# Reduced chi-sqr  =  0.863
# Prob(Noise)      <  0.989   (~0.0 sigma)
# P_topo (ms)      =  714.541816108704  +/- 0.000674
# P'_topo (s/s)    =  -0                +/- 3.56e-10
# P''_topo (s/s^2) =  0                 +/- 1.57e-13
# P_bary (ms)      =  N/A
# P'_bary (s/s)    =  N/A
# P''_bary (s/s^2) =  N/A
# P_orb (s)        =  N/A
# asin(i)/c (s)    =  N/A
# eccentricity     =  N/A
# w (rad)          =  N/A
# T_peri           =  N/A
######################################################
   0  -805.8627
   1  -522.0234
   2  -549.7086
   3  -822.3011
   4  -855.4377
   5  -683.1998
   6  -582.6534
   7  -545.2302
   8  -181.4422
   9  -94.29701
  10  -81.84932
  11  115.3164
  12  -386.0255
  13  -526.7452
  14  -830.8981
  15  -275.4631
  16  104.3013
  17  369.993
  18  361.5879
  19  -176.893
  20  -549.9896
  21  -566.3779
  22  -897.0633
  23  -1021.984
  24  -612.0979
  25  -408.3983
  26  -98.78073
  27  -94.24406
  28  -137.9318
  29  -83.8384
  30  -194.7866
  31  -153.0321
  32  -185.1379
  33  -51.8208
  34  -9.207819
  35  -369.8765
  36  -309.4259
  37  151.0316
  38  -84.64304
  39  -527.9454
  40  -42.89816
  41  70.31486
  42  -52.30037
  43  -28.55124
  44  -125.9712
  45  292.4745
  46  460.5246
  47  789.5815
  48  1124.259
  49  1869.789
  50  2122.179
  51  2404.629
  52  2258.068
  53  1830.893
  54  1214.026
  55  725.4779
  56  561.0198
  57  261.159
  58  760.2684
  59  961.4247
  60  1036.225
  61  753.0287
  62  360.5499
  63  242.9033
  64  818.8002
  65  1124.031
  66  835.5005
  67  721.5603
  68  213.3392
  69  -264.4464
  70  -428.9326
  71  -346.5435
  72  -394.7263
  73  -22.44939
  74  -148.1978
  75  -452.3951
  76  -238.4857
  77  -29.25303
  78  31.41586
  79  -236.4978
  80  8.089936
  81  -38.88767
  82  247.9181
  83  1140.484
  84  1001.936
  85  762.364
  86  227.7015
  87  -61.89696
  88  -87.27147
  89  300.9216
  90  904.4944
  91  1251.01
  92  931.1367
  93  363.0862
  94  12.43242
  95  -90.13541
  96  -87.12897
  97  -206.7887
  98  -298.8424
  99  -212.5707
 100  -180.3907
 101  321.3423
 102  503.2926
 103  508.4129
 104  332.7997
 105  257.5539
 106  256.4905
 107  242.6416
 108  136.4701
 109  229.5665
 110  694.4227
 111  976.6915
 112  354.1324
 113  -136.9531
 114  -11.28648
 115  -387.0708
 116  -576.3134
 117  -524.4767
 118  -552.351
 119  -577.888
 120  -861.088
 121  -1061.746
 122  -1017.418
 123  -461.4804
 124  -576.4243
 125  -484.9074
 126  -534.4246
 127  -656.3027
 128  -731.8163
 129  -824.1324
 130  -545.8983
 131  -206.0372
 132  -270.7854
 133  -843.4489
 134  -1365.349
 135  -1116.972
 136  -770.1174
 137  -848.7482
 138  -879.3612
 139  -737.789
 140  -182.0646
 141  -406.8557
 142  -745.2632
 143  -447.3072
 144  -456.8517
 145  -322.5866
 146  -235.779
 147  41.88886
 148  -88.01692
 149  145.6052
 150  -51.10674
 151  -443.3615
 152  -120.2948
 153  -301.1692
 154  -306.462
 155  -122.2444
 156  -175.6103
 157  -221.7414
 158  -209.7939
 159  -181.5985
 160  -15.96007
 161  72.57586
 162  303.8658
 163  -306.4775
 164  -313.7719
 165  198.9441
 166  -35.62229
 167  145.2445
 168  -76.80505
 169  -86.48755
 170  -274.2701
 171  63.98392
 172  909.3477
 173  1158.199
 174  664.5518
 175  461.087
 176  422.624
 177  212.7462
 178  61.90257
 179  245.1352
 180  534.1761
 181  747.499
 182  654.2889
 183  312.7602
 184  96.69255
 185  7.086727
 186  348.9979
 187  270.6138
 188  282.1689
 189  152.3293
 190  100.339
 191  126.7011
 192  43.39279
 193  459.5599
 194  1114.409
 195  1057.978
 196  586.8525
 197  280.1437
 198  -366.4857
 199  -38.2711
 200  202.9521
 201  220.2353
 202  -12.70105
 203  -9.194102
 204  427.3802
 205  211.1358
 206  95.32069
 207  57.50455
 208  -23.78913
 209  -22.28338
 210  -80.50645
 211  128.8069
 212  262.367
 213  365.7971
 214  -87.66357
 215  -137.5602
 216  174.2107
 217  311.6862
 218  215.1198
 219  133.8029
 220  118.006
 221  305.9057
 222  101.5475
 223  259.6841
 224  204.8807
 225  -129.0665
 226  274.7126
 227  430.057
 228  121.9058
 229  -166.2469
 230  214.0051
 231  286.6371
 232  195.1598
 233  -157.1292
 234  331.1945
 235  236.6693
 236  -241.06
 237  -178.1553
 238  140.3694
 239  539.2226
 240  392.2771
 241  294.0492
 242  76.95025
 243  163.8041
 244  115.9595
 245  -208.1818
 246  -343.5116
 247  -15.81383
 248  -151.3519
 249  -499.4181
 250  -487.264
 251  -460.9392
 252  -523.9182
 253  -153.1724
 254  -190.7464
 255  -289.4367
 256  -145.5209
 257  -198.7297
 258  62.78138
 259  465.2489
 260  783.1902
 261  517.5671
 262  234.896
 263  -185.06
 264  472.9857
 265  825.1858
 266  999.7119
 267  285.3685
 268  131.116
 269  -110.486
 270  -289.5703
 271  84.55775
 272  115.5281
 273  -97.19683
 274  350.8498
 275  366.2191
 276  368.897
 277  140.7068
 278  217.1997
 279  575.4742
 280  461.2083
 281  637.9875
 282  451.3297
 283  296.9566
 284  87.21767
 285  -109.8872
 286  184.3234
 287  466.8908
 288  563.9526
 289  623.4885
 290  529.7308
 291  265.6479
 292  77.67357
 293  118.5646
 294  30.33518
 295  -73.53506
 296  -157.7202
 297  -56.23378
 298  -102.6037
 299  -141.7045
 300  -168.6913
 301  50.14959
 302  74.46274
 303  -132.6652
 304  -319.0585
 305  -222.7578
 306  96.42487
 307  163.2216
 308  24.12724
 309  85.85424
 310  12.74043
 311  202.9136
 312  394.3583
 313  369.2449
 314  412.7946
 315  155.3651
 316  91.25838
 317  151.1993
 318  149.7411
 319  138.5886
 320  494.8847
 321  757.3784
 322  501.7175
 323  238.7467
 324  80.57687
 325  142.306
 326  -290.5902
 327  -214.1195
 328  94.6126
 329  14.82453
 330  -302.6508
 331  -722.7617
 332  -440.636
 333  -83.95175
 334  -576.9838
 335  -265.5031
 336  -219.2401
 337  -283.1673
 338  -461.87
 339  -648.8421
 340  -267.526
 341  48.40787
 342  -41.77842
 343  -56.94653
 344  1.992242
 345  -51.48326
 346  -102.208
 347  -17.1308
 348  229.0968
 349  -279.6057
 350  -574.2818
 351  -526.5194
 352  -473.2302
 353  -363.5868
 354  -216.9174
 355  160.398
 356  161.3325
 357  129.4373
 358  69.18441
 359  -273.4799
 360  -183.6521
 361  32.88452
 362  294.4399
 363  26.3542
 364  -118.3012
 365  269.972
 366  -190.936
 367  -522.9416
 368  -136.5878
 369  359.0286
 370  236.3652
 371  340.7921
 372  359.9905
 373  691.4573
 374  1041.917
 375  953.0467
 376  735.4338
 377  576.7203
 378  654.7527
 379  656.4636
 380  706.7794
 381  604.4636
 382  354.745
 383  110.0086
 384  92.04561
 385  304.6797
 386  400.5453
 387  553.1232
 388  559.8224
 389  306.0329
 390  69.79901
 391  238.676
 392  190.9004
 393  252.2116
 394  127.3568
 395  183.0918
 396  110.2242
 397  -286.4622
 398  -263.2457
 399  -494.5945
 400  -337.4926
 401  -268.0263
 402  -87.12227
 403  126.4619
 404  -59.01517
 405  -38.05025
 406  205.2721
 407  181.7642
 408  27.68854
 409  71.36646
 410  147.2456
 411  -102.8209
 412  -224.2547
 413  -509.4589
 414  -280.9688
 415  -30.37836
 416  -74.21276
 417  -270.0493
 418  -554.3671
 419  -756.4924
 420  -941.1817
 421  -552.5254
 422  -275.1196
 423  -493.8969
 424  -551.6021
 425  -572.7146
 426  -620.5579
 427  -682.7443
 428  -392.4947
 429  -305.8161
 430  -651.0822
 431  -574.6566
 432  -414.573
 433  -491.5616
 434  -667.2108
 435  -346.7647
 436  -351.1183
 437  -204.4135
 438  -70.26148
 439  -106.5701
 440  337.843
 441  -15.22261
 442  232.3211
 443  26.84481
 444  -190.4863
 445  -44.38381
 446  -73.4295
 447  184.1454
 448  202.6322
 449  -106.1599
 450  -197.1249
 451  -89.36024
 452  -90.42546
 453  -264.9459
 454  -294.9598
 455  167.905
 456  -73.4072
 457  -172.4582
 458  -422.0675
 459  -599.226
 460  -190.0188
 461  19.26794
 462  269.095
 463  105.9168
 464  137.4682
 465  -74.52131
 466  -235.2453
 467  -290.0482
 468  -268.452
 469  -129.9677
 470  -327.0719
 471  152.76
 472  482.3316
 473  839.6171
 474  726.2884
 475  264.4551
 476  49.11496
 477  -70.45332
 478  -159.4153
 479  -237.9116
 480  -158.302
 481  310.5896
 482  238.8527
 483  -325.6927
 484  -520.7273
 485  -330.6802
 486  -518.6624
 487  -85.43027
 488  -106.7177
 489  -307.6042
 490  -393.8069
 491  -633.7481
 492  -679.7389
 493  -826.9914
 494  -601.4756
 495  -319.1648
 496  -248.2841
 497  -436.7779
 498  -602.5183
 499  -902.5983
 500  -1215.104
 501  -1013.033
 502  -548.5238
 503  -477.6853
 504  -478.8545
 505  -263.6435
 506  -464.2039
 507  -482.3857
 508  -709.2315
 509  -579.3088
 510  -700.9271
 511  -496.9778
