# Input file       =  1209445701.104754-PSRB0329-2ms-sampling-dd.dat
# Candidate        =  PSR_0332+5434
# Telescope        =  AR
# Epoch_topo       =  58242.214353064279
# Epoch_bary       =  N/A
# T_sample         =  0.002
# Data Folded      =  7208960
# Data Avg         =  9.28069069352082e-10
# Data StdDev      =  7.58293402426305 
# Profile Bins     =  512
# Profile Avg      =  -0.0936697410250967
# Profile StdDev   =  899.784701415774 
# Reduced chi-sqr  =  1.035
# Prob(Noise)      <  0.283   (~0.6 sigma)
# P_topo (ms)      =  714.543804186068  +/- 2.8e-05
# P'_topo (s/s)    =  -0                +/- 1.5e-11
# P''_topo (s/s^2) =  0                 +/- 6.75e-15
# P_bary (ms)      =  N/A
# P'_bary (s/s)    =  N/A
# P''_bary (s/s^2) =  N/A
# P_orb (s)        =  N/A
# asin(i)/c (s)    =  N/A
# eccentricity     =  N/A
# w (rad)          =  N/A
# T_peri           =  N/A
######################################################
   0  116.0479
   1  486.1334
   2  522.0939
   3  521.9568
   4  -31.24061
   5  -580.5892
   6  -315.4034
   7  -399.7874
   8  -1133.275
   9  -1527.819
  10  -876.4348
  11  122.9931
  12  30.56497
  13  -268.4552
  14  -306.3932
  15  475.4328
  16  -328.2433
  17  -389.7425
  18  330.2258
  19  988.3347
  20  640.9623
  21  -428.6066
  22  -136.042
  23  -196.8709
  24  -1039.726
  25  -1681.09
  26  -1652.566
  27  -707.8635
  28  -554.9688
  29  -205.4995
  30  174.4532
  31  559.7196
  32  398.2325
  33  -197.9782
  34  -727.5462
  35  127.7125
  36  234.1609
  37  -533.6792
  38  -242.7807
  39  -136.3286
  40  -23.37914
  41  -955.4984
  42  -1457.636
  43  -839.2295
  44  44.12632
  45  509.1249
  46  116.4114
  47  537.7179
  48  457.3537
  49  185.7791
  50  -510.7812
  51  148.8231
  52  1157.932
  53  555.6876
  54  -199.5507
  55  -506.7888
  56  119.5503
  57  -782.0415
  58  -1081.485
  59  -1530.14
  60  -751.6621
  61  -411.8051
  62  -363.6595
  63  443.268
  64  1122.758
  65  777.2387
  66  -280.7307
  67  -846.3545
  68  1.15899
  69  662.7886
  70  194.9842
  71  -7.464248
  72  362.6358
  73  137.3927
  74  -551.4702
  75  -1642.99
  76  -1127.952
  77  -334.0443
  78  -203.7828
  79  -171.6385
  80  363.4223
  81  742.3951
  82  381.6118
  83  -104.9973
  84  320.8784
  85  745.625
  86  8.421072
  87  -302.6545
  88  -459.2094
  89  -275.7663
  90  -469.601
  91  -1222.165
  92  -901.1316
  93  -344.6821
  94  -189.9354
  95  -466.0724
  96  -166.6578
  97  -269.1799
  98  92.81477
  99  -595.5785
 100  -312.5598
 101  372.0855
 102  925.2437
 103  485.2488
 104  -599.8407
 105  276.9601
 106  -70.50871
 107  -1003.64
 108  -1235.501
 109  -614.4864
 110  19.41649
 111  4.666892
 112  538.9758
 113  367.7387
 114  1245.469
 115  -74.24912
 116  -222.924
 117  448.4892
 118  709.7219
 119  284.2611
 120  -857.2734
 121  -210.6035
 122  -187.6697
 123  -79.35052
 124  -1134.838
 125  -954.6456
 126  56.49305
 127  -26.76918
 128  338.9507
 129  249.6015
 130  1096.386
 131  647.3147
 132  194.5375
 133  645.9252
 134  2025.077
 135  2788.269
 136  2037.004
 137  1570.869
 138  909.838
 139  428.2863
 140  -1100.997
 141  -1157.336
 142  -805.5339
 143  -49.64064
 144  305.8617
 145  67.3942
 146  544.8552
 147  667.9201
 148  121.9038
 149  -411.6352
 150  25.73734
 151  859.0953
 152  398.074
 153  -490.3466
 154  -385.1461
 155  128.2662
 156  -476.4835
 157  -1169.925
 158  -1365.175
 159  -297.5845
 160  175.513
 161  -235.7838
 162  -172.3025
 163  630.7272
 164  636.6714
 165  -145.9813
 166  370.157
 167  1271.325
 168  1565.435
 169  396.9177
 170  -135.3318
 171  221.7439
 172  218.3082
 173  -581.6909
 174  -1140.219
 175  -168.263
 176  117.8486
 177  -150.4948
 178  -266.1445
 179  682.5428
 180  488.4663
 181  644.9376
 182  -24.57663
 183  -69.92629
 184  787.0575
 185  595.6271
 186  541.5623
 187  -184.5068
 188  426.3486
 189  -202.8893
 190  -1130.228
 191  -1067.45
 192  -432.5315
 193  583.8705
 194  -59.67805
 195  -83.91564
 196  -23.15222
 197  151.6556
 198  -553.114
 199  -104.1908
 200  1002.046
 201  1083.14
 202  367.4331
 203  -647.8181
 204  76.26407
 205  -122.8348
 206  -847.7515
 207  -1317.103
 208  -154.328
 209  240.8953
 210  -135.8602
 211  98.63653
 212  278.8048
 213  638.4227
 214  201.5836
 215  -0.1265033
 216  317.6168
 217  812.6813
 218  184.6065
 219  -363.8283
 220  -279.3833
 221  -533.3918
 222  -541.8687
 223  -1764.879
 224  -1612.751
 225  -841.8569
 226  -221.9569
 227  -292.3096
 228  -548.5107
 229  429.8058
 230  521.452
 231  -432.0333
 232  -267.3341
 233  551.4921
 234  1113.08
 235  424.0443
 236  -270.9448
 237  -235.0502
 238  -7.57437
 239  -1143.775
 240  -1300.514
 241  -649.9616
 242  3.949033
 243  -176.4067
 244  -139.8179
 245  657.4057
 246  1133.959
 247  843.7495
 248  62.74241
 249  194.0105
 250  918.6973
 251  733.3553
 252  -491.3466
 253  -222.5728
 254  626.5445
 255  306.7339
 256  -516.2382
 257  -1287.569
 258  -161.6423
 259  -352.5909
 260  -349.0071
 261  -557.5767
 262  430.5467
 263  831.0678
 264  533.1426
 265  9.077701
 266  385.8453
 267  928.3165
 268  -188.7116
 269  -182.9555
 270  122.0045
 271  -119.8285
 272  -756.7012
 273  -1242.09
 274  -460.0262
 275  527.9989
 276  1004.907
 277  379.4488
 278  274.7896
 279  382.6557
 280  254.9966
 281  -453.7491
 282  261.2054
 283  1231.624
 284  518.0212
 285  -51.9016
 286  -355.1609
 287  -388.5916
 288  -487.5634
 289  -749.79
 290  -674.4846
 291  58.72244
 292  571.5798
 293  -143.458
 294  58.31396
 295  145.4619
 296  653.8265
 297  182.5131
 298  101.0739
 299  790.2923
 300  705.0718
 301  -283.9407
 302  -633.8979
 303  -270.1686
 304  -567.3212
 305  -494.8784
 306  -986.5886
 307  -905.0312
 308  -224.6718
 309  41.47301
 310  -132.9152
 311  -54.39852
 312  552.1995
 313  -51.727
 314  -112.6065
 315  493.328
 316  1212.541
 317  1138.54
 318  294.1154
 319  -378.2252
 320  -433.1811
 321  53.91307
 322  -636.8583
 323  -566.6186
 324  -574.8316
 325  -345.5505
 326  -408.5667
 327  -474.2005
 328  723.2341
 329  1481.303
 330  725.2298
 331  466.8584
 332  713.823
 333  756.8242
 334  80.57815
 335  -774.0961
 336  -180.4115
 337  296.1765
 338  -216.8084
 339  19.89219
 340  -104.115
 341  1011.536
 342  200.7612
 343  -225.7252
 344  -65.74731
 345  554.072
 346  609.9214
 347  585.0652
 348  1056.563
 349  1412.913
 350  1584.706
 351  731.0558
 352  53.10002
 353  245.1312
 354  -543.9758
 355  -1250.025
 356  -1381.711
 357  50.05812
 358  521.5651
 359  544.2197
 360  190.9001
 361  419.6277
 362  429.2422
 363  159.2369
 364  -210.6998
 365  308.9976
 366  1116.716
 367  477.3036
 368  40.67628
 369  -491.9689
 370  -195.1621
 371  -768.9949
 372  -1811.161
 373  -1196.512
 374  -220.7978
 375  265.2506
 376  -114.3484
 377  700.8732
 378  1052.867
 379  716.3312
 380  -438.3634
 381  -15.17453
 382  1016.462
 383  350.9261
 384  -431.9864
 385  -717.4525
 386  79.27826
 387  -346.9958
 388  -559.2479
 389  -1299.593
 390  -1276.183
 391  -68.37292
 392  -131.8185
 393  215.9421
 394  445.1011
 395  842.5253
 396  -0.9971157
 397  -340.2883
 398  488.6316
 399  1080.494
 400  257.0995
 401  -609.2624
 402  -426.8326
 403  36.94487
 404  -171.8154
 405  -1026.009
 406  -462.1481
 407  -167.8496
 408  -482.4665
 409  -886.2604
 410  92.98501
 411  885.8703
 412  841.5843
 413  573.5356
 414  1025.841
 415  1615.414
 416  1173.816
 417  10.1141
 418  -646.758
 419  -417.6565
 420  -524.116
 421  -1120.854
 422  -339.3128
 423  -205.5766
 424  395.9948
 425  444.9358
 426  403.6949
 427  230.5501
 428  223.7797
 429  -533.885
 430  -629.7238
 431  409.1023
 432  1090.712
 433  1029.808
 434  160.0938
 435  263.3204
 436  23.92032
 437  -889.2074
 438  -1156.035
 439  -1165.857
 440  132.2702
 441  320.5427
 442  129.5403
 443  316.2249
 444  1108.788
 445  919.8398
 446  462.5849
 447  187.8924
 448  612.6222
 449  340.6075
 450  -438.3253
 451  -50.09945
 452  36.0023
 453  -82.56187
 454  -1278.683
 455  -1801.665
 456  -762.6691
 457  -140.4768
 458  -41.28702
 459  -144.5234
 460  918.4103
 461  752.8638
 462  -100.268
 463  -313.5906
 464  28.99638
 465  842.1937
 466  -99.86369
 467  -432.3616
 468  14.33678
 469  513.1537
 470  -614.6093
 471  -1707.278
 472  -1173.677
 473  -210.7566
 474  -59.57619
 475  -349.9437
 476  658.5392
 477  750.1663
 478  516.4927
 479  -28.51122
 480  296.9764
 481  1191.686
 482  1244.367
 483  -58.51137
 484  -139.6132
 485  528.8923
 486  -12.25251
 487  -203.3328
 488  -806.5929
 489  -515.4606
 490  162.1191
 491  -188.5025
 492  93.90189
 493  441.8792
 494  722.6595
 495  153.6182
 496  -569.3089
 497  38.75183
 498  978.4905
 499  371.7531
 500  -44.2783
 501  267.8578
 502  209.0017
 503  -190.6395
 504  -911.3062
 505  -555.0125
 506  34.53975
 507  200.8606
 508  143.8906
 509  213.2747
 510  940.1809
 511  1000.128
