# Input file       =  1209359564.108885-PSRB0329-2ms-sampling-dd.dat
# Candidate        =  PSR_0332+5434
# Telescope        =  AR
# Epoch_topo       =  58241.217397093576
# Epoch_bary       =  N/A
# T_sample         =  0.002
# Data Folded      =  7208960
# Data Avg         =  7.10078691330834e-10
# Data StdDev      =  8.54127337754541 
# Profile Bins     =  512
# Profile Avg      =  0.0920053233478643
# Profile StdDev   =  1013.50045920676 
# Reduced chi-sqr  =  1.036
# Prob(Noise)      <  0.275   (~0.6 sigma)
# P_topo (ms)      =  714.544715640002  +/- 4.66e-05
# P'_topo (s/s)    =  -0                +/- 2.5e-11
# P''_topo (s/s^2) =  0                 +/- 1.13e-14
# P_bary (ms)      =  N/A
# P'_bary (s/s)    =  N/A
# P''_bary (s/s^2) =  N/A
# P_orb (s)        =  N/A
# asin(i)/c (s)    =  N/A
# eccentricity     =  N/A
# w (rad)          =  N/A
# T_peri           =  N/A
######################################################
   0  -1126.573
   1  -395.2204
   2  -365.392
   3  -508.7115
   4  -502.0603
   5  -62.23136
   6  -117.4679
   7  -656.4036
   8  -733.7029
   9  58.32067
  10  888.7827
  11  814.5516
  12  1061.027
  13  638.7597
  14  460.2732
  15  -536.5314
  16  -1281.409
  17  -234.653
  18  -112.5682
  19  -335.8477
  20  -792.5137
  21  -19.56957
  22  -144.5464
  23  -702.0222
  24  -416.4743
  25  -366.9316
  26  259.7268
  27  1172.942
  28  489.9518
  29  221.6009
  30  369.6902
  31  148.6013
  32  -373.845
  33  -981.6733
  34  -957.5389
  35  -876.7732
  36  -745.0056
  37  -722.538
  38  102.6517
  39  85.2776
  40  356.3128
  41  -203.4301
  42  112.6999
  43  281.9201
  44  112.7277
  45  463.6916
  46  310.5896
  47  526.3665
  48  -694.9534
  49  -1550.779
  50  -1848.48
  51  -815.7914
  52  -993.7467
  53  -926.8577
  54  -472.2451
  55  -865.0718
  56  -659.3054
  57  -1163.41
  58  -762.7781
  59  364.7612
  60  952.5751
  61  1309.409
  62  190.6732
  63  115.8675
  64  74.62228
  65  -630.3684
  66  -428.4968
  67  -611.2444
  68  -436.9052
  69  -923.0616
  70  -786.9165
  71  -147.1141
  72  -332.0772
  73  -886.604
  74  -635.6874
  75  -94.84556
  76  358.3286
  77  906.4989
  78  711.134
  79  558.0981
  80  197.7554
  81  -18.5139
  82  -788.9454
  83  -884.6287
  84  -835.0162
  85  -1143.224
  86  -655.0016
  87  -373.0954
  88  -464.1632
  89  -886.6752
  90  -856.5964
  91  -150.8644
  92  474.4872
  93  677.7791
  94  293.5107
  95  524.0153
  96  268.3387
  97  132.3234
  98  -668.3079
  99  -1384.695
 100  -881.8568
 101  -575.9847
 102  -94.35577
 103  58.45437
 104  -268.334
 105  -521.8029
 106  -1056.265
 107  -1187.935
 108  -469.5575
 109  96.94856
 110  900.3441
 111  425.099
 112  484.5374
 113  608.2433
 114  -533.3794
 115  -677.3333
 116  -1155.958
 117  -1155.366
 118  -620.4635
 119  -572.0928
 120  -355.9069
 121  -168.3442
 122  -65.24809
 123  163.5184
 124  -410.825
 125  -110.4513
 126  404.476
 127  562.1046
 128  593.9223
 129  314.2939
 130  234.1482
 131  -452.7008
 132  -1619.718
 133  -1650.537
 134  -1315.827
 135  -529.2347
 136  252.0147
 137  188.6868
 138  -535.6964
 139  -498.7322
 140  -234.0823
 141  161.662
 142  1088.739
 143  1208.956
 144  736.0002
 145  40.29428
 146  -151.1723
 147  -558.0326
 148  -797.3188
 149  -310.3904
 150  30.97814
 151  -927.7811
 152  -1262.213
 153  -545.5746
 154  -335.3645
 155  -324.6499
 156  -276.7755
 157  1092.423
 158  487.6957
 159  581.7388
 160  1298.71
 161  139.6266
 162  205.3604
 163  175.6087
 164  -204.6645
 165  -442.5202
 166  -630.539
 167  -506.7706
 168  -549.1216
 169  10.63127
 170  29.1934
 171  254.3473
 172  -573.5603
 173  -907.7439
 174  -201.5461
 175  629.6833
 176  1361.862
 177  1027.781
 178  966.6437
 179  214.0399
 180  -31.42913
 181  -1236.23
 182  -972.2794
 183  -348.2513
 184  60.01014
 185  772.2111
 186  1021.421
 187  1030.126
 188  1217.039
 189  1657.128
 190  1515.99
 191  2149.407
 192  2179.69
 193  1621.706
 194  1569.429
 195  893.7044
 196  315.6935
 197  -935.1385
 198  -1022.612
 199  -59.57629
 200  -257.3622
 201  506.6373
 202  -18.97229
 203  -80.92391
 204  503.3605
 205  -510.0126
 206  -839.2672
 207  -537.395
 208  288.2788
 209  1047.931
 210  716.7153
 211  1063.199
 212  835.2242
 213  -112.7803
 214  -1051.312
 215  -1508.94
 216  -802.7103
 217  -661.118
 218  -332.6803
 219  593.9123
 220  807.2003
 221  -358.0953
 222  -101.2324
 223  -298.7564
 224  1169.819
 225  1248.918
 226  900.6056
 227  555.9792
 228  446.4748
 229  515.2461
 230  -315.7722
 231  -788.2931
 232  -1034.929
 233  -695.7172
 234  -868.6242
 235  -805.3539
 236  -19.86787
 237  -167.0262
 238  369.4675
 239  -308.993
 240  317.6674
 241  452.4546
 242  934.303
 243  1759.076
 244  699.72
 245  1141.154
 246  393.7371
 247  -761.6048
 248  -1068.184
 249  -648.7725
 250  -234.0845
 251  28.22037
 252  276.3852
 253  232.6837
 254  283.5232
 255  -473.1786
 256  31.43376
 257  -126.9615
 258  1098.94
 259  1169.372
 260  730.7236
 261  989.6621
 262  393.8252
 263  -141.0167
 264  -1093.914
 265  -680.0775
 266  -88.411
 267  -379.9459
 268  59.327
 269  -251.8938
 270  -397.0617
 271  -365.7779
 272  -326.3698
 273  -246.2819
 274  868.1301
 275  1264.926
 276  603.378
 277  1032.285
 278  687.6285
 279  -84.03316
 280  -1660.143
 281  -1595.855
 282  -543.2905
 283  164.8404
 284  993.1963
 285  1040.924
 286  545.1287
 287  20.76734
 288  -1027.48
 289  -762.2359
 290  233.1343
 291  1003.226
 292  1731.613
 293  1617.555
 294  1391.125
 295  780.468
 296  -792.0241
 297  -1592.42
 298  -1045.372
 299  -1184.839
 300  -643.4247
 301  -794.1899
 302  -221.0236
 303  185.9878
 304  -856.2173
 305  -93.86683
 306  -538.8753
 307  842.2133
 308  850.8821
 309  172.6942
 310  676.2863
 311  503.5369
 312  316.61
 313  -641.8495
 314  -1238.124
 315  -1093.071
 316  -737.3248
 317  -72.94332
 318  488.1678
 319  1287.205
 320  524.3149
 321  171.444
 322  -383.2847
 323  -210.1119
 324  268.7341
 325  573.7067
 326  1088.106
 327  860.7527
 328  947.0045
 329  -750.0329
 330  -1069.121
 331  -903.8497
 332  1.413574
 333  -144.0498
 334  -195.8033
 335  -19.68379
 336  -524.9229
 337  128.8213
 338  -798.7349
 339  -244.5913
 340  428.5927
 341  1247.374
 342  1385.903
 343  546.5087
 344  935.0668
 345  -617.7983
 346  -1390.095
 347  -1228.014
 348  -504.19
 349  69.20642
 350  -502.4187
 351  -186.0882
 352  141.7711
 353  -56.7674
 354  -371.9253
 355  -257.6626
 356  315.3219
 357  1382.462
 358  1280.253
 359  939.8555
 360  632.5806
 361  190.47
 362  -121.1389
 363  -1187.405
 364  -1317.131
 365  -677.9425
 366  26.98668
 367  574.0368
 368  464.7294
 369  438.1556
 370  488.0599
 371  -776.4794
 372  -590.941
 373  200.7448
 374  1489.567
 375  1293.878
 376  1293.57
 377  1351.443
 378  159.4647
 379  -1228.19
 380  -1398.205
 381  -481.2459
 382  -488.4721
 383  -399.9182
 384  125.387
 385  449.9704
 386  588.7333
 387  -339.8601
 388  -313.1798
 389  62.18904
 390  509.7077
 391  1066.383
 392  343.0441
 393  1373.165
 394  1504.316
 395  232.7402
 396  -414.7119
 397  -734.9911
 398  -650.4255
 399  -677.3303
 400  -33.45257
 401  607.1058
 402  705.2479
 403  -297.0125
 404  -124.9165
 405  -701.1729
 406  425.388
 407  1184.804
 408  762.4429
 409  727.1821
 410  576.8846
 411  293.8545
 412  -159.0431
 413  -422.1875
 414  -266.45
 415  299.098
 416  413.5571
 417  291.3824
 418  533.399
 419  208.6336
 420  228.3869
 421  -110.3051
 422  849.6685
 423  1421.886
 424  1382.048
 425  1503.218
 426  981.8517
 427  811.2375
 428  -244.0154
 429  -1250.158
 430  -135.9539
 431  146.5686
 432  373.9855
 433  -108.7936
 434  -66.65038
 435  126.8095
 436  9.250174
 437  -221.815
 438  -54.53817
 439  818.5303
 440  1721.827
 441  1318.158
 442  822.1079
 443  586.0657
 444  165.8458
 445  -684.9741
 446  -843.7022
 447  -593.0731
 448  -72.18758
 449  -419.9565
 450  162.8081
 451  485.0418
 452  101.3491
 453  -382.9164
 454  -775.8505
 455  11.78402
 456  635.7842
 457  616.2748
 458  649.0093
 459  987.7656
 460  776.4309
 461  -112.7442
 462  -1097.322
 463  -1610.121
 464  -1035.504
 465  -1035.512
 466  -702.4505
 467  -11.1556
 468  -123.3045
 469  435.1715
 470  -591.5215
 471  -1099.863
 472  -445.9391
 473  -337.4921
 474  745.4783
 475  307.5347
 476  1039.353
 477  700.0568
 478  -564.2586
 479  -1178.214
 480  -724.0399
 481  -870.2493
 482  -714.9589
 483  -600.8317
 484  -45.58112
 485  290.7131
 486  -1279.389
 487  -414.2456
 488  54.68618
 489  950.8829
 490  1847.888
 491  648.5159
 492  326.7533
 493  -19.77489
 494  -592.2431
 495  -550.8745
 496  -632.2224
 497  -497.2907
 498  -252.7796
 499  2.609015
 500  -84.29072
 501  19.646
 502  -222.4333
 503  -264.1344
 504  -209.1926
 505  572.2144
 506  1304.699
 507  954.1634
 508  776.4404
 509  770.434
 510  587.1157
 511  -146.5117
