# Input file       =  1209819896.111669_cleaned.dat
# Candidate        =  PSR_0332+5434
# Telescope        =  AR
# Epoch_topo       =  58246.545313792463
# Epoch_bary       =  N/A
# T_sample         =  0.002
# Data Folded      =  7340032
# Data Avg         =  0.256914210166932
# Data StdDev      =  6.76165212583826 
# Profile Bins     =  512
# Profile Avg      =  3683.53169926765 
# Profile StdDev   =  809.593139950031 
# Reduced chi-sqr  =  0.749
# Prob(Noise)      <  1   (~0.0 sigma)
# P_topo (ms)      =  714.54011943311   +/- 0.0005
# P'_topo (s/s)    =  -0                +/- 2.64e-10
# P''_topo (s/s^2) =  0                 +/- 1.16e-13
# P_bary (ms)      =  N/A
# P'_bary (s/s)    =  N/A
# P''_bary (s/s^2) =  N/A
# P_orb (s)        =  N/A
# asin(i)/c (s)    =  N/A
# eccentricity     =  N/A
# w (rad)          =  N/A
# T_peri           =  N/A
######################################################
   0  3883.776
   1  3661.326
   2  3750.623
   3  3857.521
   4  3955.559
   5  3751.057
   6  3769.644
   7  3680.507
   8  3667.118
   9  3731.98
  10  4197.598
  11  3650.668
  12  3323.977
  13  3723.643
  14  3843.571
  15  3722.589
  16  3689.06
  17  3530.572
  18  3042.423
  19  3210.23
  20  2983.099
  21  3392.208
  22  3484.542
  23  3400.871
  24  3993.137
  25  3840.632
  26  3781.98
  27  3955.291
  28  4051.141
  29  4192.358
  30  3983.983
  31  3344.314
  32  3358.365
  33  3193.402
  34  3360.413
  35  3584.733
  36  3894.667
  37  4241.517
  38  4046.03
  39  3986.648
  40  4170.63
  41  4465.363
  42  4363.097
  43  4035.216
  44  3917.723
  45  3705.176
  46  3637.398
  47  3882.002
  48  3829.259
  49  3714.202
  50  3795.195
  51  3532.199
  52  3483.989
  53  3240.725
  54  2970.313
  55  3315.808
  56  3594.06
  57  3598.389
  58  3467.523
  59  3384.902
  60  3306.541
  61  3150.653
  62  2953.477
  63  2994.071
  64  3503.708
  65  3357.247
  66  3377.758
  67  3451.904
  68  3492.632
  69  3187.429
  70  3318.792
  71  3258.26
  72  3622.826
  73  3262.832
  74  2941.071
  75  2794.477
  76  2858.198
  77  3117.912
  78  3127.001
  79  3499.171
  80  3511.032
  81  3359.219
  82  3550.664
  83  3458.351
  84  3179.837
  85  3080.637
  86  3253.584
  87  3353.031
  88  3652.031
  89  3754.849
  90  3426.14
  91  3475.055
  92  3838.281
  93  3725.172
  94  3523.21
  95  3224.337
  96  2976.514
  97  3435.586
  98  3634.254
  99  3525.069
 100  3827.496
 101  3768.821
 102  3603.313
 103  3389.852
 104  3320.322
 105  3757.841
 106  4201.151
 107  4429.333
 108  3992.412
 109  3901.688
 110  4090.719
 111  4117.332
 112  3881.824
 113  4106.913
 114  4238.271
 115  3898.852
 116  3736.739
 117  3779.888
 118  3810.151
 119  3715.291
 120  3901.706
 121  3835.784
 122  4123.093
 123  4238.674
 124  3925.106
 125  3935.34
 126  3609.74
 127  3600.153
 128  3749.985
 129  3551.085
 130  3582.733
 131  3914.165
 132  3765.51
 133  3601.736
 134  3721.555
 135  3644.865
 136  3770.94
 137  3589.593
 138  3409.658
 139  3556.963
 140  3625.005
 141  3578.121
 142  3495.79
 143  3010.143
 144  2753.002
 145  3394.153
 146  3516.891
 147  3524.597
 148  2907.434
 149  2894.495
 150  3281.717
 151  3096.034
 152  3491.354
 153  3513.71
 154  3610.083
 155  3919.72
 156  3734.347
 157  3716.516
 158  3585.738
 159  3432.199
 160  3612.09
 161  3954.863
 162  4125.839
 163  3734.071
 164  3998.145
 165  4394.342
 166  4348.208
 167  3733.688
 168  3769.321
 169  4160.831
 170  4128.692
 171  4440.756
 172  4359.833
 173  4075.312
 174  3745.194
 175  3454.677
 176  3331.481
 177  3957.027
 178  3322.65
 179  3154.018
 180  3521.399
 181  3833.993
 182  3514.995
 183  3743.803
 184  3730.033
 185  3515.734
 186  3386.624
 187  3621.798
 188  3843.2
 189  3741.3
 190  3939.789
 191  3892.949
 192  3803.891
 193  3761.043
 194  3802.669
 195  3933.744
 196  3678.179
 197  4045.354
 198  3894.784
 199  3578.613
 200  3978.841
 201  4118.926
 202  4425.831
 203  4453.736
 204  4629.116
 205  4886.5
 206  4729.342
 207  4893.857
 208  5125.224
 209  4662.39
 210  4848.026
 211  4805.926
 212  4377.176
 213  4962.394
 214  4983.708
 215  4480.216
 216  4036.504
 217  4015.956
 218  4005.941
 219  4199.038
 220  4014.989
 221  3935.551
 222  4008.95
 223  4374.582
 224  4574.173
 225  4751.281
 226  4421.352
 227  4205.99
 228  3785.658
 229  3981.096
 230  4382.196
 231  4268.159
 232  4070.53
 233  3782.68
 234  3879.161
 235  4082.424
 236  4254.637
 237  4226.112
 238  4518.538
 239  4550.675
 240  4465.462
 241  4152.191
 242  4197.455
 243  4342.423
 244  4330.667
 245  4190.697
 246  4228.086
 247  4270.694
 248  4221.167
 249  4422.57
 250  4364.347
 251  3922.101
 252  3971.926
 253  4147.95
 254  4190.864
 255  4168.839
 256  4482.252
 257  4383.758
 258  3733.797
 259  3184.262
 260  3623.505
 261  3888.792
 262  3796.191
 263  3883.63
 264  3579.876
 265  3396.558
 266  3206.702
 267  3306.932
 268  3329.02
 269  3283.521
 270  3607.968
 271  4141.09
 272  3815.492
 273  3650.891
 274  3282.792
 275  3286.165
 276  3224.488
 277  3208
 278  3089.709
 279  3128.58
 280  3240.447
 281  2957.783
 282  2798.823
 283  2999.41
 284  3080.858
 285  2841.337
 286  2866.685
 287  2855.892
 288  2957.813
 289  3044.452
 290  3296.077
 291  4001.087
 292  4224.101
 293  3584.629
 294  3830.596
 295  3973.449
 296  4134.238
 297  4441.19
 298  4787.568
 299  5173.834
 300  5328.191
 301  5184.989
 302  4643.682
 303  3980.457
 304  3419.271
 305  3555.261
 306  3603.618
 307  3084.555
 308  3259.953
 309  3239.882
 310  3365.656
 311  3670.887
 312  4077.82
 313  3777.101
 314  3959.478
 315  4141.736
 316  3540.245
 317  3481.504
 318  3274.803
 319  3260.275
 320  3280.245
 321  3375.719
 322  3418.887
 323  3126.245
 324  3169.851
 325  3565.298
 326  3382.198
 327  3356.507
 328  3403.79
 329  3483.353
 330  3262.139
 331  3558.751
 332  3537.749
 333  3383.858
 334  3643.471
 335  3673.4
 336  3522.139
 337  3427.471
 338  3920.853
 339  4306.506
 340  4081.312
 341  3923.556
 342  4054.169
 343  3574.835
 344  3813.249
 345  3989.352
 346  4172.452
 347  4145.17
 348  4072.821
 349  3865.608
 350  3781.963
 351  3853.84
 352  3903.885
 353  3720.618
 354  3745.41
 355  3832.4
 356  3763.543
 357  3890.596
 358  3946.987
 359  3530.549
 360  3317.722
 361  3340.688
 362  3463.283
 363  3161.809
 364  3043.645
 365  2870.633
 366  2872.529
 367  2949.676
 368  2988.004
 369  2834.666
 370  2613.866
 371  2894.114
 372  2936.103
 373  2631.927
 374  2961.603
 375  2900.209
 376  2674.087
 377  2590.621
 378  2479.23
 379  2394.708
 380  2771.417
 381  3132.071
 382  2798.136
 383  3029.675
 384  3191.045
 385  3180.186
 386  3293.139
 387  2950.177
 388  2630.585
 389  2630.234
 390  2946.952
 391  3136.01
 392  3405.406
 393  3100.847
 394  2956.149
 395  3012.673
 396  2626.021
 397  2538.647
 398  2496.628
 399  2486.405
 400  3126.033
 401  3508.706
 402  3483.384
 403  3137.663
 404  3367.802
 405  3454.727
 406  3560.757
 407  3836.636
 408  3843.975
 409  3707.821
 410  3693.269
 411  3835.234
 412  3706.04
 413  4126.501
 414  3866.404
 415  3936.687
 416  4032.371
 417  3707.777
 418  3588.793
 419  3699.523
 420  3925.58
 421  4147.559
 422  4133.785
 423  3640.891
 424  3734.729
 425  3613.719
 426  3641.163
 427  3414.594
 428  3510.835
 429  3244.419
 430  3355.931
 431  3379.515
 432  2922.088
 433  3058.546
 434  3155.922
 435  3299.031
 436  3313.298
 437  3071.387
 438  2882.041
 439  2819.163
 440  2769.649
 441  3022.086
 442  3333.486
 443  3478.798
 444  3452.156
 445  3329.506
 446  3454.252
 447  3213.446
 448  3089.463
 449  2864.237
 450  2883.489
 451  2868.699
 452  3284.238
 453  3195.217
 454  3163.383
 455  3631.583
 456  3824.381
 457  3988.045
 458  4076.273
 459  4013.346
 460  4095.845
 461  4070.6
 462  4599.773
 463  4519.303
 464  4131.28
 465  4145.001
 466  4238.5
 467  4507.137
 468  4464.205
 469  4135.577
 470  4062.414
 471  4010.344
 472  3811.502
 473  3708.295
 474  4009.281
 475  3461.371
 476  3953.962
 477  4236
 478  4074.642
 479  3801.773
 480  3700.018
 481  3805.152
 482  3895.996
 483  3821.443
 484  3871.307
 485  3484.961
 486  3525.622
 487  3499.198
 488  3450.335
 489  3713.112
 490  3748.002
 491  3606.336
 492  3520.913
 493  3479.507
 494  3486.705
 495  3618.214
 496  4015.859
 497  4195.522
 498  4225.895
 499  3953.456
 500  3839.639
 501  3803.973
 502  4127.25
 503  4699.462
 504  5056.735
 505  5106.806
 506  5136.976
 507  4773.1
 508  4465.207
 509  4505.593
 510  4229.986
 511  4137.08
