# Input file       =  1209014843.115618-PSRB0329-2ms-sampling-dd.dat
# Candidate        =  PSR_0332+5434
# Telescope        =  AR
# Epoch_topo       =  58237.227570782612
# Epoch_bary       =  N/A
# T_sample         =  0.002
# Data Folded      =  7208960
# Data Avg         =  -2.2976010186344e-10
# Data StdDev      =  7.20351097423407 
# Profile Bins     =  512
# Profile Avg      =  -2.6344050569449e-05
# Profile StdDev   =  854.762675022267 
# Reduced chi-sqr  =  0.822
# Prob(Noise)      <  0.999   (~0.0 sigma)
# P_topo (ms)      =  714.548301847142  +/- 3.84e-05
# P'_topo (s/s)    =  -0                +/- 2.06e-11
# P''_topo (s/s^2) =  0                 +/- 9.27e-15
# P_bary (ms)      =  N/A
# P'_bary (s/s)    =  N/A
# P''_bary (s/s^2) =  N/A
# P_orb (s)        =  N/A
# asin(i)/c (s)    =  N/A
# eccentricity     =  N/A
# w (rad)          =  N/A
# T_peri           =  N/A
######################################################
   0  -713.3165
   1  -470.7268
   2  -167.4185
   3  -140.5121
   4  -912.0279
   5  -929.3571
   6  -762.8346
   7  -409.0838
   8  276.647
   9  -180.7926
  10  -164.1474
  11  35.93958
  12  4.545988
  13  -1249.298
  14  -1408.826
  15  -912.4343
  16  -385.3761
  17  -694.1416
  18  -669.3587
  19  122.8504
  20  -16.24934
  21  -774.5444
  22  -966.357
  23  -827.8182
  24  -325.6227
  25  -693.6419
  26  -324.9184
  27  172.4819
  28  60.67801
  29  -790.3549
  30  -1083.991
  31  -1049.054
  32  -576.2056
  33  -550.7304
  34  -910.938
  35  -478.1506
  36  -76.77811
  37  -307.7578
  38  -910.8898
  39  -618.0789
  40  -464.3836
  41  39.91072
  42  -122.0436
  43  40.47758
  44  139.9121
  45  -213.3838
  46  -629.687
  47  -861.0506
  48  -460.061
  49  -153.4884
  50  258.6933
  51  187.3052
  52  759.3712
  53  365.2532
  54  -767.2128
  55  -759.7549
  56  -343.1484
  57  392.857
  58  430.8012
  59  63.47241
  60  284.9926
  61  334.8512
  62  -341.6056
  63  -1226.79
  64  -648.9675
  65  -51.92609
  66  17.93316
  67  -329.5729
  68  67.94819
  69  93.35654
  70  83.28912
  71  -286.3202
  72  -585.3665
  73  -30.32553
  74  -81.81785
  75  605.5735
  76  1261.615
  77  1526.581
  78  506.9072
  79  -796.5988
  80  -1190.338
  81  -560.1115
  82  79.54339
  83  -0.4039116
  84  564.4293
  85  518.0911
  86  15.47882
  87  -658.4271
  88  -1419.548
  89  -664.2117
  90  -359.5807
  91  -5.324115
  92  84.4255
  93  286.9297
  94  380.1122
  95  -488.12
  96  -1156.154
  97  -969.0298
  98  -557.3878
  99  -845.8745
 100  -652.9039
 101  -375.9651
 102  406.2217
 103  108.0194
 104  -347.9784
 105  -632.9208
 106  -674.1824
 107  -478.223
 108  -431.567
 109  180.9465
 110  457.8803
 111  -169.3743
 112  -446.1628
 113  -440.0916
 114  -572.3885
 115  295.3707
 116  -116.306
 117  -143.0645
 118  211.1736
 119  -17.69084
 120  -594.3686
 121  -533.1155
 122  -128.0384
 123  -6.422436
 124  229.2123
 125  603.9391
 126  209.3357
 127  13.04473
 128  -984.4811
 129  -1112.768
 130  -844.8998
 131  -247.0553
 132  -348.0363
 133  -13.71356
 134  579.9643
 135  424.9027
 136  132.1971
 137  -904.2626
 138  -852.5351
 139  -575.1102
 140  -244.4003
 141  250.7264
 142  647.9115
 143  825.0227
 144  315.2813
 145  -487.4305
 146  -530.5137
 147  -241.2048
 148  107.5211
 149  105.9871
 150  -313.6494
 151  221.9489
 152  217.9599
 153  -603.2805
 154  -501.139
 155  -394.7574
 156  -70.96783
 157  -374.8047
 158  -305.8056
 159  749.6844
 160  928.5475
 161  108.1564
 162  -761.4641
 163  -474.0506
 164  -165.7179
 165  -195.9629
 166  -301.7898
 167  233.0876
 168  587.2288
 169  -59.63798
 170  -668.3687
 171  -768.8866
 172  -23.42272
 173  195.139
 174  171.836
 175  433.9805
 176  437.5502
 177  133.0214
 178  118.2339
 179  -490.4405
 180  -370.9707
 181  29.67243
 182  -136.6384
 183  -112.0892
 184  -216.4184
 185  98.06925
 186  -182.3914
 187  -668.091
 188  81.71452
 189  690.2151
 190  880.0531
 191  814.7763
 192  113.3152
 193  299.7183
 194  292.175
 195  -210.1108
 196  -225.9871
 197  -129.3872
 198  497.4214
 199  614.5061
 200  997.7025
 201  1694.947
 202  1111.783
 203  1115.984
 204  1537.564
 205  2014.51
 206  1953.738
 207  1647.709
 208  1649.266
 209  1274.364
 210  736.5265
 211  -364.6335
 212  -60.74754
 213  -272.7169
 214  -0.09695089
 215  546.1896
 216  354.0197
 217  553.8262
 218  433.2325
 219  -458.8499
 220  -538.26
 221  -80.22877
 222  87.62139
 223  466.4489
 224  429.4295
 225  418.728
 226  315.4484
 227  -354.9416
 228  -779.2283
 229  -970.3996
 230  161.521
 231  236.3564
 232  -107.6802
 233  300.7158
 234  335.5229
 235  -70.98788
 236  -907.6124
 237  -748.3414
 238  -362.6807
 239  277.7665
 240  451.8866
 241  318.3781
 242  546.5247
 243  184.1651
 244  -687.5889
 245  -928.9923
 246  -920.5518
 247  -452.7382
 248  -71.27451
 249  110.9663
 250  410.9328
 251  265.0825
 252  -340.8876
 253  -359.802
 254  -93.80235
 255  473.9903
 256  135.1882
 257  167.5782
 258  152.9604
 259  290.7285
 260  -165.3362
 261  -573.4379
 262  -428.6155
 263  -214.8879
 264  -245.1003
 265  -344.1622
 266  244.2711
 267  1034.855
 268  279.808
 269  -388.8118
 270  -435.1609
 271  -165.8863
 272  94.95852
 273  186.8493
 274  924.9421
 275  691.1205
 276  -157.2034
 277  -401.5682
 278  -720.2452
 279  -411.3636
 280  27.94303
 281  131.7067
 282  524.1494
 283  492.0118
 284  903.8276
 285  -120.4126
 286  -803.8584
 287  -226.6431
 288  -61.79543
 289  141.4246
 290  451.7058
 291  579.2953
 292  570.9991
 293  94.33197
 294  -414.6086
 295  63.01619
 296  410.4062
 297  509.4763
 298  215.7515
 299  281.4705
 300  241.3631
 301  -108.4234
 302  -440.4073
 303  103.0895
 304  728.4454
 305  581.2201
 306  430.6128
 307  686.0443
 308  776.8461
 309  609.8528
 310  -237.8493
 311  -278.2858
 312  -158.9078
 313  445.6901
 314  107.5543
 315  -80.27394
 316  662.5168
 317  1082.568
 318  336.8414
 319  -667.5541
 320  -566.1526
 321  -165.1365
 322  203.491
 323  639.6715
 324  709.6458
 325  678.7211
 326  -345.5049
 327  -901.9447
 328  -480.9101
 329  347.2716
 330  145.3275
 331  328.0143
 332  412.0361
 333  397.6177
 334  -203.4019
 335  -659.3173
 336  -122.8607
 337  177.2511
 338  138.7413
 339  102.5026
 340  198.246
 341  733.8812
 342  778.6129
 343  271.6941
 344  -322.0263
 345  -252.154
 346  -545.4415
 347  -599.5754
 348  -24.39282
 349  940.7956
 350  1401.875
 351  558.5063
 352  -61.77625
 353  -70.82185
 354  224.494
 355  40.87914
 356  -76.91802
 357  754.4847
 358  1150.283
 359  642.4083
 360  505.9885
 361  40.77298
 362  227.8645
 363  427.9421
 364  32.67478
 365  359.1978
 366  694.8163
 367  177.6771
 368  -621.5814
 369  -623.4855
 370  416.0763
 371  921.0865
 372  608.2919
 373  581.1229
 374  615.1381
 375  172.6397
 376  -230.3481
 377  -346.3177
 378  35.88411
 379  330.9582
 380  367.418
 381  -508.9922
 382  -271.5415
 383  337.1715
 384  -187.6233
 385  -450.9307
 386  -23.78685
 387  506.5859
 388  397.636
 389  445.0149
 390  431.5484
 391  347.7604
 392  172.8299
 393  -599.6408
 394  -653.1952
 395  -222.669
 396  -63.98499
 397  -414.8369
 398  -314.5796
 399  120.8177
 400  -153.1588
 401  -747.2784
 402  -604.5103
 403  -102.8854
 404  24.51299
 405  613.2291
 406  408.3558
 407  279.2313
 408  -268.3826
 409  -1099.192
 410  -931.5721
 411  -539.6335
 412  292.6825
 413  -11.83148
 414  -404.4774
 415  31.48136
 416  -60.83329
 417  -639.8846
 418  -1042.73
 419  -455.5761
 420  -124.252
 421  28.60625
 422  248.6582
 423  495.0475
 424  1111.688
 425  1050.908
 426  -78.97538
 427  -773.4764
 428  -476.23
 429  -864.7529
 430  -461.4074
 431  -276.263
 432  665.4431
 433  663.4551
 434  -216.5392
 435  -223.6558
 436  112.1396
 437  303.2293
 438  -249.2163
 439  -113.6208
 440  282.4037
 441  364.316
 442  -243.4819
 443  -550.8936
 444  -38.09241
 445  409.0799
 446  478.1601
 447  99.23836
 448  118.0238
 449  85.14108
 450  -364.6814
 451  -236.7907
 452  129.1485
 453  268.8676
 454  745.5107
 455  717.9412
 456  761.3189
 457  946.4977
 458  606.952
 459  111.9844
 460  -182.2351
 461  71.93624
 462  491.4626
 463  301.2797
 464  395.8972
 465  616.4391
 466  1055.608
 467  -79.1841
 468  -576.5495
 469  -436.7445
 470  -138.7789
 471  -172.35
 472  214.2715
 473  560.0556
 474  537.8991
 475  -272.9382
 476  -589.0449
 477  91.34291
 478  221.3031
 479  490.1316
 480  241.0007
 481  277.4499
 482  -44.72179
 483  -170.7682
 484  -195.5489
 485  175.7219
 486  1358.469
 487  1378.558
 488  1201.569
 489  923.8207
 490  806.8195
 491  698.1489
 492  -506.1887
 493  -255.1944
 494  22.42188
 495  555.9687
 496  292.1109
 497  -196.0444
 498  414.0398
 499  701.4547
 500  -116.2732
 501  -740.8741
 502  -546.4857
 503  -510.7437
 504  115.9891
 505  223.8599
 506  744.7233
 507  259.1276
 508  -658.3354
 509  -1609.915
 510  -1562.148
 511  -681.5156
