# Input file       =  1209647534.116264-PSRB0329-2ms-sampling-dd.dat
# Candidate        =  PSR_0332+5434
# Telescope        =  AR
# Epoch_topo       =  58244.550383290094
# Epoch_bary       =  N/A
# T_sample         =  0.002
# Data Folded      =  7340032
# Data Avg         =  -2.91262624396078e-10
# Data StdDev      =  6.12889495246287 
# Profile Bins     =  512
# Profile Avg      =  -0.0542238575275226
# Profile StdDev   =  733.831202292615 
# Reduced chi-sqr  =  0.608
# Prob(Noise)      <  1   (~0.0 sigma)
# P_topo (ms)      =  714.541989021144  +/- 0.000236
# P'_topo (s/s)    =  -0                +/- 1.25e-10
# P''_topo (s/s^2) =  0                 +/- 5.5e-14
# P_bary (ms)      =  N/A
# P'_bary (s/s)    =  N/A
# P''_bary (s/s^2) =  N/A
# P_orb (s)        =  N/A
# asin(i)/c (s)    =  N/A
# eccentricity     =  N/A
# w (rad)          =  N/A
# T_peri           =  N/A
######################################################
   0  -193.9323
   1  -382.6035
   2  -151.2316
   3  85.64797
   4  72.28876
   5  70.12238
   6  105.546
   7  -100.6388
   8  -347.8149
   9  -43.83168
  10  389.1806
  11  440.839
  12  363.2628
  13  163.3831
  14  156.0036
  15  179.0136
  16  -272.7322
  17  -203.1452
  18  16.61362
  19  318.6409
  20  -98.89754
  21  -56.51187
  22  -259.0154
  23  -472.6982
  24  -322.5473
  25  -237.195
  26  19.10633
  27  244.6608
  28  280.1168
  29  452.8631
  30  285.9227
  31  196.8193
  32  882.8113
  33  614.2802
  34  407.0936
  35  298.9269
  36  474.5046
  37  356.6375
  38  -0.3089845
  39  -23.87068
  40  153.1794
  41  199.6561
  42  314.5186
  43  175.5505
  44  41.56362
  45  -395.7784
  46  -227.384
  47  -16.93111
  48  -254.6297
  49  72.61118
  50  45.19586
  51  -105.8797
  52  -143.938
  53  153.6542
  54  57.2487
  55  112.4233
  56  -176.5729
  57  -206.3639
  58  170.7774
  59  377.6163
  60  309.8123
  61  253.9662
  62  854.4299
  63  107.7826
  64  -378.0505
  65  -340.2098
  66  174.6615
  67  235.9904
  68  327.5467
  69  577.6589
  70  610.0118
  71  548.865
  72  711.4755
  73  54.93729
  74  15.99591
  75  205.5091
  76  -79.29932
  77  336.0784
  78  330.6752
  79  295.8448
  80  263.337
  81  -59.17871
  82  -561.9579
  83  -611.6487
  84  -241.9438
  85  -358.0465
  86  -302.1514
  87  -175.9942
  88  155.6925
  89  206.4436
  90  -209.3717
  91  -136.2387
  92  -41.421
  93  267.5824
  94  -245.9044
  95  63.7872
  96  228.4902
  97  93.94241
  98  316.0643
  99  450.5692
 100  178.6247
 101  -79.27907
 102  -172.3612
 103  -367.3396
 104  -303.8793
 105  -547.1428
 106  -481.7393
 107  -25.47487
 108  -298.5595
 109  -238.4074
 110  -255.999
 111  -131.4931
 112  -503.8001
 113  -452.8654
 114  -515.9423
 115  -787.7949
 116  -365.1951
 117  -130.9642
 118  -282.2828
 119  -280.8078
 120  -63.80873
 121  -213.8692
 122  -439.709
 123  -132.1423
 124  293.0519
 125  107.133
 126  -437.6479
 127  -751.7206
 128  -597.9562
 129  -234.469
 130  -85.83009
 131  -321.2124
 132  -483.9946
 133  -354.3451
 134  -188.5068
 135  -99.6276
 136  -32.32251
 137  88.82812
 138  420.5547
 139  9.290743
 140  -39.08674
 141  267.3652
 142  530.4886
 143  506.1434
 144  367.4979
 145  591.2346
 146  264.7504
 147  -84.44315
 148  -351.8218
 149  -466.4666
 150  -379.0644
 151  -307.8102
 152  112.9629
 153  -414.2829
 154  -195.1414
 155  -76.82278
 156  -235.7848
 157  -492.3893
 158  -722.6537
 159  -268.4994
 160  -199.2509
 161  -162.556
 162  31.95943
 163  -398.7874
 164  -59.58801
 165  -67.39203
 166  -351.271
 167  -611.1872
 168  -226.1927
 169  -20.90548
 170  62.3194
 171  459.1
 172  150.6651
 173  231.7203
 174  427.6453
 175  435.0805
 176  -102.5132
 177  -135.0059
 178  430.6531
 179  -27.75169
 180  -225.097
 181  -152.4169
 182  -199.9829
 183  -501.7108
 184  -238.7655
 185  -25.41051
 186  84.0598
 187  322.9495
 188  172.896
 189  -46.81678
 190  -26.65271
 191  -47.72729
 192  210.5207
 193  320.9938
 194  107.8002
 195  36.61663
 196  46.84744
 197  371.3113
 198  189.1611
 199  437.3281
 200  513.8947
 201  302.5228
 202  220.4695
 203  218.4409
 204  133.1632
 205  233.9933
 206  -0.06026309
 207  -6.42136
 208  -121.2352
 209  -216.2486
 210  -404.0318
 211  -600.1332
 212  -130.5536
 213  -199.2033
 214  -312.6028
 215  -363.429
 216  66.54804
 217  328.4894
 218  12.0624
 219  148.0491
 220  -468.0417
 221  -536.3664
 222  -595.7691
 223  14.77118
 224  12.80529
 225  -101.417
 226  -91.65829
 227  -54.13261
 228  104.8056
 229  -452.9143
 230  -660.7672
 231  -315.8079
 232  -24.93622
 233  -184.3111
 234  -193.2308
 235  -74.03745
 236  -194.013
 237  -202.9779
 238  -463.04
 239  -439.5663
 240  -295.4751
 241  -467.2113
 242  -250.1629
 243  -265.1394
 244  -345.8176
 245  -35.42761
 246  30.95291
 247  13.63886
 248  -193.368
 249  -166.9315
 250  -584.5939
 251  -30.61292
 252  415.4435
 253  525.361
 254  677.1959
 255  462.4227
 256  393.3911
 257  407.5132
 258  220.069
 259  345.6349
 260  437.6672
 261  -93.61052
 262  -652.248
 263  -540.5842
 264  -189.4132
 265  -130.2901
 266  -415.5271
 267  -403.1243
 268  -409.1918
 269  -600.0778
 270  -630.0471
 271  -551.6044
 272  -328.1557
 273  -346.1479
 274  -511.7275
 275  -564.8046
 276  -737.3746
 277  -794.8634
 278  -877.5169
 279  -561.7972
 280  -245.902
 281  360.1053
 282  284.6216
 283  38.90559
 284  -193.0417
 285  -529.8017
 286  -141.0079
 287  -161.0242
 288  365.7558
 289  282.6985
 290  16.53493
 291  210.9652
 292  -168.1471
 293  -195.2598
 294  -604.8877
 295  -531.0129
 296  -530.1555
 297  -531.623
 298  -474.3202
 299  -741.7885
 300  -802.5058
 301  -940.1318
 302  -847.1371
 303  -1116.146
 304  -936.9527
 305  -954.026
 306  -765.4923
 307  -540.9742
 308  -287.9005
 309  -703.3895
 310  -481.8906
 311  -643.7632
 312  -840.6172
 313  -734.7949
 314  -380.7121
 315  -11.38656
 316  -199.7358
 317  -221.3009
 318  -148.9793
 319  -269.0885
 320  -351.7957
 321  32.53639
 322  387.7409
 323  300.3213
 324  281.3535
 325  465.7231
 326  397.3684
 327  30.42703
 328  -396.4713
 329  -287.296
 330  -35.52427
 331  -73.56979
 332  -91.55729
 333  -5.226018
 334  -106.9574
 335  -20.97849
 336  -147.5455
 337  -230.9814
 338  29.51273
 339  291.7947
 340  335.011
 341  -28.46718
 342  -166.0085
 343  -34.01206
 344  -74.30184
 345  -138.1008
 346  391.6632
 347  770.513
 348  777.3734
 349  290.4048
 350  483.1777
 351  114.6656
 352  281.0533
 353  277.6891
 354  420.658
 355  443.3918
 356  478.9652
 357  187.4205
 358  40.9649
 359  132.0134
 360  392.5554
 361  521.2665
 362  527.6025
 363  536.4985
 364  421.5483
 365  237.068
 366  97.80413
 367  118.1722
 368  374.8741
 369  123.7606
 370  -85.09447
 371  51.12242
 372  315.6414
 373  286.824
 374  344.02
 375  251.2298
 376  124.306
 377  -127.6782
 378  -468.496
 379  -80.90855
 380  44.23352
 381  434.8692
 382  152.9529
 383  177.7436
 384  562.4885
 385  260.9814
 386  55.59376
 387  -107.2142
 388  226.3481
 389  359.8288
 390  246.5509
 391  233.6919
 392  -140.7908
 393  -310.8109
 394  -342.2458
 395  -31.91208
 396  320.0612
 397  498.325
 398  276.3425
 399  404.1575
 400  503.4885
 401  369.6431
 402  633.243
 403  349.3472
 404  814.2141
 405  1469.387
 406  2302.131
 407  2642.77
 408  1993.607
 409  1329.631
 410  369.5942
 411  172.5647
 412  -169.6088
 413  456.3157
 414  581.0369
 415  892.3458
 416  815.8123
 417  591.1232
 418  820.8595
 419  385.2047
 420  74.4995
 421  432.3626
 422  44.95454
 423  -183.06
 424  -25.22892
 425  -181.2981
 426  -30.29379
 427  -406.6862
 428  -445.1439
 429  -353.2867
 430  119.8485
 431  172.1759
 432  320.8144
 433  125.924
 434  -210.0277
 435  -338.3787
 436  -112.2553
 437  -417.8126
 438  115.7593
 439  526.0912
 440  607.0267
 441  532.9039
 442  763.2855
 443  346.8587
 444  -12.66068
 445  222.2461
 446  432.8751
 447  550.7888
 448  561.5033
 449  339.7153
 450  367.507
 451  545.0092
 452  -101.6967
 453  150.3281
 454  412.0479
 455  503.8062
 456  227.8151
 457  652.6893
 458  230.8361
 459  8.639645
 460  50.38718
 461  -83.52029
 462  100.5272
 463  253.7991
 464  326.6288
 465  259.3425
 466  -27.14267
 467  -147.084
 468  -118.9506
 469  -556.9144
 470  -305.7598
 471  129.0095
 472  235.3306
 473  -65.14606
 474  -290.942
 475  -114.175
 476  115.4539
 477  -361.9211
 478  -263.0866
 479  -267.6553
 480  15.26116
 481  258.8165
 482  345.5382
 483  599.8088
 484  465.2032
 485  52.79275
 486  -645.8319
 487  -685.9896
 488  -857.1796
 489  -492.0926
 490  -460.3721
 491  -638.0388
 492  -754.1793
 493  -753.425
 494  -613.501
 495  -384.1922
 496  -540.7452
 497  -339.0196
 498  -121.098
 499  -157.1349
 500  167.1449
 501  284.9912
 502  107.3405
 503  118.8202
 504  -127.2453
 505  -102.6817
 506  -109.1162
 507  258.9047
 508  8.193751
 509  20.30622
 510  85.39743
 511  -133.6916
