# Input file       =  1209374171.108860-PSRB0329-2ms-sampling-dd.dat
# Candidate        =  PSR_0332+5434
# Telescope        =  AR
# Epoch_topo       =  58241.386459593290
# Epoch_bary       =  N/A
# T_sample         =  0.002
# Data Folded      =  7340032
# Data Avg         =  -4.50210006149554e-10
# Data StdDev      =  7.6809820661605  
# Profile Bins     =  512
# Profile Avg      =  5.47556914985525 
# Profile StdDev   =  919.667305136883 
# Reduced chi-sqr  =  0.498
# Prob(Noise)      <  1   (~0.0 sigma)
# P_topo (ms)      =  714.54457397556   +/- 0.00156
# P'_topo (s/s)    =  -0                +/- 8.24e-10
# P''_topo (s/s^2) =  0                 +/- 3.64e-13
# P_bary (ms)      =  N/A
# P'_bary (s/s)    =  N/A
# P''_bary (s/s^2) =  N/A
# P_orb (s)        =  N/A
# asin(i)/c (s)    =  N/A
# eccentricity     =  N/A
# w (rad)          =  N/A
# T_peri           =  N/A
######################################################
   0  400.1848
   1  140.3522
   2  234.4651
   3  235.5007
   4  526.9353
   5  769.3456
   6  507.341
   7  662.1898
   8  269.6852
   9  154.4535
  10  395.2266
  11  216.4831
  12  414.7455
  13  135.0546
  14  295.3701
  15  645.379
  16  524.0787
  17  -18.22502
  18  -343.4947
  19  26.50424
  20  100.4856
  21  145.6991
  22  108.9247
  23  -30.79265
  24  180.2066
  25  126.1023
  26  81.62325
  27  396.546
  28  142.1319
  29  322.0095
  30  146.2797
  31  236.8035
  32  202.104
  33  -209.4406
  34  -503.1618
  35  -566.2142
  36  -356.5069
  37  252.7755
  38  297.5846
  39  -75.33888
  40  -114.0462
  41  -239.2683
  42  -152.0222
  43  111.9394
  44  259.7549
  45  278.0587
  46  479.0157
  47  -105.313
  48  163.7583
  49  417.1065
  50  127.8323
  51  69.67122
  52  -41.7201
  53  4.961827
  54  -407.3574
  55  -63.40103
  56  -158.2
  57  -80.20411
  58  103.7278
  59  184.2083
  60  74.65832
  61  -264.6664
  62  220.3273
  63  375.4706
  64  195.7081
  65  48.88588
  66  291.6186
  67  348.0707
  68  565.3176
  69  441.5475
  70  202.7353
  71  324.1501
  72  130.5696
  73  533.4319
  74  601.8853
  75  310.6568
  76  714.7096
  77  485.313
  78  37.9139
  79  177.3443
  80  495.6898
  81  808.1464
  82  637.8378
  83  272.0409
  84  478.4134
  85  619.3622
  86  348.4004
  87  503.2088
  88  820.944
  89  847.8895
  90  895.8483
  91  721.7675
  92  626.3705
  93  615.7963
  94  583.2637
  95  447.2336
  96  160.5869
  97  487.7491
  98  496.0811
  99  365.8373
 100  556.3978
 101  421.7688
 102  288.506
 103  445.6986
 104  352.6716
 105  653.6968
 106  252.0538
 107  172.265
 108  49.09778
 109  -305.2133
 110  81.30979
 111  504.1772
 112  657.1041
 113  430.0992
 114  -294.5185
 115  -204.0359
 116  97.46718
 117  155.3524
 118  13.72767
 119  -175.8622
 120  -90.18286
 121  221.6257
 122  83.06995
 123  -25.0568
 124  111.8897
 125  186.9338
 126  80.54105
 127  56.50038
 128  344.3727
 129  485.7644
 130  495.9572
 131  332.5113
 132  427.4274
 133  741.7821
 134  1061.953
 135  935.7982
 136  865.9084
 137  1281.203
 138  1026.759
 139  598.0979
 140  1055.701
 141  985.5434
 142  1067.92
 143  1185.982
 144  558.5662
 145  685.2943
 146  715.4719
 147  873.6208
 148  563.6522
 149  617.7551
 150  563.9167
 151  606.0815
 152  553.0402
 153  593.8749
 154  572.1252
 155  629.1508
 156  479.7449
 157  217.5097
 158  120.6577
 159  261.0989
 160  330.199
 161  323.7126
 162  379.388
 163  374.414
 164  233.6976
 165  310.2522
 166  338.0279
 167  164.5623
 168  186.4009
 169  99.22688
 170  208.2326
 171  -9.699357
 172  -114.791
 173  -180.2719
 174  -560.7864
 175  -463.6923
 176  104.6808
 177  1.636685
 178  -231.0321
 179  80.86097
 180  216.7144
 181  52.57035
 182  247.3951
 183  215.4217
 184  184.3948
 185  -389.4333
 186  -212.7703
 187  -31.99256
 188  33.60471
 189  86.55714
 190  -93.0306
 191  58.21188
 192  -161.9333
 193  -218.1589
 194  277.9698
 195  431.1544
 196  387.3036
 197  324.3006
 198  276.3674
 199  118.4913
 200  -266.7997
 201  -349.4925
 202  -369.6789
 203  -392.4654
 204  -372.7311
 205  -507.545
 206  -671.7843
 207  -412.282
 208  -820.033
 209  -472.2219
 210  -371.3774
 211  -177.356
 212  -343.6332
 213  -162.9831
 214  35.13572
 215  -252.4029
 216  -63.84422
 217  -38.17668
 218  -128.0213
 219  14.94078
 220  -17.20657
 221  -314.812
 222  -385.2586
 223  -34.10851
 224  50.22657
 225  109.8274
 226  25.52328
 227  -350.5416
 228  -294.6293
 229  -381.2442
 230  -252.5641
 231  -587.3393
 232  -567.965
 233  -374.1527
 234  -322.2562
 235  -300.4155
 236  -232.9458
 237  -189.3078
 238  13.54881
 239  37.86146
 240  -137.2112
 241  55.00027
 242  51.31635
 243  249.9293
 244  485.2443
 245  373.9329
 246  365.1991
 247  305.3883
 248  68.95142
 249  -239.2095
 250  -189.8575
 251  -24.27036
 252  -281.2957
 253  -436.6694
 254  -733.0904
 255  -481.5148
 256  -607.0155
 257  -314.8898
 258  78.81012
 259  -122.1538
 260  -360.9669
 261  -346.9384
 262  61.09074
 263  166.093
 264  -86.85268
 265  -339.4053
 266  -486.2177
 267  -155.4356
 268  -309.1603
 269  -173.3935
 270  -187.9566
 271  -89.65371
 272  115.049
 273  208.3262
 274  9.665174
 275  -169.9604
 276  -441.0615
 277  -329.1302
 278  -175.6758
 279  -115.9441
 280  -438.1185
 281  -360.7402
 282  -642.9642
 283  -607.4178
 284  -550.1923
 285  -626.8492
 286  -453.139
 287  -196.6245
 288  -197.2449
 289  -611.8748
 290  -713.0271
 291  -874.5413
 292  -621.8988
 293  -620.3952
 294  -769.2048
 295  -594.9285
 296  -714.0021
 297  -594.1179
 298  -447.8249
 299  -194.7106
 300  -425.1018
 301  -632.5778
 302  -406.0375
 303  -528.6327
 304  -591.2823
 305  -659.3899
 306  -263.3318
 307  -486.9216
 308  -559.7054
 309  -570.8442
 310  -681.0079
 311  -565.7191
 312  -584.6636
 313  -313.1207
 314  -328.278
 315  -207.3883
 316  -211.2661
 317  12.95898
 318  -483.5158
 319  -726.7794
 320  -146.2581
 321  126.7702
 322  -28.17504
 323  -84.23444
 324  -398.8374
 325  -216.7091
 326  -493.6509
 327  -243.3349
 328  -44.84927
 329  -59.14148
 330  -301.6642
 331  -132.0123
 332  421.1284
 333  549.9778
 334  399.6608
 335  383.699
 336  652.6684
 337  499.4089
 338  407.8033
 339  598.4221
 340  335.9366
 341  333.791
 342  467.404
 343  373.1386
 344  511.3293
 345  803.0767
 346  674.5862
 347  152.8881
 348  577.491
 349  688.077
 350  434.1337
 351  425.3781
 352  434.6978
 353  424.3374
 354  459.0801
 355  430.4963
 356  302.0758
 357  178.2233
 358  311.5024
 359  174.1202
 360  106.3792
 361  432.2533
 362  507.1112
 363  351.7188
 364  12.10958
 365  277.5744
 366  393.3088
 367  295.4624
 368  -82.6497
 369  -94.77271
 370  165.0434
 371  320.6549
 372  -123.4801
 373  -39.82542
 374  -130.8125
 375  -63.96416
 376  5.244963
 377  -188.6594
 378  -140.6624
 379  49.68576
 380  -252.8022
 381  -445.571
 382  -87.46559
 383  -183.8834
 384  -294.5022
 385  -362.4521
 386  -295.4409
 387  -321.947
 388  -277.5454
 389  -367.5934
 390  -440.2465
 391  -59.30772
 392  130.7412
 393  -232.7909
 394  -236.2625
 395  -375.7224
 396  -440.1795
 397  -415.1734
 398  -574.1859
 399  -760.0107
 400  -627.3387
 401  -715.2291
 402  -899.7244
 403  -747.4855
 404  -861.2316
 405  -950.993
 406  -869.5179
 407  -872.0699
 408  -875.4692
 409  -784.9071
 410  -937.7258
 411  -763.9992
 412  -881.2256
 413  -780.7133
 414  -958.3643
 415  -826.1788
 416  -999.753
 417  -922.403
 418  -888.2991
 419  -1024.161
 420  -1032.367
 421  -1065.303
 422  -776.5971
 423  -566.3962
 424  -366.4973
 425  -530.1476
 426  -636.0823
 427  -489.3086
 428  -454.5033
 429  -609.5083
 430  -742.119
 431  -766.7778
 432  -889.1895
 433  -676.3871
 434  -567.8777
 435  -489.6386
 436  -240.8337
 437  -389.7161
 438  -570.4612
 439  -399.0112
 440  -445.0563
 441  -382.6025
 442  -140.3563
 443  -111.4367
 444  -487.9181
 445  -569.7004
 446  -602.8686
 447  -486.2369
 448  -644.8271
 449  -748.0637
 450  -713.9199
 451  -588.5481
 452  -228.3867
 453  -23.02226
 454  176.4925
 455  -13.84091
 456  -191.2698
 457  32.47633
 458  319.8263
 459  176.8996
 460  414.7632
 461  317.0201
 462  202.1291
 463  210.2651
 464  144.9796
 465  -6.541237
 466  -336.9892
 467  -12.50019
 468  -333.7241
 469  -241.0758
 470  -168.0047
 471  -236.2552
 472  -100.8579
 473  -47.75418
 474  110.3028
 475  47.13346
 476  35.19556
 477  -269.289
 478  -80.70211
 479  193.4245
 480  230.0733
 481  -47.67945
 482  418.2109
 483  367.5605
 484  330.471
 485  112.427
 486  81.65057
 487  -146.3805
 488  -81.32685
 489  250.6274
 490  130.7036
 491  -164.5686
 492  -146.5795
 493  -330.3538
 494  -310.8278
 495  -232.0532
 496  6.469013
 497  -9.538903
 498  485.0396
 499  979.6981
 500  1243.207
 501  1871.666
 502  2009.113
 503  1799.138
 504  1677.286
 505  855.9161
 506  177.7744
 507  31.19995
 508  -4.06846
 509  186.2768
 510  244.1017
 511  461.1631
