# Input file       =  1209115697.107978-PSRB0329-2ms-sampling-dd.dat
# Candidate        =  PSR_0332+5434
# Telescope        =  AR
# Epoch_topo       =  58238.394862360859
# Epoch_bary       =  N/A
# T_sample         =  0.002
# Data Folded      =  7340032
# Data Avg         =  -1.71145432816914e-10
# Data StdDev      =  8.98530327040324 
# Profile Bins     =  512
# Profile Avg      =  1.05390463175355 
# Profile StdDev   =  1075.83764333147 
# Reduced chi-sqr  =  0.621
# Prob(Noise)      <  1   (~0.0 sigma)
# P_topo (ms)      =  714.547275120497  +/- 0.000992
# P'_topo (s/s)    =  -0                +/- 5.23e-10
# P''_topo (s/s^2) =  0                 +/- 2.31e-13
# P_bary (ms)      =  N/A
# P'_bary (s/s)    =  N/A
# P''_bary (s/s^2) =  N/A
# P_orb (s)        =  N/A
# asin(i)/c (s)    =  N/A
# eccentricity     =  N/A
# w (rad)          =  N/A
# T_peri           =  N/A
######################################################
   0  -406.6967
   1  -517.2203
   2  -679.0731
   3  -731.134
   4  -596.8619
   5  -633.5582
   6  -660.632
   7  -524.4752
   8  -161.3553
   9  -194.3667
  10  -319.8868
  11  -623.9285
  12  -158.1201
  13  -332.8852
  14  -522.9376
  15  -547.4195
  16  -277.4305
  17  -272.658
  18  -604.8094
  19  -216.4647
  20  -110.8894
  21  -381.7141
  22  -511.2014
  23  -467.478
  24  -216.4896
  25  -47.81363
  26  319.0502
  27  836.7463
  28  -108.3592
  29  -8.858207
  30  18.70177
  31  718.6837
  32  802.4022
  33  744.3325
  34  655.0993
  35  -328.3391
  36  -570.3751
  37  -537.8693
  38  -301.9254
  39  -305.77
  40  -376.1016
  41  -724.1647
  42  -980.6839
  43  -639.4058
  44  -744.7875
  45  -544.8755
  46  -250.67
  47  -491.1392
  48  -143.8529
  49  -68.77655
  50  -351.0248
  51  -248.5795
  52  -367.2561
  53  -232.914
  54  -40.59387
  55  -238.7852
  56  -31.86745
  57  -153.1285
  58  -110.187
  59  -122.1889
  60  -205.0654
  61  -0.1964427
  62  -129.1449
  63  -111.987
  64  38.3937
  65  -482.1396
  66  -439.0267
  67  -287.6312
  68  -243.467
  69  -225.2405
  70  -136.9145
  71  -159.1843
  72  -530.0008
  73  -316.9739
  74  -83.77623
  75  -59.75941
  76  -101.8421
  77  -268.7428
  78  -377.5338
  79  -494.1052
  80  -677.7889
  81  -229.3279
  82  -25.42781
  83  0.5530109
  84  -381.4056
  85  -380.0869
  86  -667.3372
  87  -446.2874
  88  -163.3246
  89  -146.7142
  90  -449.9724
  91  -461.2295
  92  -215.1967
  93  -530.8547
  94  -483.2657
  95  -47.47336
  96  -94.95811
  97  -16.03833
  98  -97.61324
  99  -78.05848
 100  452.1322
 101  428.1074
 102  467.2271
 103  573.4991
 104  9.541309
 105  -25.31124
 106  356.9164
 107  419.0705
 108  703.0836
 109  660.2599
 110  134.7694
 111  2.368455
 112  329.618
 113  165.4611
 114  114.4702
 115  326.6884
 116  242.4349
 117  -95.81422
 118  -284.6764
 119  -71.93724
 120  -47.74576
 121  26.03985
 122  115.2973
 123  151.6396
 124  -57.67646
 125  -440.864
 126  -437.6641
 127  -311.0979
 128  -169.0664
 129  -270.7079
 130  -278.9799
 131  -134.0011
 132  -328.5491
 133  -624.5906
 134  -466.6567
 135  -167.8319
 136  88.89673
 137  466.2887
 138  432.6048
 139  289.7334
 140  -17.58585
 141  11.93294
 142  36.14713
 143  246.2623
 144  525.0044
 145  53.26504
 146  -99.36957
 147  236.0623
 148  375.8927
 149  311.123
 150  52.23611
 151  -129.2874
 152  -546.4371
 153  -793.672
 154  -494.9849
 155  -276.1301
 156  -200.837
 157  -221.5375
 158  -165.3187
 159  -333.7976
 160  -161.1893
 161  149.4319
 162  117.0848
 163  -369.3295
 164  -315.2318
 165  440.0858
 166  587.231
 167  401.9725
 168  608.4662
 169  -57.09602
 170  -303.1433
 171  -371.1529
 172  -458.389
 173  -208.66
 174  75.11666
 175  -36.8933
 176  123.142
 177  225.8308
 178  -94.24239
 179  -271.5265
 180  130.179
 181  386.5882
 182  593.769
 183  771.2639
 184  757.7809
 185  451.4507
 186  420.4376
 187  1052.025
 188  1499.412
 189  1137.457
 190  988.4737
 191  52.70963
 192  -59.04982
 193  -142.2444
 194  -462.7891
 195  -208.3123
 196  -164.3139
 197  -346.9946
 198  -767.2105
 199  -720.5441
 200  -570.5917
 201  56.42786
 202  -87.66386
 203  -241.6838
 204  -225.7673
 205  -673.2668
 206  -557.1445
 207  -401.6677
 208  -306.6252
 209  71.45179
 210  482.1813
 211  895.7662
 212  142.672
 213  -141.3421
 214  -171.4257
 215  -43.91884
 216  -255.2076
 217  -222.3908
 218  192.9235
 219  197.1362
 220  6.882997
 221  -221.3255
 222  -425.1716
 223  117.6747
 224  126.4582
 225  257.254
 226  1001.294
 227  914.768
 228  514.6421
 229  926.2623
 230  357.0007
 231  624.5779
 232  1489.918
 233  2023.447
 234  1925.299
 235  2174.301
 236  1398.043
 237  750.483
 238  726.8342
 239  1024.358
 240  1039.098
 241  817.3055
 242  745.9124
 243  284.1279
 244  62.03076
 245  319.3064
 246  92.05721
 247  -7.740083
 248  207.4622
 249  494.5019
 250  210.9226
 251  134.4288
 252  70.9757
 253  23.22661
 254  -120.2223
 255  160.1152
 256  -144.3328
 257  -112.8021
 258  -182.589
 259  -336.1118
 260  -354.9066
 261  -285.5252
 262  -478.7059
 263  -723.5131
 264  -606.1905
 265  -540.5432
 266  -391.2351
 267  -711.8286
 268  -713.1536
 269  -855.3619
 270  -651.96
 271  -364.9202
 272  -381.8936
 273  -423.9553
 274  -39.25331
 275  -50.34824
 276  -395.4461
 277  56.64581
 278  277.3134
 279  306.64
 280  -180.2682
 281  -238.6524
 282  -196.8478
 283  -284.299
 284  340.9757
 285  149.8421
 286  102.2053
 287  2.605487
 288  -320.6731
 289  114.4382
 290  190.53
 291  195.0097
 292  1278.215
 293  612.1582
 294  165.3828
 295  417.2819
 296  613.0417
 297  600.7106
 298  627.5933
 299  832.6171
 300  128.4112
 301  -564.5577
 302  293.6995
 303  360.598
 304  44.60045
 305  -20.10378
 306  13.44295
 307  586.193
 308  882.3356
 309  482.4582
 310  327.3662
 311  608.973
 312  1006.813
 313  947.3311
 314  1395.675
 315  1068.765
 316  824.1399
 317  613.7646
 318  360.3543
 319  610.412
 320  412.0558
 321  621.9296
 322  188.136
 323  241.9692
 324  257.5686
 325  231.2554
 326  415.5292
 327  643.4833
 328  1146.874
 329  1613.635
 330  1673.212
 331  1835.224
 332  1538.959
 333  1590.061
 334  1497.6
 335  899.5505
 336  298.4405
 337  -27.39748
 338  -70.24569
 339  -49.61914
 340  214.2065
 341  468.1053
 342  1335.544
 343  1593.579
 344  1422.934
 345  852.8549
 346  109.1566
 347  536.1498
 348  1580.722
 349  2951.486
 350  1714.305
 351  1272.703
 352  739.4705
 353  1306.326
 354  910.6151
 355  1058.095
 356  1036.988
 357  -127.9603
 358  -206.3217
 359  -99.10304
 360  -34.23175
 361  -527.4652
 362  -382.1338
 363  -242.6487
 364  186.9481
 365  142.1086
 366  -118.7591
 367  -311.4236
 368  -425.1285
 369  -336.0392
 370  -609.0244
 371  -517.5843
 372  -307.7211
 373  -175.6917
 374  -315.5083
 375  -240.935
 376  9.146687
 377  89.99574
 378  218.7867
 379  -122.1049
 380  -670.2941
 381  48.873
 382  452.3328
 383  736.7186
 384  682.9229
 385  680.6559
 386  -427.3315
 387  -1094.431
 388  -680.1096
 389  -924.2947
 390  -750.8833
 391  -477.0373
 392  -451.9612
 393  -469.9211
 394  -773.9357
 395  -468.7035
 396  -510.3217
 397  -624.1719
 398  -718.824
 399  -419.5423
 400  -93.77688
 401  -128.7729
 402  -224.4639
 403  -222.0551
 404  -632.2877
 405  -275.8612
 406  210.372
 407  508.3592
 408  629.2474
 409  -52.87701
 410  -103.6284
 411  -404.9607
 412  -423.0687
 413  -485.4273
 414  -604.5114
 415  -662.0121
 416  -534.954
 417  -110.0517
 418  74.54139
 419  -206.3963
 420  -600.9395
 421  -640.804
 422  -732.7213
 423  -731.9302
 424  -659.4985
 425  -696.191
 426  -992.9981
 427  -1075.457
 428  -1192.401
 429  -1051.006
 430  -1321.178
 431  -1375.613
 432  -1179.921
 433  -1271.215
 434  -1231.625
 435  -1135.016
 436  -1304.39
 437  -1007.115
 438  -1292.471
 439  -970.3467
 440  -828.6181
 441  -1040.775
 442  -767.3029
 443  -1049.706
 444  -1208.737
 445  -1118.957
 446  -1486.276
 447  -1721.935
 448  -1293.882
 449  -787.0632
 450  -474.1559
 451  -529.3619
 452  -422.7529
 453  -893.2169
 454  -528.9955
 455  -327.9943
 456  -386.9624
 457  -719.2139
 458  -660.9204
 459  -132.7262
 460  284.9175
 461  380.0508
 462  956.8627
 463  838.0167
 464  772.4537
 465  372.2376
 466  63.71646
 467  449.6999
 468  427.6759
 469  730.2407
 470  947.4694
 471  325.8985
 472  -134.5025
 473  -327.9778
 474  -397.5178
 475  -70.19913
 476  -329.2598
 477  -413.8428
 478  -207.9556
 479  -199.3151
 480  -379.6402
 481  -294.0373
 482  -431.6235
 483  419.9357
 484  645.4358
 485  425.1921
 486  574.4385
 487  708.7374
 488  857.9617
 489  597.558
 490  332.8893
 491  485.4513
 492  701.0286
 493  573.8681
 494  195.7433
 495  -84.50561
 496  294.167
 497  409.4214
 498  494.072
 499  951.3788
 500  512.0735
 501  480.3872
 502  6.516185
 503  362.9538
 504  429.4053
 505  212.8415
 506  392.2465
 507  -301.7123
 508  -359.8677
 509  -322.5534
 510  -622.646
 511  -546.9791
