# Input file       =  1209475210.112065-PSRB0329-2ms-sampling-dd.dat
# Candidate        =  PSR_0332+5434
# Telescope        =  AR
# Epoch_topo       =  58242.555892500750
# Epoch_bary       =  N/A
# T_sample         =  0.002
# Data Folded      =  7340032
# Data Avg         =  -9.47035705481074e-10
# Data StdDev      =  7.43669443058554 
# Profile Bins     =  512
# Profile Avg      =  0.210222765514786
# Profile StdDev   =  890.418004780192 
# Reduced chi-sqr  =  0.478
# Prob(Noise)      <  1   (~0.0 sigma)
# P_topo (ms)      =  714.543835698152  +/- 0.000855
# P'_topo (s/s)    =  -0                +/- 4.51e-10
# P''_topo (s/s^2) =  0                 +/- 1.99e-13
# P_bary (ms)      =  N/A
# P'_bary (s/s)    =  N/A
# P''_bary (s/s^2) =  N/A
# P_orb (s)        =  N/A
# asin(i)/c (s)    =  N/A
# eccentricity     =  N/A
# w (rad)          =  N/A
# T_peri           =  N/A
######################################################
   0  231.0769
   1  392.5594
   2  92.58298
   3  452.4857
   4  226.4443
   5  -76.36894
   6  -118.094
   7  -170.7249
   8  -206.444
   9  -318.2808
  10  12.31101
  11  -127.6766
  12  -272.227
  13  -291.7656
  14  -641.7347
  15  -457.2655
  16  -242.0832
  17  -83.84114
  18  331.8786
  19  510.4559
  20  734.3927
  21  563.4818
  22  321.8512
  23  69.45992
  24  236.6263
  25  249.846
  26  -71.3828
  27  136.4798
  28  233.9698
  29  273.5443
  30  -46.74383
  31  101.9294
  32  66.49799
  33  380.3651
  34  304.6894
  35  555.9874
  36  913.0791
  37  919.8358
  38  806.8784
  39  805.8605
  40  795.6698
  41  653.4283
  42  525.427
  43  451.8058
  44  178.5602
  45  255.0143
  46  119.411
  47  -127.4108
  48  -37.16568
  49  249.8331
  50  474.6743
  51  542.0798
  52  370.0311
  53  -8.594756
  54  -27.09094
  55  77.06464
  56  -99.57902
  57  81.96163
  58  95.94368
  59  -482.6342
  60  -548.8371
  61  -187.916
  62  -375.809
  63  -571.7266
  64  -609.6148
  65  -368.52
  66  -629.0341
  67  -617.8854
  68  -523.9615
  69  -156.7216
  70  -94.90054
  71  -244.096
  72  -488.0852
  73  -471.6451
  74  -50.94332
  75  -47.2997
  76  104.2971
  77  365.2244
  78  26.6417
  79  -414.7245
  80  -511.0409
  81  -826.309
  82  -816.2922
  83  -788.5867
  84  -378.6994
  85  -81.97622
  86  -142.3304
  87  -198.5721
  88  -524.5853
  89  -591.8251
  90  -691.4296
  91  -317.3764
  92  -184.5795
  93  -305.3598
  94  -50.75699
  95  -366.1251
  96  -619.9004
  97  -618.6006
  98  -656.7474
  99  -510.5188
 100  -532.6462
 101  -556.4518
 102  -441.4349
 103  -435.3588
 104  -565.5717
 105  -620.325
 106  -472.6489
 107  -504.3737
 108  -1005.409
 109  -537.0029
 110  -451.2074
 111  -772.7164
 112  -1309.874
 113  -1119.804
 114  -951.6195
 115  -664.6251
 116  -692.902
 117  -432.7243
 118  -592.3108
 119  -663.3771
 120  -398.4772
 121  -291.3115
 122  -275.1629
 123  -121.6761
 124  394.8552
 125  186.2439
 126  230.4458
 127  25.52951
 128  225.652
 129  127.9231
 130  104.4956
 131  259.6922
 132  229.0878
 133  134.0445
 134  413.0142
 135  484.7946
 136  448.2153
 137  206.2951
 138  161.2557
 139  115.3727
 140  78.76068
 141  -158.6266
 142  -144.8554
 143  170.1188
 144  302.7889
 145  535.6282
 146  829.855
 147  616.9127
 148  590.3746
 149  723.1751
 150  753.3635
 151  370.487
 152  207.843
 153  259.65
 154  426.9997
 155  357.6906
 156  685.5907
 157  695.894
 158  624.8535
 159  641.0052
 160  218.6917
 161  422.0369
 162  266.7283
 163  655.3441
 164  705.9066
 165  644.7243
 166  682.1787
 167  617.9988
 168  645.1293
 169  148.8313
 170  347.9028
 171  588.1473
 172  282.4776
 173  183.4068
 174  282.9849
 175  603.0473
 176  447.1639
 177  208.6044
 178  183.7332
 179  331.453
 180  221.3205
 181  419.0977
 182  785.97
 183  789.0156
 184  452.4467
 185  687.2552
 186  897.028
 187  488.4002
 188  649.1005
 189  660.4453
 190  652.4209
 191  470.4068
 192  412.3388
 193  451.8762
 194  577.2287
 195  385.5167
 196  241.4563
 197  359.7962
 198  205.9436
 199  3.225649
 200  332.012
 201  603.3207
 202  549.0922
 203  385.3022
 204  21.31313
 205  219.1071
 206  149.6019
 207  151.7682
 208  -5.475828
 209  80.40955
 210  -214.8369
 211  -692.1763
 212  -353.6141
 213  -513.7906
 214  -451.9696
 215  -391.1519
 216  -379.6768
 217  -286.9197
 218  -258.0653
 219  206.8278
 220  197.4074
 221  -259.5183
 222  -315.341
 223  -485.211
 224  -724.9359
 225  -473.032
 226  -169.8804
 227  -146.9301
 228  -133.2399
 229  -43.32882
 230  -479.5144
 231  -658.932
 232  -460.1762
 233  -638.4731
 234  -608.3972
 235  -12.53442
 236  68.15621
 237  108.9833
 238  -74.07425
 239  -516.867
 240  -919.2732
 241  -719.2764
 242  -421.5609
 243  -610.3716
 244  -658.4285
 245  -727.8151
 246  -427.419
 247  6.509587
 248  -52.65985
 249  -353.1099
 250  -448.6399
 251  -18.16024
 252  29.86264
 253  -144.0211
 254  452.0081
 255  409.7824
 256  317.347
 257  -322.2815
 258  -429.5056
 259  -59.13369
 260  -323.0917
 261  -465.8109
 262  -561.1361
 263  -698.2808
 264  -1097.336
 265  -1009.398
 266  -430.9192
 267  -292.7447
 268  -497.3917
 269  -108.2235
 270  -120.2971
 271  -364.2873
 272  -367.6697
 273  -136.1
 274  -260.1354
 275  -303.4115
 276  -124.6818
 277  -350.8772
 278  -548.4711
 279  -543.271
 280  -650.0289
 281  -664.7585
 282  -218.6866
 283  145.8887
 284  -183.5303
 285  -104.5596
 286  -209.5949
 287  -497.1112
 288  -301.4662
 289  512.8423
 290  1040.804
 291  1688.823
 292  1730.676
 293  1777.241
 294  1272.418
 295  605.5201
 296  152.4052
 297  -252.2875
 298  -73.33463
 299  -155.2386
 300  -20.72925
 301  -151.7228
 302  -96.97546
 303  47.1101
 304  84.6047
 305  357.6046
 306  49.21376
 307  -21.26091
 308  -92.82264
 309  -371.8781
 310  -208.4293
 311  -349.9391
 312  -218.3524
 313  85.30415
 314  -477.7103
 315  -733.328
 316  -848.0483
 317  -834.9088
 318  -440.2251
 319  -663.4373
 320  -220.3054
 321  -167.2467
 322  -464.4831
 323  -452.3027
 324  -797.3564
 325  -199.8195
 326  -510.9075
 327  -799.8858
 328  -380.5389
 329  -54.09329
 330  278.6686
 331  143.2519
 332  349.6707
 333  357.7611
 334  423.9437
 335  477.6846
 336  49.12674
 337  229.0326
 338  446.6509
 339  422.2912
 340  759.8002
 341  584.8796
 342  697.6686
 343  530.5772
 344  661.7283
 345  683.4986
 346  491.8792
 347  497.2653
 348  361.6014
 349  659.3074
 350  641.2956
 351  499.5669
 352  199.5197
 353  353.4683
 354  512.6085
 355  350.8109
 356  586.9163
 357  611.6703
 358  456.1454
 359  56.25835
 360  145.4949
 361  -214.627
 362  -248.8481
 363  -330.0923
 364  -508.7751
 365  -129.2997
 366  63.34254
 367  -32.42704
 368  -270.4893
 369  -442.8824
 370  -311.8774
 371  262.3074
 372  329.4519
 373  334.8184
 374  -172.118
 375  -625.9318
 376  -403.4254
 377  33.2563
 378  54.86027
 379  177.7918
 380  5.226431
 381  86.87998
 382  174.1369
 383  199.3092
 384  447.651
 385  239.6611
 386  192.1979
 387  455.692
 388  428.3732
 389  356.6337
 390  -14.08795
 391  -240.1604
 392  135.1188
 393  134.8404
 394  227.7253
 395  -1.48228
 396  -98.06
 397  -161.5086
 398  -190.431
 399  495.9669
 400  534.9894
 401  697.9948
 402  533.8749
 403  397.1702
 404  369.217
 405  154.4536
 406  154.2709
 407  561.1198
 408  509.6662
 409  -175.0547
 410  -212.5938
 411  -159.4099
 412  -230.8248
 413  -459.6009
 414  -160.8818
 415  -220.6968
 416  221.4454
 417  -219.9373
 418  -475.8268
 419  -744.7484
 420  -761.1761
 421  -339.8389
 422  -201.8267
 423  -102.5672
 424  -70.06083
 425  -409.6499
 426  -470.4136
 427  -413.2274
 428  160.8411
 429  283.5184
 430  -209.9499
 431  -73.51105
 432  225.8763
 433  230.0076
 434  -127.9137
 435  -104.0574
 436  171.5516
 437  -8.463133
 438  -254.9844
 439  -453.6805
 440  -339.7613
 441  -204.1663
 442  -304.3994
 443  -159.458
 444  -217.217
 445  -572.8557
 446  -307.0657
 447  -148.535
 448  -274.3574
 449  -362.2376
 450  -372.4142
 451  -43.47969
 452  -272.9395
 453  -544.0022
 454  -353.9915
 455  -241.0542
 456  -234.8913
 457  -524.0724
 458  -216.1656
 459  -431.2194
 460  -480.2914
 461  -163.1615
 462  11.27083
 463  58.01553
 464  367.2861
 465  86.58866
 466  119.8198
 467  685.6613
 468  521.6572
 469  301.3938
 470  98.31133
 471  393.6195
 472  351.7403
 473  102.3783
 474  -147.5515
 475  -365.3568
 476  -70.57777
 477  352.7491
 478  241.0382
 479  307.4903
 480  288.8315
 481  341.5733
 482  315.0386
 483  703.3428
 484  434.8981
 485  373.9225
 486  584.8846
 487  580.561
 488  384.3503
 489  348.0827
 490  593.4025
 491  364.919
 492  -38.06695
 493  159.5528
 494  207.6685
 495  -16.0984
 496  -284.7896
 497  -515.92
 498  -240.7028
 499  -95.74207
 500  -353.2018
 501  -345.9493
 502  -359.7151
 503  -226.8376
 504  -251.6232
 505  -34.66269
 506  337.4423
 507  -5.368606
 508  -306.3051
 509  -303.0269
 510  2.867063
 511  440.5456
