# Input file       =  1209977319.111644-PSRB0329-2ms-sampling-dd.dat
# Candidate        =  PSR_0332+5434
# Telescope        =  AR
# Epoch_topo       =  58248.367339255143
# Epoch_bary       =  N/A
# T_sample         =  0.002
# Data Folded      =  7340032
# Data Avg         =  -1.39566844538621e-10
# Data StdDev      =  5.23790861711621 
# Profile Bins     =  512
# Profile Avg      =  -0.42035555728762
# Profile StdDev   =  627.150702991352 
# Reduced chi-sqr  =  1.046
# Prob(Noise)      <  0.227   (~0.7 sigma)
# P_topo (ms)      =  714.538057844581  +/- 0.000715
# P'_topo (s/s)    =  -0                +/- 3.77e-10
# P''_topo (s/s^2) =  0                 +/- 1.66e-13
# P_bary (ms)      =  N/A
# P'_bary (s/s)    =  N/A
# P''_bary (s/s^2) =  N/A
# P_orb (s)        =  N/A
# asin(i)/c (s)    =  N/A
# eccentricity     =  N/A
# w (rad)          =  N/A
# T_peri           =  N/A
######################################################
   0  -581.7739
   1  -655.2973
   2  -899.0851
   3  -670.3326
   4  -619.3904
   5  -288.0871
   6  -237.9829
   7  -322.981
   8  -15.98103
   9  -259.9275
  10  -402.5532
  11  -410.3347
  12  -188.7029
  13  -267.7206
  14  -270.3207
  15  -411.1317
  16  -173.8993
  17  -314.3105
  18  -355.6013
  19  -258.945
  20  -386.4894
  21  -172.4608
  22  -366.8792
  23  -253.0273
  24  -521.8128
  25  -445.6815
  26  -659.0033
  27  -442.894
  28  -321.1164
  29  -113.7511
  30  -510.9569
  31  -617.8728
  32  -311.1035
  33  -273.2365
  34  -573.2869
  35  -477.2892
  36  -287.9874
  37  -472.9431
  38  -355.1929
  39  -525.8527
  40  -331.0674
  41  -127.227
  42  -450.9311
  43  -700.0675
  44  -520.8173
  45  -205.8686
  46  -111.3994
  47  -61.41127
  48  66.17129
  49  80.938
  50  42.9738
  51  -116.945
  52  -100.4613
  53  -97.8879
  54  -62.34383
  55  -380.5173
  56  -509.7928
  57  -540.4733
  58  -498.0172
  59  -568.656
  60  -154.6734
  61  -94.85221
  62  -10.56764
  63  -178.962
  64  -323.3598
  65  133.821
  66  -203.4441
  67  -429.5628
  68  -98.94895
  69  59.57648
  70  18.5453
  71  -77.76744
  72  143.2447
  73  94.92271
  74  119.2323
  75  -12.91205
  76  139.5329
  77  380.7481
  78  458.7334
  79  233.2845
  80  -60.54821
  81  -29.59608
  82  -145.3358
  83  -126.8241
  84  296.0034
  85  37.4623
  86  292.6562
  87  413.9869
  88  137.984
  89  181.1689
  90  411.2419
  91  317.1639
  92  230.8748
  93  511.8052
  94  528.1705
  95  508.5347
  96  481.1458
  97  704.7367
  98  234.3099
  99  484.5539
 100  626.3798
 101  230.0874
 102  509.2474
 103  627.574
 104  663.8477
 105  550.1722
 106  470.8398
 107  873.5325
 108  1078.159
 109  1421.164
 110  2004.395
 111  2697.398
 112  3077.218
 113  2930.23
 114  2317.406
 115  2037.222
 116  1064.305
 117  508.4785
 118  638.8126
 119  621.7379
 120  187.3862
 121  -38.99334
 122  -71.83807
 123  283.7644
 124  453.8541
 125  460.6142
 126  347.812
 127  397.3954
 128  374.8058
 129  454.0388
 130  60.86571
 131  -349.7028
 132  -345.1096
 133  -170.982
 134  269.0051
 135  226.5769
 136  209.4734
 137  -61.48539
 138  37.66079
 139  5.741898
 140  301.119
 141  553.9594
 142  496.5561
 143  420.8616
 144  181.6554
 145  248.9539
 146  286.0898
 147  622.6573
 148  579.3635
 149  432.8234
 150  302.1575
 151  457.6128
 152  607.2559
 153  750.1251
 154  478.8956
 155  398.4389
 156  387.8212
 157  378.7939
 158  296.1006
 159  404.8665
 160  289.6177
 161  288.8827
 162  587.7339
 163  661.1863
 164  591.4375
 165  651.1891
 166  751.8871
 167  131.7427
 168  449.1665
 169  793.0422
 170  735.8831
 171  1070.277
 172  835.782
 173  813.5828
 174  1021.429
 175  656.8593
 176  518.1897
 177  881.8303
 178  1150.258
 179  1359.347
 180  1098.083
 181  828.0443
 182  477.3565
 183  576.9044
 184  508.6109
 185  619.9937
 186  945.03
 187  816.5754
 188  604.7361
 189  248.8668
 190  364.2949
 191  469.1694
 192  292.9885
 193  443.8711
 194  472.9864
 195  357.9386
 196  46.43698
 197  41.70781
 198  180.4028
 199  -10.92277
 200  -141.7331
 201  52.633
 202  224.5063
 203  130.5525
 204  73.71278
 205  39.66241
 206  135.6496
 207  -6.774175
 208  44.3602
 209  -3.173635
 210  -73.84113
 211  -233.423
 212  -440.5119
 213  -320.2402
 214  -125.6973
 215  -302.3295
 216  -353.4106
 217  -417.2492
 218  -349.9228
 219  -334.1957
 220  -217.6972
 221  -189.7929
 222  13.34825
 223  67.98009
 224  -171.06
 225  -199.9265
 226  50.22698
 227  166.5828
 228  277.8527
 229  324.2529
 230  351.8958
 231  23.16784
 232  72.55123
 233  -340.1737
 234  -354.7193
 235  -181.3203
 236  -109.0606
 237  -52.47761
 238  -19.50275
 239  -20.96196
 240  -179.6417
 241  -402.2196
 242  -449.6297
 243  -566.7078
 244  -547.64
 245  -461.2801
 246  -255.3657
 247  -83.39442
 248  170.8061
 249  35.31197
 250  -288.0637
 251  -308.2923
 252  -144.5025
 253  -219.5601
 254  -129.6499
 255  -87.5794
 256  17.20379
 257  29.61759
 258  87.4509
 259  134.1156
 260  209.5803
 261  101.9265
 262  10.13592
 263  15.89563
 264  -103.2597
 265  -107.1698
 266  -344.032
 267  166.5809
 268  118.5732
 269  -4.968041
 270  -175.5515
 271  -266.0599
 272  159.5849
 273  85.39914
 274  223.2899
 275  229.0203
 276  207.4574
 277  -85.07854
 278  -396.182
 279  -23.07573
 280  -188.2186
 281  -148.7148
 282  113.2355
 283  64.65637
 284  -173.8965
 285  -308.5007
 286  -505.5657
 287  -875.6625
 288  -259.0956
 289  179.869
 290  -157.1276
 291  -226.4112
 292  -168.8575
 293  -266.2327
 294  35.70407
 295  157.663
 296  5.542831
 297  -163.03
 298  -332.3208
 299  -517.2742
 300  -561.1469
 301  -553.2719
 302  -503.307
 303  -128.0519
 304  64.44559
 305  -35.95727
 306  -221.8771
 307  -126.4397
 308  58.55167
 309  74.10335
 310  144.853
 311  9.937437
 312  9.95496
 313  7.482761
 314  120.6907
 315  61.67896
 316  26.29538
 317  -279.0683
 318  -358.3656
 319  -572.8337
 320  -361.3922
 321  -58.99996
 322  -227.9096
 323  -589.2967
 324  -618.561
 325  -666.7669
 326  -702.3779
 327  -403.2667
 328  -354.4297
 329  -476.9893
 330  -640.5713
 331  -579.3591
 332  -392.3964
 333  -380.1794
 334  -9.029236
 335  -200.9767
 336  -332.1957
 337  49.14561
 338  -96.79272
 339  -198.9676
 340  -437.8915
 341  -239.6562
 342  -338.5493
 343  -415.515
 344  -301.4191
 345  -488.7634
 346  -363.5699
 347  -586.3844
 348  -717.2166
 349  -437.7328
 350  -341.7792
 351  -430.8712
 352  -243.7543
 353  -137.0988
 354  -27.31217
 355  -144.6673
 356  135.9187
 357  82.04497
 358  -88.22186
 359  -96.89897
 360  -240.4187
 361  -380.972
 362  -438.7073
 363  -549.5905
 364  -377.5606
 365  -431.5474
 366  -421.7089
 367  -147.2322
 368  -311.2067
 369  -275.7118
 370  -74.18315
 371  -128.5219
 372  -98.6966
 373  -15.96425
 374  52.89753
 375  -109.5892
 376  210.0444
 377  -122.6274
 378  -4.037724
 379  31.18962
 380  52.27965
 381  -26.37591
 382  -204.0895
 383  112.7543
 384  293.4827
 385  194.1778
 386  195.3735
 387  121.481
 388  57.56153
 389  -164.2917
 390  148.7784
 391  -52.25512
 392  -1.490284
 393  171.5348
 394  40.9167
 395  -111.8181
 396  -68.22975
 397  64.922
 398  -111.1274
 399  136.9848
 400  -164.9903
 401  -327.1263
 402  -329.6999
 403  -477.3584
 404  -352.6351
 405  -208.1048
 406  -118.804
 407  13.34737
 408  -80.37559
 409  230.2749
 410  -151.8973
 411  -241.1527
 412  309.7656
 413  49.32228
 414  49.65166
 415  174.4798
 416  -75.07851
 417  -114.0174
 418  -198.4318
 419  40.31119
 420  -103.1951
 421  -173.7408
 422  -89.82127
 423  63.46788
 424  -374.1513
 425  -123.091
 426  158.8448
 427  344.6655
 428  444.7443
 429  550.7053
 430  396.4298
 431  402.797
 432  241.876
 433  390.3758
 434  229.5044
 435  63.71749
 436  121.8222
 437  445.7057
 438  445.5768
 439  79.41553
 440  39.09386
 441  -19.85395
 442  -295.2479
 443  -253.5945
 444  -97.37654
 445  -129.6772
 446  -132.0799
 447  -173.7967
 448  -225.4705
 449  -427.5628
 450  -248.9261
 451  -390.3552
 452  -439.2714
 453  -244.0332
 454  -161.5369
 455  -361.8998
 456  -152.6656
 457  -5.811056
 458  23.97444
 459  -48.04475
 460  -89.52277
 461  176.0337
 462  3.02886
 463  -287.7277
 464  -128.566
 465  -295.8019
 466  -316.938
 467  -332.9754
 468  -447.8512
 469  -316.5764
 470  -87.17524
 471  227.6996
 472  -36.7779
 473  -248.3671
 474  141.0909
 475  88.03659
 476  387.1804
 477  219.3904
 478  386.4105
 479  322.4652
 480  -16.77257
 481  -250.7466
 482  29.40351
 483  -181.7974
 484  -302.5057
 485  -448.7745
 486  -333.838
 487  -677.2917
 488  -798.9062
 489  -495.1503
 490  -496.2503
 491  -306.1818
 492  -404.4376
 493  -639.5657
 494  -207.4302
 495  -506.9576
 496  -775.523
 497  -419.2764
 498  -332.5194
 499  -403.2988
 500  -234.5505
 501  -164.5144
 502  -439.4969
 503  -285.748
 504  -567.0996
 505  -527.2426
 506  -316.6786
 507  -534.8189
 508  -562.2081
 509  -669.9495
 510  -434.229
 511  -401.5996
