# Input file       =  1209617964.103228_cleaned.dat
# Candidate        =  PSR_0332+5434
# Telescope        =  AR
# Epoch_topo       =  58244.208137768845
# Epoch_bary       =  N/A
# T_sample         =  0.002
# Data Folded      =  7208960
# Data Avg         =  0.433102726363787
# Data StdDev      =  6.48498717683412 
# Profile Bins     =  1024
# Profile Avg      =  3049.04084819465 
# Profile StdDev   =  544.120954506687 
# Reduced chi-sqr  =  1.698
# Prob(Noise)      <  8.3e-40   (~13.2 sigma)
# P_topo (ms)      =  714.541963118017  +/- 1.62e-05
# P'_topo (s/s)    =  -0                +/- 8.73e-12
# P''_topo (s/s^2) =  0                 +/- 3.92e-15
# P_bary (ms)      =  N/A
# P'_bary (s/s)    =  N/A
# P''_bary (s/s^2) =  N/A
# P_orb (s)        =  N/A
# asin(i)/c (s)    =  N/A
# eccentricity     =  N/A
# w (rad)          =  N/A
# T_peri           =  N/A
######################################################
   0  3393.377
   1  3503.799
   2  3346.217
   3  3199.636
   4  3124.626
   5  2839.761
   6  2746.358
   7  2555.051
   8  2621.25
   9  2707.87
  10  2590.399
  11  2934.53
  12  2860.055
  13  2903.565
  14  2922.217
  15  3013.266
  16  3088.992
  17  2985.404
  18  3126.139
  19  3415.832
  20  3182.679
  21  2957.331
  22  2753.467
  23  2828.615
  24  2834.846
  25  2636.162
  26  2529.868
  27  2314.297
  28  2309.392
  29  2444.222
  30  2633.384
  31  3048.367
  32  3297.999
  33  3436.021
  34  3573.955
  35  3325.026
  36  3340.901
  37  3118.755
  38  3181.351
  39  2965.688
  40  2741.014
  41  2730.181
  42  2737.294
  43  2858.656
  44  2994.263
  45  3048.666
  46  3102.607
  47  3115.989
  48  3179.802
  49  3181.868
  50  3167.048
  51  3505.668
  52  3391.847
  53  3155.877
  54  2782.654
  55  2629.708
  56  2703.235
  57  2548.339
  58  2477.85
  59  2433.334
  60  2470.05
  61  2691.625
  62  2698.294
  63  2951.013
  64  3280.048
  65  3584.024
  66  3840.335
  67  3659.417
  68  3330.035
  69  3175.725
  70  3064.682
  71  2960.127
  72  2567.553
  73  2500.68
  74  2599.654
  75  2574.721
  76  2804.312
  77  2958.147
  78  3086.102
  79  3121.194
  80  3305.156
  81  3523.373
  82  3555.034
  83  3725.238
  84  3835.417
  85  3497.691
  86  3148.341
  87  2910.17
  88  2853.301
  89  2793.475
  90  2533.195
  91  2477.252
  92  2461.526
  93  2610.793
  94  2730.959
  95  2748.224
  96  2994.147
  97  3131.846
  98  3345.823
  99  3767.278
 100  3680.233
 101  3654.934
 102  3465.843
 103  3419.346
 104  3046.75
 105  2664.998
 106  2607.34
 107  2573.749
 108  2516.001
 109  2740.61
 110  2853.476
 111  3005.627
 112  3124.102
 113  3288.236
 114  3513.204
 115  3446.585
 116  3713.416
 117  3657.762
 118  3537.568
 119  3456.195
 120  3172.066
 121  3063.875
 122  2821.406
 123  2575.858
 124  2531.901
 125  2447.837
 126  2730.15
 127  2771.148
 128  2770.062
 129  2957.577
 130  3061.539
 131  3254.137
 132  3492.176
 133  3408.23
 134  3702.098
 135  3418.802
 136  3329.374
 137  3127.506
 138  3092.31
 139  3028.703
 140  2688.457
 141  2729.375
 142  2846.319
 143  2840.323
 144  3120.322
 145  3221.787
 146  3239.124
 147  3241.227
 148  3411.865
 149  3750.326
 150  3642.54
 151  3637.143
 152  3565.404
 153  3166.193
 154  2921.266
 155  2781.983
 156  2812.45
 157  2854.704
 158  2638.5
 159  2604.397
 160  2439.233
 161  2611.75
 162  2998.994
 163  3276.867
 164  3636.203
 165  3465.785
 166  3636.332
 167  3642.721
 168  3602.931
 169  3390.487
 170  3180.095
 171  3034.008
 172  2944.538
 173  2639.054
 174  2840.149
 175  2749.507
 176  2785.128
 177  2844.93
 178  2959.391
 179  3109.896
 180  3227.091
 181  3414.271
 182  3538.882
 183  3416.063
 184  3594.355
 185  3551.354
 186  3422.269
 187  3072.017
 188  2875.792
 189  2852.192
 190  2720.422
 191  2520.705
 192  2596.897
 193  2842.349
 194  3279.709
 195  3309.301
 196  3267.538
 197  3361.613
 198  3338.873
 199  3510.065
 200  3566.952
 201  3431.01
 202  3244.804
 203  3121.554
 204  3123.055
 205  2796.695
 206  2673.349
 207  2757.036
 208  2970.761
 209  3137.529
 210  3202.772
 211  3151.102
 212  3159.365
 213  3478.739
 214  3803.935
 215  3675.087
 216  3476.242
 217  3417.524
 218  3034.797
 219  2839.191
 220  2790.274
 221  2904.316
 222  2832.05
 223  2698.967
 224  2745.081
 225  2835.17
 226  2769.559
 227  2908.899
 228  3067.721
 229  3389.597
 230  3620.78
 231  3610.312
 232  3737.456
 233  3480.567
 234  3321.246
 235  3069.27
 236  3079.939
 237  3117.615
 238  2964.243
 239  2994.437
 240  2894.861
 241  2730.789
 242  2905.561
 243  3109.909
 244  3311.709
 245  3434.718
 246  3478.178
 247  3553.282
 248  3449.916
 249  3694.42
 250  3663.635
 251  3367.439
 252  3140.558
 253  2943.771
 254  2784.166
 255  2448.541
 256  2399.922
 257  2651.374
 258  2789.457
 259  2959.073
 260  2924.139
 261  2936.978
 262  3275.96
 263  3383.365
 264  3531.255
 265  3576.442
 266  3410.888
 267  3392.857
 268  3068.796
 269  2980.594
 270  2442.101
 271  2510.928
 272  2489.148
 273  2575.401
 274  2550.354
 275  2780.734
 276  2892.654
 277  3005.668
 278  3219.65
 279  3456.078
 280  3571.268
 281  3658.166
 282  3782.778
 283  3236.336
 284  2849.757
 285  2522.457
 286  2518.194
 287  2454.624
 288  2351.604
 289  2321.214
 290  2291.244
 291  2257.33
 292  2578.879
 293  2687.283
 294  2999.914
 295  3140.847
 296  3399.135
 297  3618.945
 298  3631.935
 299  3561.76
 300  3561.809
 301  3362.178
 302  3180.196
 303  2841.003
 304  2885.218
 305  2672.483
 306  2491.386
 307  2564.96
 308  2640.573
 309  2693.276
 310  2962.561
 311  3265.207
 312  3479.28
 313  3320.539
 314  3530.62
 315  3731.794
 316  3627.031
 317  3479.98
 318  3414.896
 319  3273.908
 320  2845.066
 321  2463.285
 322  2559.427
 323  2663.784
 324  2793.271
 325  2778.494
 326  2723.542
 327  2998.702
 328  3119.132
 329  3326.314
 330  3441.552
 331  3385.115
 332  3616.403
 333  3676.411
 334  3528.435
 335  3170.135
 336  2924.706
 337  2978.693
 338  2831.515
 339  2847.631
 340  3089.454
 341  3080.424
 342  3018.096
 343  3047.104
 344  3052.167
 345  3130.082
 346  3309.934
 347  3654.196
 348  3628.23
 349  3440.671
 350  3544.399
 351  3291.725
 352  2972.677
 353  2675.482
 354  2717.482
 355  2826.428
 356  2752.73
 357  2619.53
 358  2677.926
 359  2652.267
 360  3061.917
 361  3116.027
 362  3424.947
 363  3583.846
 364  3605.683
 365  3701.669
 366  3528.346
 367  3464.02
 368  3255.267
 369  3145.671
 370  3075.87
 371  2876.051
 372  2764.849
 373  2815.965
 374  2783.469
 375  3134.475
 376  3196.46
 377  3296.804
 378  3190.89
 379  3362.175
 380  3592.122
 381  3464.624
 382  3433.495
 383  3298.597
 384  2930.846
 385  2706.394
 386  2631.598
 387  2825.175
 388  2889.409
 389  2820.326
 390  2907.85
 391  2951.61
 392  3052.82
 393  3015.09
 394  2915.619
 395  3206.027
 396  3263.504
 397  3544.29
 398  3562.881
 399  3415.531
 400  3257.244
 401  3209.556
 402  3193.621
 403  3006.328
 404  2713.237
 405  3011.37
 406  3044.313
 407  3135.573
 408  3217.832
 409  3274.161
 410  3431.818
 411  3519.403
 412  3662.961
 413  3594.558
 414  3415.885
 415  3722.256
 416  3467.193
 417  3148.842
 418  2776.232
 419  2677.184
 420  2767.195
 421  2645.801
 422  2524.831
 423  2576.858
 424  2567.516
 425  2788.952
 426  2795.181
 427  3143.446
 428  3369.763
 429  3416.019
 430  3600.558
 431  3591.129
 432  3412.897
 433  3124.231
 434  2935.263
 435  2818.82
 436  2554.463
 437  2628.348
 438  2710.793
 439  2667.837
 440  2868.956
 441  3168.95
 442  3266.262
 443  3245.986
 444  3384.78
 445  3639.66
 446  3556.302
 447  3642.884
 448  3790.776
 449  3423.002
 450  3066.916
 451  2698.177
 452  2624.379
 453  2545.121
 454  2346.659
 455  2452.189
 456  2530.818
 457  2642.46
 458  2686.357
 459  2783.445
 460  3150.309
 461  3103.556
 462  3426.208
 463  3805.958
 464  3699.223
 465  3418.706
 466  3137.206
 467  2998.988
 468  2556.999
 469  2177.103
 470  2402.13
 471  2515.447
 472  2472.065
 473  2620.639
 474  2798.858
 475  3153.334
 476  3362.188
 477  3578.139
 478  3588.154
 479  3489.647
 480  3773.667
 481  3737.302
 482  3351.956
 483  3081.047
 484  2788.701
 485  2665.503
 486  2310.701
 487  2398.121
 488  2649.47
 489  2561.685
 490  2628.019
 491  2702.506
 492  3053.698
 493  3427.378
 494  3549.548
 495  3725.371
 496  3689.842
 497  3499.548
 498  3602.693
 499  3397.335
 500  3274.033
 501  2875.686
 502  2744.113
 503  2828.325
 504  2699.811
 505  3009.66
 506  3032.593
 507  2937.673
 508  3080.583
 509  3056.626
 510  3133.708
 511  2990.751
 512  3263.992
 513  3681.773
 514  3549.136
 515  3429.065
 516  3199.007
 517  2911.457
 518  2833.158
 519  2554.023
 520  2469.834
 521  2373.93
 522  2474.002
 523  2670.331
 524  2648.633
 525  2689.136
 526  2920.113
 527  2964.545
 528  3229.776
 529  3223.544
 530  3433.031
 531  3521.391
 532  3399.094
 533  3126.508
 534  2841.787
 535  2734.46
 536  2679.481
 537  2436.289
 538  2580.824
 539  2728.824
 540  2922.69
 541  3175.083
 542  3221.897
 543  3324.911
 544  3253.496
 545  3464.439
 546  3550.601
 547  3377.488
 548  3292.16
 549  3030.732
 550  2796.83
 551  2368.053
 552  2301.907
 553  2536.86
 554  2706.187
 555  2717.866
 556  2633.248
 557  2703.677
 558  3080.98
 559  3179.583
 560  3334.599
 561  3471.184
 562  3438.694
 563  3450.578
 564  3396.573
 565  3190.577
 566  2929.833
 567  2778.681
 568  2869.483
 569  2578.65
 570  2385.998
 571  2439.015
 572  2512.783
 573  2946.95
 574  3043.276
 575  3162.587
 576  3047.078
 577  3206.205
 578  3514.158
 579  3495.463
 580  3374.582
 581  3332.454
 582  3119.002
 583  3024.81
 584  2737.451
 585  2737.956
 586  2750.526
 587  2482.906
 588  2526.186
 589  2584.809
 590  2880.002
 591  3021.419
 592  3176.151
 593  3549.696
 594  3643.726
 595  3640.876
 596  3891.71
 597  4091.988
 598  4162.052
 599  3915.785
 600  3881.08
 601  3723.976
 602  3534.473
 603  3715.212
 604  3712.45
 605  3521.397
 606  3484.709
 607  3437.803
 608  3354.704
 609  3195.639
 610  3266.132
 611  3410.421
 612  3295.131
 613  3433.865
 614  3362.667
 615  3174.744
 616  2688.823
 617  2493.733
 618  2643.271
 619  2728.365
 620  2650.631
 621  2593.866
 622  2787.99
 623  3096.652
 624  3122.606
 625  3015.229
 626  3341.341
 627  3396.178
 628  3676.718
 629  3552.499
 630  3315.244
 631  3081.481
 632  2859.305
 633  2792.864
 634  2440.975
 635  2354.958
 636  2536.71
 637  2650.188
 638  2958.066
 639  3224.239
 640  3251.566
 641  3264.373
 642  3509.363
 643  3771.51
 644  3734.592
 645  3621.959
 646  3642.511
 647  3287.441
 648  2912.33
 649  2842.538
 650  2719.302
 651  2796.353
 652  2460.525
 653  2444.413
 654  2401.087
 655  2559.653
 656  2972.954
 657  3100.729
 658  3301.125
 659  3435.383
 660  3618.016
 661  3882.428
 662  3708.579
 663  3561.943
 664  3461.267
 665  3341.157
 666  3136.791
 667  2708.615
 668  2546.088
 669  2517.795
 670  2540.61
 671  2950.177
 672  3022.815
 673  3021.927
 674  3028.595
 675  3092.625
 676  3419.738
 677  3499.461
 678  3743.449
 679  3983.112
 680  3782.685
 681  3654.319
 682  3264.405
 683  2956.535
 684  2734.104
 685  2501.958
 686  2733.623
 687  2742.421
 688  2828.264
 689  2728.779
 690  2657.519
 691  3003.154
 692  3236.367
 693  3606.89
 694  3870.698
 695  3717.872
 696  3694.673
 697  3571.76
 698  3374.664
 699  3117.666
 700  2817.957
 701  2992.844
 702  2918.46
 703  2984.178
 704  3232.331
 705  3261.625
 706  3359.138
 707  3433.356
 708  3491.203
 709  3355.211
 710  3258.126
 711  3452.224
 712  3383.182
 713  3181.98
 714  3136.15
 715  2926.527
 716  2849.323
 717  2565.801
 718  2425.84
 719  2423.57
 720  2404.775
 721  2710.883
 722  2671.386
 723  2929.734
 724  3139.047
 725  3299.492
 726  3460.125
 727  3376.696
 728  3325.192
 729  3327.375
 730  3355.484
 731  3171.506
 732  2935.199
 733  2661.812
 734  2643.692
 735  2530.997
 736  2597.323
 737  2664.361
 738  2796.917
 739  3029.334
 740  2938.107
 741  2953.454
 742  3013.239
 743  3308.2
 744  3563.569
 745  3482.41
 746  3345.411
 747  3074.801
 748  2772.656
 749  2581.781
 750  2516.221
 751  2574.97
 752  2592.37
 753  2489.308
 754  2623.802
 755  2617.467
 756  2983.637
 757  3020.917
 758  3207.008
 759  3395.747
 760  3412.503
 761  3490.17
 762  3311.027
 763  3084.46
 764  2941.695
 765  2825.119
 766  2833.462
 767  2716.723
 768  2584.677
 769  2746.21
 770  2703.566
 771  2798.669
 772  2958.872
 773  3082.597
 774  3235.188
 775  3289.543
 776  3427.598
 777  3221.464
 778  2929.623
 779  3010.859
 780  2783.352
 781  2707.542
 782  2527.847
 783  2515.827
 784  2550.338
 785  2420.073
 786  2528.248
 787  2445.466
 788  2614.752
 789  3010.971
 790  3127.047
 791  3299.404
 792  3336.983
 793  3329.941
 794  3547.028
 795  3550.876
 796  3414.974
 797  3155.837
 798  2869.718
 799  2778.879
 800  2472.563
 801  2529.289
 802  2654.208
 803  2557.177
 804  2720.076
 805  2885.474
 806  3079.889
 807  3156.501
 808  3346.922
 809  3701.542
 810  3711.147
 811  3688.804
 812  3492.124
 813  2985.877
 814  2674.438
 815  2515.501
 816  2420.232
 817  2480.638
 818  2412.028
 819  2591.455
 820  2525.957
 821  2648.661
 822  2835.731
 823  3000.649
 824  3312.948
 825  3363.458
 826  3487.382
 827  3694.623
 828  3519.969
 829  3380.168
 830  2955.807
 831  2894.293
 832  2770.905
 833  2664.113
 834  2765.89
 835  2710.687
 836  2679.589
 837  2899.969
 838  2825.296
 839  3102.473
 840  3206.227
 841  3628.568
 842  3675.46
 843  3652.181
 844  3821.659
 845  3629.91
 846  3442.901
 847  3086.394
 848  2809.148
 849  2750.708
 850  2479.372
 851  2342.536
 852  2352.685
 853  2359.477
 854  2781.595
 855  2732.943
 856  3044.898
 857  3351.064
 858  3498.24
 859  3704.897
 860  3727.48
 861  3641.876
 862  3479.17
 863  3134.139
 864  3061.063
 865  2766.156
 866  2614.69
 867  2611.304
 868  2552.709
 869  2880.05
 870  2999.452
 871  3046.692
 872  3135.623
 873  3320.623
 874  3490.325
 875  3424.674
 876  3596.289
 877  3868.809
 878  3701.927
 879  3495.366
 880  3273.624
 881  2902.844
 882  2604.237
 883  2469.774
 884  2609.724
 885  2648.652
 886  2558.656
 887  2637.745
 888  2649.016
 889  2959.472
 890  3302.606
 891  3568.009
 892  3797.863
 893  3728.769
 894  3648.986
 895  3468
 896  3261.995
 897  3163.755
 898  2841.896
 899  2888.698
 900  2803.572
 901  2641.804
 902  2701.165
 903  2771.031
 904  3045.009
 905  3329.708
 906  3317.402
 907  3243.521
 908  3184.534
 909  3493.974
 910  3477.146
 911  3197.024
 912  3074.577
 913  2923.03
 914  2919.865
 915  2712.383
 916  2757.229
 917  2812.402
 918  2723.254
 919  2778.764
 920  2766.385
 921  2845.582
 922  3144.995
 923  3140.59
 924  3269.852
 925  3337.968
 926  3279.361
 927  3330.87
 928  3230.735
 929  3172.163
 930  2839.492
 931  2585.825
 932  2609.674
 933  2438.25
 934  2531.554
 935  2723.561
 936  2815.467
 937  2959.512
 938  3138.954
 939  3234.263
 940  3187.057
 941  3251.442
 942  3497.193
 943  3295.779
 944  3051.561
 945  2858.789
 946  2656.415
 947  2580.275
 948  2319.365
 949  2319.418
 950  2300.572
 951  2189.253
 952  2399.822
 953  2394.216
 954  2708.055
 955  2902.064
 956  3175.26
 957  3495.865
 958  3480.006
 959  3501.705
 960  3608.399
 961  3523.176
 962  3115.444
 963  2605.322
 964  2598.94
 965  2672.335
 966  2544.139
 967  2743.46
 968  2766.852
 969  2712.203
 970  2725.777
 971  2798.118
 972  3111.469
 973  3211.323
 974  3440.875
 975  3498.391
 976  3252.97
 977  3242.496
 978  3064.219
 979  2954.49
 980  2707.458
 981  2437.202
 982  2417.551
 983  2349.075
 984  2354.945
 985  2280.602
 986  2390.629
 987  2713.989
 988  2833.124
 989  2852.767
 990  3022.247
 991  3169.361
 992  3544.358
 993  3611.242
 994  3446.91
 995  3264.325
 996  3028.216
 997  2795.001
 998  2412.701
 999  2346.358
1000  2463.876
1001  2376.496
1002  2567.937
1003  2769.713
1004  2887.013
1005  2928.992
1006  3103.646
1007  3300.764
1008  3256.572
1009  3200.927
1010  3421.957
1011  3217.373
1012  3087.123
1013  2853.17
1014  2633.12
1015  2475.749
1016  2245.317
1017  2284.405
1018  2167.854
1019  2109.604
1020  2491.223
1021  2776.163
1022  3148.329
1023  3354.542
