# Input file       =  1209029504.11775_cleaned.dat
# Candidate        =  PSR_0332+5434
# Telescope        =  AR
# Epoch_topo       =  58237.397258307290
# Epoch_bary       =  N/A
# T_sample         =  0.002
# Data Folded      =  7340032
# Data Avg         =  0.260913282419747
# Data StdDev      =  5.9393178441379  
# Profile Bins     =  512
# Profile Avg      =  3739.81585033893 
# Profile StdDev   =  711.13255948534  
# Reduced chi-sqr  =  0.768
# Prob(Noise)      <  1   (~0.0 sigma)
# P_topo (ms)      =  714.548162946291  +/- 0.000711
# P'_topo (s/s)    =  -0                +/- 3.75e-10
# P''_topo (s/s^2) =  0                 +/- 1.66e-13
# P_bary (ms)      =  N/A
# P'_bary (s/s)    =  N/A
# P''_bary (s/s^2) =  N/A
# P_orb (s)        =  N/A
# asin(i)/c (s)    =  N/A
# eccentricity     =  N/A
# w (rad)          =  N/A
# T_peri           =  N/A
######################################################
   0  4817.802
   1  4682.911
   2  4437.063
   3  4590.049
   4  4783.849
   5  4486.948
   6  4069.084
   7  4169.441
   8  4266.887
   9  4340.204
  10  4387.082
  11  4594.845
  12  4298.637
  13  4308.81
  14  4020.909
  15  4065.211
  16  3993.777
  17  4484.562
  18  4658.515
  19  4506.006
  20  4624.528
  21  4608.288
  22  4267.031
  23  3946.322
  24  4046.172
  25  4130.162
  26  4550.145
  27  4272.833
  28  4003.411
  29  4070.539
  30  4191.395
  31  3918.389
  32  4173.492
  33  4187.017
  34  4622.469
  35  4324.322
  36  4110.754
  37  4002.065
  38  4421.512
  39  4451.867
  40  4377.018
  41  4110.594
  42  4351.336
  43  4324.123
  44  3900.195
  45  4121.184
  46  4533.51
  47  4352.636
  48  4511.282
  49  4319.407
  50  4131.144
  51  3990.637
  52  4041.034
  53  4171.095
  54  4170.678
  55  3773.946
  56  3671.448
  57  3831.991
  58  3964.09
  59  3632.012
  60  3472.215
  61  3470.227
  62  3603.321
  63  3261.512
  64  3295.637
  65  3204.928
  66  3138.305
  67  3328.206
  68  3558.248
  69  3248.983
  70  3143.267
  71  3321.181
  72  3243.432
  73  3582.065
  74  3991.608
  75  3686.98
  76  3548.983
  77  4109.747
  78  3988.228
  79  3570.386
  80  3548.664
  81  3754.892
  82  3538.037
  83  3379.717
  84  3450.527
  85  3608.533
  86  3815.057
  87  3796.146
  88  3976.12
  89  3704.277
  90  4117.917
  91  4222.438
  92  3763.563
  93  3929.941
  94  3943.393
  95  4176.369
  96  4003.623
  97  3635.75
  98  3901.351
  99  4176.33
 100  4151.02
 101  4389.99
 102  4238.011
 103  3988.061
 104  3753.414
 105  3895.863
 106  3986.398
 107  3796.95
 108  4017.912
 109  3679.363
 110  3778.179
 111  3967.25
 112  4210.966
 113  3944.37
 114  3967.824
 115  3978.483
 116  4012.388
 117  4171.139
 118  3883.364
 119  3778.723
 120  3700.76
 121  3602.869
 122  3626.682
 123  3517.798
 124  3244.92
 125  3210.083
 126  3127.748
 127  3390.424
 128  3338.278
 129  3423.009
 130  3492.972
 131  3470.942
 132  3408.772
 133  3191.756
 134  3725.589
 135  3965.448
 136  3989.634
 137  3696.185
 138  3510.257
 139  3341.056
 140  3651.504
 141  3743.689
 142  3862.112
 143  3893.161
 144  3676.893
 145  3655.913
 146  3390.483
 147  3658.561
 148  3546.718
 149  3473.326
 150  3737.492
 151  3504.65
 152  3241.073
 153  3629.698
 154  3653.086
 155  3471.762
 156  3345.713
 157  3679.559
 158  3217
 159  3266.776
 160  3291.095
 161  3581.795
 162  3343.366
 163  3456.396
 164  3767.385
 165  3784.874
 166  3625.426
 167  3920.709
 168  3916.148
 169  3568.147
 170  3514.921
 171  3571.132
 172  3718.463
 173  3428.268
 174  3471.631
 175  3365.811
 176  3402.219
 177  3589.562
 178  3596.572
 179  3460.63
 180  3823.776
 181  3849.498
 182  3795.404
 183  4012.64
 184  4197.246
 185  4153.118
 186  3800.097
 187  3464.446
 188  3220.059
 189  3269.289
 190  3240.022
 191  3201.484
 192  3412.013
 193  3404.53
 194  3655.948
 195  3715.225
 196  3407.9
 197  3489.26
 198  3806.37
 199  3897.182
 200  3944.958
 201  3898.492
 202  3631.073
 203  3204.704
 204  3568.106
 205  3446.254
 206  3076.282
 207  2830.603
 208  3124.398
 209  3267.346
 210  3056.888
 211  3332.074
 212  3425.517
 213  3335.019
 214  3319.69
 215  3333.132
 216  3212.38
 217  3041
 218  3296.998
 219  3797.054
 220  3909.028
 221  3664.212
 222  3451.443
 223  3432.839
 224  3017.394
 225  3082.267
 226  3566.141
 227  3884.412
 228  3889.885
 229  3611.349
 230  3259.264
 231  3191.449
 232  3745.2
 233  3694.16
 234  3620.765
 235  3745.013
 236  3698.005
 237  3462.27
 238  3534.138
 239  3423.382
 240  3592.268
 241  3564.75
 242  3694.956
 243  3218.999
 244  3176.952
 245  3142.292
 246  3236.357
 247  3503.637
 248  3641.778
 249  3635.136
 250  3740.812
 251  3394.588
 252  3747.039
 253  3770.818
 254  3771.096
 255  3569.567
 256  3774.347
 257  3977.393
 258  3676.667
 259  3785.947
 260  3871.228
 261  3914.88
 262  3390.438
 263  3421.193
 264  3637.89
 265  3633.136
 266  3566.236
 267  3698.137
 268  3560.849
 269  4133.821
 270  3903.774
 271  3738.588
 272  3806.304
 273  3563.568
 274  3271.211
 275  3214.146
 276  3543.248
 277  3497.841
 278  3425.67
 279  3311.968
 280  3059.193
 281  3111.702
 282  3390.542
 283  3420.022
 284  3342.307
 285  3516.412
 286  3429.8
 287  3094.835
 288  3005.667
 289  3031.841
 290  3163.382
 291  3534.966
 292  3394.819
 293  3438.858
 294  3574.329
 295  3468.898
 296  3784.27
 297  4009.292
 298  4598.419
 299  5533.893
 300  5571.623
 301  5896.748
 302  5992.073
 303  5371.308
 304  4529.25
 305  4339.12
 306  3959.747
 307  4087.832
 308  3852.494
 309  3609.768
 310  3451.007
 311  3462.421
 312  3713.608
 313  3591.766
 314  3314.467
 315  3362.127
 316  3368.058
 317  3539.169
 318  3412.965
 319  3513.933
 320  3453.137
 321  3127.298
 322  3452.431
 323  3309.562
 324  3536.031
 325  3958.929
 326  4049.747
 327  3688.828
 328  3258.911
 329  3547.052
 330  3963.11
 331  4024.884
 332  3969.461
 333  4408.124
 334  4332.459
 335  3745.253
 336  3376.556
 337  3633.91
 338  3815.012
 339  3490.371
 340  3467.35
 341  3553.904
 342  3516.384
 343  3524.751
 344  3078.506
 345  3603.492
 346  3705.39
 347  3529.237
 348  3002.428
 349  2901.095
 350  2982.534
 351  3026.902
 352  2852.325
 353  3013.851
 354  3104.423
 355  3084.404
 356  3189.24
 357  3142.524
 358  2800.526
 359  3000.886
 360  3131.681
 361  3097.614
 362  2815.903
 363  2917.136
 364  3128.767
 365  2798.878
 366  2830.233
 367  2801.574
 368  2813.857
 369  3210.529
 370  3525.012
 371  3233.192
 372  3404.174
 373  3375.368
 374  3340.113
 375  3569.869
 376  3802.739
 377  3946.536
 378  3525.643
 379  3592.052
 380  3624.276
 381  3608.28
 382  3504.125
 383  3484.861
 384  3355.618
 385  3789.009
 386  3936.762
 387  3373.47
 388  3366.323
 389  3324.193
 390  3548.326
 391  3394.224
 392  3306.234
 393  3344.494
 394  3628.693
 395  3368.583
 396  3365.05
 397  3446.867
 398  3456.458
 399  3483.3
 400  3680.367
 401  3759.089
 402  3797.056
 403  3799.139
 404  3834.828
 405  3507.396
 406  3360.874
 407  3637.357
 408  3784.244
 409  3592.192
 410  3801.575
 411  3430.621
 412  3262.839
 413  3347.565
 414  3551.57
 415  3318.812
 416  3629.279
 417  4004.265
 418  3507.028
 419  3633.944
 420  3603.564
 421  3649.146
 422  3425.899
 423  3580.966
 424  3788.138
 425  3669.53
 426  3651.1
 427  3397.269
 428  3256.074
 429  3702.303
 430  3993.465
 431  3736.306
 432  3655.531
 433  3890.914
 434  3582.362
 435  3459.776
 436  3866.151
 437  3888.417
 438  3331.392
 439  3329.454
 440  3614.161
 441  3729.684
 442  3735.492
 443  3819.393
 444  3913.05
 445  4109.611
 446  3972.713
 447  4091.865
 448  4327.544
 449  4568.992
 450  4364.204
 451  4451.496
 452  4020.301
 453  4212.435
 454  3890.793
 455  3533.613
 456  3685.038
 457  3924.28
 458  3851.554
 459  3970.574
 460  4110.306
 461  4361.483
 462  4158.509
 463  3991.087
 464  4237.912
 465  4252.491
 466  4080.564
 467  3902.611
 468  3725.096
 469  3925.389
 470  4119.585
 471  4036.343
 472  4212.986
 473  3890.926
 474  3562.163
 475  3830.912
 476  4197.81
 477  4613.065
 478  4509.265
 479  4145.552
 480  4225.295
 481  4072.849
 482  3849.906
 483  4450.202
 484  4241.341
 485  4203.624
 486  4100.864
 487  4391.693
 488  4519.97
 489  4187.524
 490  4430.438
 491  4404.977
 492  3978.45
 493  4140.228
 494  4199.499
 495  3816.858
 496  3801.634
 497  3846.146
 498  4267.857
 499  4453.786
 500  4297.79
 501  3654.155
 502  3773.52
 503  3646.287
 504  3893.146
 505  3970.062
 506  4336.3
 507  4552.336
 508  4851.584
 509  4741.816
 510  4714.773
 511  4615.042
