# Input file       =  1209962704.113044_cleaned.dat
# Candidate        =  PSR_0332+5434
# Telescope        =  AR
# Epoch_topo       =  58248.198184178749
# Epoch_bary       =  N/A
# T_sample         =  0.002
# Data Folded      =  7143424
# Data Avg         =  0.036619355546821
# Data StdDev      =  1.00006990089891 
# Profile Bins     =  512
# Profile Avg      =  510.98952281453  
# Profile StdDev   =  118.126841077101 
# Reduced chi-sqr  =  2.249
# Prob(Noise)      <  4.11e-51   (~15.0 sigma)
# P_topo (ms)      =  714.538206816222  +/- 0.000124
# P'_topo (s/s)    =  -0                +/- 6.72e-11
# P''_topo (s/s^2) =  0                 +/- 3.05e-14
# P_bary (ms)      =  N/A
# P'_bary (s/s)    =  N/A
# P''_bary (s/s^2) =  N/A
# P_orb (s)        =  N/A
# asin(i)/c (s)    =  N/A
# eccentricity     =  N/A
# w (rad)          =  N/A
# T_peri           =  N/A
######################################################
   0  590.651
   1  455.6627
   2  469.186
   3  628.3336
   4  601.9797
   5  543.0787
   6  570.9697
   7  489.7754
   8  483.0099
   9  579.3103
  10  672.5814
  11  692.5426
  12  653.4894
  13  611.2183
  14  507.6462
  15  550.7003
  16  481.9367
  17  551.5038
  18  614.5522
  19  470.8732
  20  484.2744
  21  406.7834
  22  388.7251
  23  524.5453
  24  597.1769
  25  634.35
  26  588.966
  27  560.3217
  28  592.6086
  29  538.4116
  30  406.229
  31  482.6027
  32  524.9205
  33  506.9796
  34  493.9359
  35  515.7876
  36  453.445
  37  391.1391
  38  447.524
  39  474.8438
  40  530.2604
  41  459.6752
  42  628.7554
  43  608.1873
  44  508.1454
  45  484.6698
  46  383.7873
  47  546.9779
  48  594.5675
  49  432.2609
  50  403.8502
  51  443.3937
  52  429.6006
  53  416.2153
  54  315.9218
  55  541.2615
  56  525.8203
  57  435.7271
  58  466.9414
  59  547.4459
  60  512.6184
  61  442.371
  62  471.4815
  63  543.2242
  64  556.5148
  65  496.4612
  66  506.2451
  67  530.0609
  68  433.1161
  69  413.1567
  70  378.7092
  71  401.743
  72  420.1653
  73  442.7807
  74  465.5506
  75  378.7129
  76  339.2746
  77  397.8802
  78  605.9171
  79  656.2646
  80  589.374
  81  579.6997
  82  512.9344
  83  530.8043
  84  589.5208
  85  522.1306
  86  477.8231
  87  397.0955
  88  448.1047
  89  506.7188
  90  555.5119
  91  606.5546
  92  627.966
  93  497.7928
  94  490.7299
  95  464.9192
  96  522.0592
  97  601.3996
  98  441.1622
  99  401.2917
 100  489.5513
 101  543.6698
 102  542.0555
 103  492.1328
 104  556.0825
 105  562.9628
 106  572.7831
 107  625.6759
 108  444.8158
 109  388.1836
 110  646.4154
 111  591.0958
 112  516.3752
 113  578.2476
 114  598.8443
 115  508.3336
 116  320.5869
 117  467.2482
 118  395.4814
 119  332.551
 120  518.0256
 121  721.1747
 122  641.3714
 123  430.3501
 124  472.3333
 125  567.6329
 126  690.3358
 127  564.213
 128  574.1216
 129  662.626
 130  669.3101
 131  632.9513
 132  574.4305
 133  532.1675
 134  622.8432
 135  564.1913
 136  435.4336
 137  404.3439
 138  534.1403
 139  722.6708
 140  585.7509
 141  548.8443
 142  509.3086
 143  587.989
 144  594.7686
 145  650.3178
 146  626.239
 147  577.5053
 148  510.0461
 149  504.9157
 150  627.7954
 151  631.6522
 152  598.438
 153  476.4262
 154  469.9659
 155  513.1244
 156  799.0685
 157  799.7833
 158  667.7686
 159  605.7038
 160  589.0345
 161  682.3521
 162  682.4645
 163  616.092
 164  631.7963
 165  604.6229
 166  617.5756
 167  624.9657
 168  621.5528
 169  495.5655
 170  627.7103
 171  659.7829
 172  585.1133
 173  503.5934
 174  724.2064
 175  712.3555
 176  513.4801
 177  339.7841
 178  311.9134
 179  448.5493
 180  671.3346
 181  612.0101
 182  529.1268
 183  523.1612
 184  475.0336
 185  569.2962
 186  594.4014
 187  509.3696
 188  520.2269
 189  499.2715
 190  463.4402
 191  412.8931
 192  486.84
 193  488.2122
 194  514.0346
 195  618.4088
 196  688.1078
 197  560.1071
 198  348.8235
 199  342.5732
 200  368.1618
 201  335.191
 202  481.2733
 203  531.4995
 204  524.0514
 205  514.7155
 206  474.4479
 207  360.3133
 208  391.1656
 209  393.4236
 210  411.1359
 211  542.0197
 212  517.1548
 213  416.1152
 214  456.0153
 215  475.0943
 216  410.2453
 217  418.8235
 218  405.3686
 219  367.6324
 220  403.7693
 221  411.5066
 222  543.4352
 223  590.0803
 224  551.8104
 225  530.1261
 226  534.4974
 227  486.7361
 228  482.601
 229  646.8243
 230  632.1674
 231  514.2502
 232  616.7683
 233  540.7915
 234  301.2596
 235  321.9869
 236  382.0592
 237  519.5376
 238  564.6006
 239  500.5251
 240  481.4163
 241  463.3553
 242  453.1893
 243  524.6992
 244  473.5043
 245  552.4547
 246  511.4476
 247  422.2556
 248  459.9825
 249  433.5302
 250  519.9079
 251  425.2274
 252  463.6221
 253  514.553
 254  579.9575
 255  490.146
 256  521.4787
 257  624.7663
 258  718.3978
 259  737.4765
 260  672.0135
 261  539.0731
 262  441.7107
 263  551.2526
 264  514.7596
 265  591.5674
 266  535.0694
 267  415.2061
 268  305.0718
 269  396.73
 270  576.8578
 271  637.0817
 272  555.073
 273  349.8172
 274  357.4495
 275  401.4643
 276  553.4786
 277  598.0358
 278  731.7151
 279  720.5227
 280  583.3983
 281  632.1855
 282  689.7134
 283  563.6019
 284  535.3352
 285  602.3487
 286  603.6883
 287  426.402
 288  490.9175
 289  548.619
 290  508.6873
 291  544.5417
 292  564.5811
 293  573.8456
 294  547.7709
 295  640.7289
 296  590.3038
 297  549.7302
 298  517.1757
 299  592.0886
 300  453.4461
 301  402.1375
 302  522.7249
 303  559.6245
 304  649.9082
 305  503.8789
 306  412.7686
 307  582.2908
 308  625.468
 309  681.55
 310  495.064
 311  509.5011
 312  603.4258
 313  550.7867
 314  534.283
 315  535.6395
 316  492.7128
 317  379.1721
 318  307.4367
 319  353.9273
 320  508.5056
 321  493.9739
 322  475.5739
 323  613.1814
 324  568.8077
 325  495.6935
 326  509.5792
 327  597.9359
 328  612.1014
 329  519.3278
 330  458.0472
 331  400.8354
 332  440.7239
 333  438.1838
 334  447.8446
 335  364.3646
 336  327.4634
 337  364.4593
 338  469.786
 339  489.5013
 340  436.9826
 341  542.161
 342  439.1702
 343  407.1182
 344  455.3329
 345  566.8038
 346  489.1763
 347  320.3778
 348  413.0404
 349  376.2411
 350  445.465
 351  372.0377
 352  402.5295
 353  451.9978
 354  586.2534
 355  356.6266
 356  368.7365
 357  396.6122
 358  451.4796
 359  440.9349
 360  356.8402
 361  544.0844
 362  522.4016
 363  453.5848
 364  399.5811
 365  472.4535
 366  606.6734
 367  551.9559
 368  498.0462
 369  543.3693
 370  570.9999
 371  492.5005
 372  469.6675
 373  553.8339
 374  544.7745
 375  609.5975
 376  580.3165
 377  623.3815
 378  576.6446
 379  517.8954
 380  516.2776
 381  451.2861
 382  479.7376
 383  445.4572
 384  472.7131
 385  385.1649
 386  534.1634
 387  572.8757
 388  552.7474
 389  458.8008
 390  592.5681
 391  577.2084
 392  639.4717
 393  517.7358
 394  523.701
 395  553.2654
 396  432.5927
 397  385.6824
 398  398.1022
 399  500.8757
 400  414.9037
 401  375.1727
 402  476.8463
 403  457.1989
 404  316.5352
 405  263.7207
 406  434.851
 407  443.9042
 408  565.3536
 409  537.6915
 410  518.5736
 411  493.8914
 412  441.6422
 413  446.9695
 414  365.7295
 415  404.9487
 416  358.0918
 417  462.0375
 418  406.1537
 419  432.4063
 420  423.4816
 421  457.7227
 422  551.0483
 423  488.6063
 424  534.1608
 425  498.3076
 426  454.9942
 427  518.2813
 428  548.4809
 429  522.3477
 430  427.8457
 431  495.6372
 432  475.6567
 433  424.9848
 434  437.976
 435  415.4392
 436  467.7827
 437  422.0834
 438  416.2393
 439  426.4875
 440  449.1754
 441  412.1016
 442  402.0517
 443  424.4007
 444  452.5023
 445  455.9092
 446  434.4002
 447  397.9882
 448  398.045
 449  310.7164
 450  231.8384
 451  242.6711
 452  372.7121
 453  311.2089
 454  386.8106
 455  451.3472
 456  455.4386
 457  439.6857
 458  398.5522
 459  385.5272
 460  324.5405
 461  498.3497
 462  414.9278
 463  285.9654
 464  222.5773
 465  307.4934
 466  282.8659
 467  308.9406
 468  345.8741
 469  469.7576
 470  417.2523
 471  477.9249
 472  492.4389
 473  485.2287
 474  513.541
 475  462.6877
 476  477.8961
 477  493.8034
 478  477.6961
 479  466.7494
 480  431.5575
 481  368.3344
 482  355.3466
 483  371.3265
 484  454.7693
 485  574.8178
 486  540.7889
 487  543.8345
 488  480.3281
 489  470.8947
 490  534.447
 491  412.6594
 492  448.6736
 493  504.95
 494  517.9944
 495  489.4589
 496  502.7279
 497  525.3129
 498  554.435
 499  535.2917
 500  596.3618
 501  629.1541
 502  681.379
 503  700.2574
 504  804.4245
 505  1202.786
 506  1370.062
 507  1456.47
 508  1457.623
 509  1240.278
 510  893.6557
 511  668.318
