# Input file       =  1209790337.117914_cleaned.dat
# Candidate        =  PSR_0332+5434
# Telescope        =  AR
# Epoch_topo       =  58246.203195809190
# Epoch_bary       =  N/A
# T_sample         =  0.002
# Data Folded      =  7208960
# Data Avg         =  0.0395060831862373
# Data StdDev      =  1.0000497539487  
# Profile Bins     =  512
# Profile Avg      =  556.082576955299 
# Profile StdDev   =  118.665079556076 
# Reduced chi-sqr  =  2.230
# Prob(Noise)      <  6.75e-50   (~14.8 sigma)
# P_topo (ms)      =  714.540095440381  +/- 3.05e-05
# P'_topo (s/s)    =  -0                +/- 1.64e-11
# P''_topo (s/s^2) =  0                 +/- 7.38e-15
# P_bary (ms)      =  N/A
# P'_bary (s/s)    =  N/A
# P''_bary (s/s^2) =  N/A
# P_orb (s)        =  N/A
# asin(i)/c (s)    =  N/A
# eccentricity     =  N/A
# w (rad)          =  N/A
# T_peri           =  N/A
######################################################
   0  1272.561
   1  1116.434
   2  1098.835
   3  901.9237
   4  675.2968
   5  576.5519
   6  620.059
   7  555.079
   8  486.3703
   9  539.9213
  10  581.1145
  11  729.0567
  12  871.2032
  13  847.3519
  14  771.9456
  15  734.9682
  16  652.8182
  17  497.935
  18  533.0128
  19  596.5796
  20  699.5654
  21  771.8161
  22  653.0189
  23  588.7531
  24  334.561
  25  386.1035
  26  540.6265
  27  656.0403
  28  659.4055
  29  722.8562
  30  823.7449
  31  699.283
  32  646.5994
  33  493.356
  34  446.8351
  35  633.2851
  36  752.4657
  37  742.6823
  38  564.3734
  39  562.9898
  40  435.1007
  41  381.848
  42  592.8384
  43  552.0033
  44  593.7433
  45  698.2639
  46  624.6929
  47  667.2482
  48  651.0055
  49  556.5584
  50  481.7837
  51  473.0054
  52  558.5208
  53  651.9133
  54  635.7892
  55  774.6218
  56  667.3696
  57  537.3208
  58  494.5583
  59  607.1906
  60  719.1907
  61  682.8639
  62  726.5023
  63  795.8042
  64  605.0134
  65  471.9442
  66  606.7128
  67  505.2718
  68  592.3528
  69  514.163
  70  612.5563
  71  674.028
  72  630.7273
  73  547.2203
  74  448.166
  75  441.3368
  76  572.6672
  77  778.6819
  78  761.194
  79  625.7205
  80  685.2695
  81  628.0197
  82  510.3358
  83  385.0957
  84  347.6945
  85  565.5106
  86  673.1824
  87  710.3405
  88  643.25
  89  408.0542
  90  380.0046
  91  409.5205
  92  485.2248
  93  536.155
  94  745.2813
  95  761.5715
  96  748.8159
  97  683.2861
  98  571.6832
  99  395.158
 100  374.0628
 101  490.9283
 102  584.3667
 103  657.5309
 104  770.8864
 105  510.8874
 106  291.1437
 107  317.5103
 108  523.0507
 109  571.1923
 110  622.5424
 111  703.6187
 112  767.7639
 113  724.4034
 114  575.38
 115  448.4189
 116  397.444
 117  496.5364
 118  549.1166
 119  618.2925
 120  597.8922
 121  566.381
 122  685.4284
 123  527.553
 124  350.6471
 125  369.4088
 126  587.8105
 127  639.8624
 128  604.2084
 129  692.0002
 130  575.5308
 131  535.5829
 132  543.0865
 133  490.6721
 134  489.1451
 135  503.6973
 136  595.6213
 137  526.2924
 138  583.2193
 139  501.0565
 140  569.41
 141  473.1905
 142  534.8438
 143  669.802
 144  617.7111
 145  606.379
 146  429.5833
 147  460.9411
 148  496.5626
 149  547.3085
 150  572.0927
 151  503.3328
 152  599.3269
 153  527.1273
 154  517.6745
 155  466.0788
 156  490.3949
 157  539.864
 158  523.0508
 159  607.4499
 160  593.4785
 161  665.2104
 162  650.7858
 163  530.9153
 164  538.2028
 165  469.1906
 166  568.7093
 167  550.1217
 168  623.0388
 169  695.7443
 170  650.7436
 171  535.2299
 172  428.1825
 173  537.4165
 174  460.3817
 175  485.9529
 176  591.5016
 177  716.9083
 178  759.3458
 179  679.6397
 180  586.9921
 181  471.968
 182  483.1602
 183  574.8759
 184  565.6778
 185  569.8325
 186  550.6649
 187  426.2152
 188  471.3306
 189  472.6395
 190  455.4359
 191  510.631
 192  644.5615
 193  732.1945
 194  759.0413
 195  636.0387
 196  566.5942
 197  422.9844
 198  459.6085
 199  493.5968
 200  573.9721
 201  501.1227
 202  574.624
 203  668.9577
 204  674.7874
 205  497.8349
 206  366.6133
 207  489.4327
 208  482.316
 209  427.1267
 210  572.9482
 211  545.0861
 212  572.2355
 213  475.6882
 214  384.6103
 215  333.1415
 216  368.9587
 217  470.6855
 218  493.6717
 219  466.5469
 220  495.2962
 221  531.8292
 222  559.6196
 223  447.7856
 224  491.2185
 225  556.8679
 226  565.2689
 227  636.8462
 228  695.6395
 229  536.8646
 230  370.5643
 231  396.8041
 232  475.7587
 233  580.9843
 234  515.4902
 235  549.8607
 236  530.9946
 237  507.3299
 238  527.5353
 239  552.5905
 240  504.6641
 241  533.8095
 242  784.3071
 243  803.5063
 244  766.9868
 245  591.038
 246  559.4603
 247  523.6019
 248  388.8057
 249  536.2346
 250  496.6993
 251  567.6138
 252  632.2132
 253  501.0643
 254  522.4951
 255  560.7813
 256  440.6749
 257  468.5914
 258  637.8156
 259  549.9119
 260  641.7922
 261  649.5159
 262  643.9088
 263  560.0442
 264  433.1407
 265  414.4407
 266  381.6271
 267  440.9861
 268  548.8513
 269  471.0037
 270  473.7111
 271  540.6768
 272  446.1468
 273  511.5983
 274  612.8386
 275  634.127
 276  655.261
 277  678.9348
 278  595.4522
 279  554.4526
 280  483.3871
 281  473.7791
 282  502.22
 283  578.812
 284  551.2534
 285  518.4517
 286  445.7993
 287  511.7934
 288  493.5867
 289  383.9465
 290  359.7641
 291  512.7592
 292  509.3673
 293  576.4163
 294  569.2134
 295  569.1023
 296  402.7348
 297  403.0849
 298  347.4501
 299  349.6318
 300  463.1973
 301  553.6989
 302  545.7747
 303  445.3462
 304  361.9545
 305  393.7365
 306  461.8972
 307  544.9532
 308  619.1576
 309  589.1762
 310  616.0515
 311  642.8408
 312  577.5894
 313  473.5696
 314  328.4778
 315  365.8972
 316  400.7769
 317  377.1202
 318  478.8422
 319  462.1967
 320  465.9972
 321  365.2623
 322  303.1945
 323  455.2355
 324  607.2523
 325  710.3601
 326  625.6409
 327  579.5014
 328  376.2438
 329  353.6764
 330  351.268
 331  424.7256
 332  455.1882
 333  575.5571
 334  661.4048
 335  557.1766
 336  525.0989
 337  454.2112
 338  411.4384
 339  443.6326
 340  368.8301
 341  453.8282
 342  696.5543
 343  830.9144
 344  703.5551
 345  613.8229
 346  533.8558
 347  434.0815
 348  474.0529
 349  528.6269
 350  481.1076
 351  534.4426
 352  539.8135
 353  487.2027
 354  439.4398
 355  364.7848
 356  490.8567
 357  636.0565
 358  644.0059
 359  642.9716
 360  655.472
 361  701.4398
 362  691.1013
 363  455.757
 364  448.2491
 365  510.2488
 366  488.5687
 367  399.5007
 368  387.1087
 369  495.9709
 370  537.9377
 371  482.1455
 372  486.7243
 373  572.6116
 374  567.8118
 375  659.3752
 376  662.8394
 377  595.279
 378  566.0251
 379  452.9065
 380  421.2418
 381  400.0735
 382  375.6466
 383  464.314
 384  645.5764
 385  726.1582
 386  644.2234
 387  557.7501
 388  486.6081
 389  612.5599
 390  658.3649
 391  696.3429
 392  676.9998
 393  698.9073
 394  654.4473
 395  626.3463
 396  561.0415
 397  600.0519
 398  497.075
 399  546.0039
 400  547.9092
 401  666.5609
 402  595.733
 403  501.4335
 404  393.6359
 405  389.3513
 406  539.4828
 407  547.3178
 408  676.2245
 409  750.592
 410  672.3677
 411  588.2876
 412  534.9414
 413  603.2444
 414  514.1909
 415  591.6191
 416  604.5256
 417  639.8367
 418  610.618
 419  449.4008
 420  443.0851
 421  547.1208
 422  582.5681
 423  613.6981
 424  615.473
 425  759.5373
 426  730.5584
 427  654.3642
 428  526.1714
 429  421.1913
 430  410.2624
 431  503.6781
 432  431.5655
 433  568.296
 434  665.9352
 435  527.0194
 436  590.1855
 437  544.2146
 438  474.9859
 439  483.9988
 440  588.7878
 441  651.4147
 442  651.6521
 443  608.4475
 444  487.5427
 445  494.2831
 446  323.2138
 447  365.3531
 448  393.8185
 449  387.2565
 450  628.2258
 451  724.3771
 452  630.749
 453  428.9621
 454  369.4353
 455  371.363
 456  450.5563
 457  475.7696
 458  563.7952
 459  600.8373
 460  616.2607
 461  494.5272
 462  439.9811
 463  447.4278
 464  484.6524
 465  442.3171
 466  523.8895
 467  571.2722
 468  527.8536
 469  424.9837
 470  441.463
 471  410.1314
 472  524.3002
 473  544.0645
 474  532.6155
 475  655.7531
 476  638.4984
 477  590.4119
 478  461.6453
 479  379.0345
 480  361.8382
 481  429.9806
 482  535.4954
 483  484.3901
 484  584.482
 485  583.1244
 486  511.5725
 487  460.4911
 488  498.0245
 489  574.387
 490  515.3939
 491  654.7731
 492  759.1296
 493  619.8606
 494  467.149
 495  461.9706
 496  550.1945
 497  528.7905
 498  583.9511
 499  572.2983
 500  453.0974
 501  325.6394
 502  351.4208
 503  498.781
 504  445.3302
 505  618.5313
 506  810.3746
 507  791.3684
 508  886.0422
 509  1000.767
 510  1153.621
 511  1291.76
