# Input file       =  1209273393.117833-PSRB0329-2ms-sampling-dd.dat
# Candidate        =  PSR_0332+5434
# Telescope        =  AR
# Epoch_topo       =  58240.220047660107
# Epoch_bary       =  N/A
# T_sample         =  0.002
# Data Folded      =  7208960
# Data Avg         =  -1.03956280095502e-09
# Data StdDev      =  8.34317205050422 
# Profile Bins     =  512
# Profile Avg      =  -0.12234123533414
# Profile StdDev   =  989.993919016452 
# Reduced chi-sqr  =  1.418
# Prob(Noise)      <  1.35e-09   (~5.9 sigma)
# P_topo (ms)      =  714.545621527404  +/- 4.24e-05
# P'_topo (s/s)    =  -0                +/- 2.28e-11
# P''_topo (s/s^2) =  0                 +/- 1.02e-14
# P_bary (ms)      =  N/A
# P'_bary (s/s)    =  N/A
# P''_bary (s/s^2) =  N/A
# P_orb (s)        =  N/A
# asin(i)/c (s)    =  N/A
# eccentricity     =  N/A
# w (rad)          =  N/A
# T_peri           =  N/A
######################################################
   0  -1050.726
   1  -723.9669
   2  -618.0544
   3  -447.1626
   4  -880.7391
   5  -586.4289
   6  -1279.994
   7  -1986.81
   8  -1359.139
   9  -443.6157
  10  933.9367
  11  905.4717
  12  1487.682
  13  793.4307
  14  80.58852
  15  -623.6998
  16  -746.4827
  17  -483.0437
  18  -388.3397
  19  58.46119
  20  -651.1841
  21  -597.9932
  22  -772.4907
  23  -964.5231
  24  -568.9158
  25  -142.987
  26  707.7414
  27  1454.887
  28  1999.909
  29  1037.142
  30  355.5972
  31  20.60856
  32  -405.8968
  33  -326.9677
  34  -334.6904
  35  301.6162
  36  -425.7328
  37  -807.6253
  38  -1399.401
  39  -536.2889
  40  -445.6108
  41  -907.2684
  42  -101.9253
  43  803.7732
  44  1740.094
  45  575.3156
  46  343.0537
  47  241.5098
  48  -2.208767
  49  -550.6274
  50  -334.8999
  51  382.1886
  52  278.9978
  53  -56.40327
  54  -1302.872
  55  -1327.505
  56  -1462.96
  57  -920.311
  58  14.01397
  59  1146.646
  60  1415.98
  61  1107.809
  62  -118.7684
  63  -949.7939
  64  -564.7503
  65  -644.5135
  66  -852.2236
  67  -51.36456
  68  171.7371
  69  -351.6407
  70  -610.8943
  71  -1318.009
  72  -1481.8
  73  -1541.382
  74  -1195.463
  75  -481.023
  76  349.1747
  77  932.5674
  78  299.9545
  79  106.6432
  80  -406.6354
  81  -700.1282
  82  -1002.068
  83  -974.1122
  84  -221.2063
  85  -692.5601
  86  -360.9759
  87  -422.577
  88  -323.9649
  89  -877.2873
  90  -1347.51
  91  -841.6277
  92  348.3848
  93  1603.919
  94  1338.515
  95  736.8016
  96  -81.454
  97  -240.139
  98  -483.3826
  99  -1242.413
 100  -924.7128
 101  -440.8115
 102  -487.0089
 103  -917.8173
 104  -729.0687
 105  -813.0585
 106  -384.0648
 107  -621.8299
 108  -781.1154
 109  911.0381
 110  1511.25
 111  1731.047
 112  588.8005
 113  827.6588
 114  72.13544
 115  31.56189
 116  86.2438
 117  -62.53254
 118  431.5829
 119  -390.16
 120  -770.2745
 121  -748.0787
 122  -643.02
 123  -422.0761
 124  -118.0505
 125  874.9713
 126  1170.462
 127  1084.068
 128  487.1756
 129  338.2247
 130  -184.4092
 131  -528.7086
 132  -276.3813
 133  44.67443
 134  -281.5655
 135  -665.7399
 136  -1352.462
 137  -1740.75
 138  -1394.257
 139  -828.5904
 140  -241.1842
 141  572.3386
 142  1065.66
 143  1379.998
 144  659.8217
 145  -70.38911
 146  -502.5694
 147  -312.3159
 148  -461.3402
 149  -738.6559
 150  -108.1791
 151  291.5779
 152  -188.901
 153  -422.8011
 154  -1222.204
 155  -1606.225
 156  -1252.921
 157  -746.8752
 158  503.7144
 159  726.2353
 160  921.8505
 161  628.4406
 162  84.9252
 163  -609.2742
 164  -1016.368
 165  -1189.335
 166  -1183.507
 167  -238.3276
 168  -439.9651
 169  -655.9408
 170  -1254.107
 171  -1109.238
 172  -1007.175
 173  -979.6213
 174  -143.3508
 175  926.9579
 176  2128.399
 177  1820.308
 178  1046.15
 179  -275.4658
 180  -121.8601
 181  -254.0338
 182  -626.6749
 183  -4.580539
 184  -392.5395
 185  98.23952
 186  -658.8201
 187  -223.365
 188  -43.79607
 189  -435.6635
 190  -339.9061
 191  594.0158
 192  1861.175
 193  1739.154
 194  1942.398
 195  1418.703
 196  1216.277
 197  769.1623
 198  -5.011366
 199  -246.5484
 200  -456.3386
 201  -150.1492
 202  -1236.474
 203  -1151.055
 204  -392.5085
 205  -248.4886
 206  65.95452
 207  569.4134
 208  1417.979
 209  1182.071
 210  1508.813
 211  514.2707
 212  486.305
 213  -101.3589
 214  -319.5952
 215  544.2307
 216  531.3245
 217  627.6403
 218  -368.0699
 219  -882.4592
 220  -1288.822
 221  -956.9053
 222  -507.7671
 223  -11.6847
 224  1007.395
 225  1129.619
 226  1004.765
 227  464.5078
 228  104.4876
 229  72.42699
 230  -30.75213
 231  -315.58
 232  -249.8767
 233  109.9187
 234  -86.65184
 235  -923.8049
 236  -1216.297
 237  -1286.956
 238  -1308.248
 239  -882.2309
 240  355.6985
 241  1441.665
 242  1151.327
 243  492.5322
 244  -96.05927
 245  -365.2631
 246  -829.0208
 247  -624.0801
 248  -626.9764
 249  -581.7203
 250  75.39507
 251  -185.429
 252  -373.3171
 253  -904.391
 254  -1020.246
 255  -1253.268
 256  -734.797
 257  599.6313
 258  1686.047
 259  2018.381
 260  1160.945
 261  732.2824
 262  14.44491
 263  123.0099
 264  -279.5111
 265  -763.5698
 266  3.487587
 267  -145.2161
 268  112.8909
 269  -638.3195
 270  -280.1439
 271  142.1158
 272  -427.7834
 273  -312.2383
 274  883.2121
 275  1868.34
 276  1528.873
 277  1313.746
 278  905.5707
 279  352.6265
 280  -132.4431
 281  -182.7652
 282  -38.87155
 283  158.4687
 284  551.9354
 285  -300.4562
 286  -51.32001
 287  -353.7144
 288  -210.1355
 289  262.3165
 290  648.0074
 291  1576.665
 292  1266.663
 293  1481.424
 294  705.0646
 295  994.0336
 296  496.3155
 297  566.3116
 298  704.4051
 299  199.8943
 300  522.4494
 301  -158.5973
 302  -848.6105
 303  -933.1091
 304  299.6096
 305  640.9432
 306  557.7545
 307  1318.964
 308  1856.818
 309  1523.379
 310  417.0235
 311  49.66851
 312  27.54644
 313  277.9399
 314  428.4405
 315  402.1799
 316  57.44334
 317  -896.415
 318  -1371.986
 319  -1377.357
 320  -512.0428
 321  -686.7344
 322  -51.87264
 323  1201.274
 324  1297.103
 325  876.8469
 326  153.4581
 327  88.74043
 328  274.17
 329  -53.53692
 330  -266.9973
 331  -93.43978
 332  -358.2457
 333  -3.931286
 334  -209.8129
 335  -544.0029
 336  -1321.732
 337  -1192.229
 338  -763.5287
 339  -8.429798
 340  1097.273
 341  1259.604
 342  1571.111
 343  722.1959
 344  123.9611
 345  -449.5099
 346  -419.7904
 347  -407.0065
 348  -593.1844
 349  98.67122
 350  -444.7197
 351  -1114.098
 352  -1052.79
 353  -424.7357
 354  -587.8733
 355  -517.6108
 356  527.2039
 357  1270.321
 358  1754.839
 359  1150.624
 360  998.4079
 361  309.6166
 362  212.5193
 363  -53.8698
 364  -497.4634
 365  18.83681
 366  -52.10599
 367  297.1095
 368  -232.4967
 369  169.656
 370  -284.6332
 371  99.10348
 372  346.7273
 373  641.1879
 374  2045.238
 375  1302.509
 376  1318.01
 377  517.6277
 378  410.4807
 379  201.7109
 380  268.6783
 381  282.6746
 382  -417.5381
 383  -147.6264
 384  -1015.031
 385  -1026.436
 386  -840.9809
 387  -187.6481
 388  94.58808
 389  835.7914
 390  1366.201
 391  1064.994
 392  494.8989
 393  154.1854
 394  435.4655
 395  193.1226
 396  62.57887
 397  707.251
 398  687.1322
 399  99.7754
 400  -480.0309
 401  -1691.8
 402  -1447.614
 403  -659.9387
 404  -39.07497
 405  316.5265
 406  1227.481
 407  1292.485
 408  529.9117
 409  60.31328
 410  52.77013
 411  45.4883
 412  -386.0774
 413  -778.2449
 414  -414.4588
 415  -228.7854
 416  -472.8166
 417  -1148.347
 418  -1667.137
 419  -1557.666
 420  -1304.143
 421  -1147.922
 422  276.0933
 423  1351.572
 424  1238.13
 425  688.5745
 426  -90.78626
 427  -320.2907
 428  -346.4233
 429  -256.7194
 430  513.3143
 431  85.96375
 432  337.4709
 433  -42.39414
 434  -259.9389
 435  -516.8752
 436  -196.8221
 437  -417.6991
 438  -61.00015
 439  869.2816
 440  944.7567
 441  2216.986
 442  1547.011
 443  984.7507
 444  111.8423
 445  -203.0345
 446  -270.0038
 447  -712.0632
 448  266.9087
 449  -230.2234
 450  -31.7308
 451  -537.827
 452  112.1071
 453  -142.1785
 454  67.40089
 455  925.9986
 456  1414.477
 457  1862.611
 458  1891.943
 459  2115.777
 460  1990.059
 461  1831.667
 462  2051.149
 463  1251.578
 464  1014.914
 465  531.7226
 466  -151.2058
 467  -1061.093
 468  -460.3659
 469  -85.36494
 470  -128.7028
 471  766.3339
 472  1232.193
 473  1530.08
 474  1284.308
 475  929.6219
 476  216.6924
 477  369.8804
 478  -206.016
 479  -655.0612
 480  90.75117
 481  -38.34315
 482  132.4393
 483  -520.2429
 484  -1272.49
 485  -1717.324
 486  -1160.05
 487  -604.4731
 488  90.10942
 489  723.4656
 490  961.8085
 491  285.1953
 492  -455.6165
 493  -923.1144
 494  -1279.254
 495  -1044.425
 496  -686.2534
 497  333.4486
 498  -29.11313
 499  -515.1534
 500  -1580.339
 501  -1644.478
 502  -1845.973
 503  -1815.796
 504  -944.4561
 505  511.9454
 506  985.9216
 507  940.3839
 508  -8.80657
 509  -1065.544
 510  -1093.567
 511  -788.9681
