# Input file       =  1209790337.117914_cleaned.dat
# Candidate        =  PSR_0332+5434
# Telescope        =  AR
# Epoch_topo       =  58246.203195809190
# Epoch_bary       =  N/A
# T_sample         =  0.002
# Data Folded      =  7208960
# Data Avg         =  0.193666752732613
# Data StdDev      =  5.31918231985707 
# Profile Bins     =  512
# Profile Avg      =  2726.41336527917 
# Profile StdDev   =  631.16978996976  
# Reduced chi-sqr  =  3.954
# Prob(Noise)      <  5.03e-178   (~28.4 sigma)
# P_topo (ms)      =  714.5400960843    +/- 1.22e-05
# P'_topo (s/s)    =  -0                +/- 6.54e-12
# P''_topo (s/s^2) =  0                 +/- 2.94e-15
# P_bary (ms)      =  N/A
# P'_bary (s/s)    =  N/A
# P''_bary (s/s^2) =  N/A
# P_orb (s)        =  N/A
# asin(i)/c (s)    =  N/A
# eccentricity     =  N/A
# w (rad)          =  N/A
# T_peri           =  N/A
######################################################
   0  2807.989
   1  1740.32
   2  1403.885
   3  1428.014
   4  1826.734
   5  3161.496
   6  3499.753
   7  3895.12
   8  3572.464
   9  3110.352
  10  2120.499
  11  1517.722
  12  1524.697
  13  1727.043
  14  2611.052
  15  2735.307
  16  2964.617
  17  2672.727
  18  1944.557
  19  1527.997
  20  1510.551
  21  2831.287
  22  3293.13
  23  3948.123
  24  4456.162
  25  3751.052
  26  2703.65
  27  1714.295
  28  2027.434
  29  2090.105
  30  2868.438
  31  3172.06
  32  2930.625
  33  2335.922
  34  1440.178
  35  1737.545
  36  1519.694
  37  2258.141
  38  3445.587
  39  4247.455
  40  4847.687
  41  4681.414
  42  4719.233
  43  4082.204
  44  4000.467
  45  3317.566
  46  3865.143
  47  3880.86
  48  3715.278
  49  3396.757
  50  2774.84
  51  2574.46
  52  1646.072
  53  1790.957
  54  2190.793
  55  3309.946
  56  4464.127
  57  4827.274
  58  4609.551
  59  3470.559
  60  2672.765
  61  1475.108
  62  1881.299
  63  2519.095
  64  3133.68
  65  4004.801
  66  3442.389
  67  3194.557
  68  1759.429
  69  1068.534
  70  1794.744
  71  2923.775
  72  3976.934
  73  4055.935
  74  4551.108
  75  3762.189
  76  2818.737
  77  1915.325
  78  1760.222
  79  2511.728
  80  3153.681
  81  3809.224
  82  2903.85
  83  2800.909
  84  2060.807
  85  1496.33
  86  2016.668
  87  2520.72
  88  3586
  89  4062.73
  90  3933.037
  91  3554.799
  92  3174.195
  93  2538.485
  94  1854.544
  95  2121.736
  96  2266.317
  97  3137.865
  98  2996.107
  99  3182.45
 100  2915.417
 101  2086.975
 102  1949.589
 103  1979.978
 104  3334.709
 105  3802.227
 106  4014.735
 107  4094.218
 108  3299.389
 109  2332.189
 110  1979.845
 111  2153.653
 112  2642.421
 113  2914.493
 114  3118.344
 115  3162.95
 116  2794.918
 117  1868.171
 118  1586.651
 119  1264.066
 120  2425.794
 121  3564.853
 122  4332.116
 123  4242.447
 124  3839.6
 125  3327.499
 126  1802.439
 127  1444.926
 128  1366.404
 129  2438.809
 130  3277.685
 131  3635.272
 132  3651.011
 133  2108.282
 134  1465.845
 135  1040.763
 136  1656.739
 137  2559.745
 138  3542.918
 139  4498.425
 140  4247.491
 141  3948.489
 142  2609.934
 143  1698.773
 144  1337.593
 145  1994.141
 146  2665.119
 147  3093.203
 148  3986.084
 149  2984.5
 150  1911.223
 151  1238.879
 152  1362.118
 153  2257.775
 154  3486.644
 155  4398.446
 156  4406.458
 157  4344.729
 158  3110.479
 159  2385.244
 160  1244.569
 161  1617.882
 162  2590.352
 163  3005.227
 164  3419.751
 165  2816.365
 166  2911.979
 167  2220.8
 168  1418.581
 169  1441.791
 170  2697.974
 171  3670.31
 172  4022.066
 173  4381.408
 174  3684.326
 175  2737.712
 176  2198.388
 177  2057.447
 178  2321.05
 179  2477.345
 180  3206.034
 181  3057.49
 182  3013.859
 183  2356.655
 184  2142.968
 185  2046.446
 186  2335.133
 187  3703.684
 188  4018.398
 189  3933.187
 190  3516.528
 191  2791.542
 192  2330.115
 193  2006.704
 194  2457.18
 195  2817.469
 196  3348.18
 197  3351.189
 198  2971.897
 199  2412.345
 200  1717.001
 201  1858.137
 202  1918.87
 203  2960.211
 204  3994.783
 205  4369.53
 206  4569.961
 207  3388.422
 208  2840.084
 209  1675.419
 210  1994.378
 211  2438.971
 212  3017.02
 213  3817.475
 214  3416.658
 215  3121.937
 216  1869.34
 217  1796.12
 218  1589.467
 219  2293.303
 220  3424.173
 221  4475.271
 222  4613.013
 223  4010.815
 224  3350.155
 225  2118.496
 226  1850.902
 227  1901.935
 228  2608.442
 229  3077.44
 230  3371.5
 231  3097.878
 232  2258.831
 233  2186.711
 234  1506.021
 235  1633.609
 236  2572.285
 237  3943.328
 238  4479.318
 239  4152.677
 240  3910.989
 241  2513.616
 242  1994.392
 243  1771.603
 244  2309.256
 245  2686.541
 246  3093.659
 247  3559.166
 248  3196.531
 249  2554.947
 250  1740.364
 251  1622.838
 252  2180.787
 253  2631.836
 254  3478.372
 255  3701.742
 256  3693.116
 257  3183.662
 258  2301.011
 259  1565.874
 260  1666.339
 261  2289.686
 262  2664.107
 263  2916.682
 264  2799.438
 265  2334.316
 266  2361.191
 267  1698.719
 268  1897.024
 269  2597.406
 270  3535.461
 271  3960.055
 272  4085.704
 273  3597.126
 274  2331.254
 275  1852.733
 276  1668.947
 277  2379.869
 278  2573.317
 279  3085.447
 280  3293.905
 281  2927.131
 282  2398.968
 283  1859.386
 284  1955.704
 285  1937.054
 286  3715.75
 287  4618.317
 288  4831.049
 289  4214.688
 290  3038.038
 291  2507.242
 292  1422.607
 293  1959.519
 294  2450.184
 295  3106.418
 296  3762.001
 297  2833.88
 298  2348.987
 299  1887.973
 300  1622.665
 301  1443.065
 302  2863.578
 303  3576.979
 304  4080.664
 305  4313.237
 306  3615.15
 307  2901.438
 308  1714.462
 309  1610.891
 310  1802.999
 311  2184.87
 312  3082.978
 313  2844.52
 314  2855.28
 315  2456.835
 316  1908.269
 317  1582.548
 318  2088.67
 319  3095.439
 320  3634.567
 321  4064.883
 322  3889.865
 323  3453.926
 324  2486.664
 325  1968.479
 326  1833.555
 327  2252.435
 328  2835.079
 329  2904.508
 330  2938.416
 331  2640.804
 332  2322.302
 333  1754.933
 334  1540.455
 335  2380.808
 336  3184.208
 337  3918.157
 338  3887.577
 339  3500.009
 340  2500.438
 341  1831.584
 342  1235.064
 343  1318.929
 344  2265.041
 345  2983.536
 346  3121.449
 347  2740.961
 348  1927.077
 349  1734.088
 350  1736.669
 351  2230.807
 352  3198.579
 353  3959.082
 354  3980.17
 355  3792.83
 356  3228.339
 357  2391.429
 358  1642.246
 359  1650.177
 360  2303.969
 361  2453.099
 362  2977.961
 363  2829.66
 364  2486.387
 365  2021.151
 366  1310.732
 367  1620.512
 368  2630.696
 369  3951.207
 370  4260.438
 371  4090.33
 372  3119.88
 373  2067.815
 374  1425.346
 375  1345.847
 376  2180.009
 377  2662.1
 378  3555.168
 379  3241.726
 380  2628.658
 381  1858.303
 382  1052.352
 383  1224.597
 384  1693.56
 385  2695.562
 386  3873.804
 387  4586.894
 388  4367.71
 389  3290.157
 390  2515.615
 391  1478.638
 392  1583.977
 393  2274.239
 394  2591.646
 395  3039.127
 396  3033.456
 397  2586.567
 398  1967.021
 399  1403.62
 400  1279.908
 401  2425.535
 402  3289.651
 403  3709.577
 404  4185.496
 405  3828.131
 406  3544.495
 407  1792.422
 408  1642.969
 409  1705.945
 410  2145.385
 411  2773.259
 412  2836.251
 413  3092.066
 414  2641.231
 415  2124.541
 416  1555.601
 417  1989.277
 418  2738.802
 419  3751.849
 420  4124.659
 421  3751.763
 422  3310.486
 423  2420.222
 424  1999.496
 425  1457.584
 426  1691.909
 427  2460.069
 428  3210.431
 429  3474.154
 430  2594.49
 431  2281.642
 432  1440.645
 433  1852.955
 434  3104.684
 435  3625.462
 436  4113.529
 437  3932.313
 438  3930.926
 439  2934.445
 440  2216.296
 441  2132.133
 442  2072.397
 443  2443.642
 444  2746.573
 445  3292.884
 446  3098.491
 447  2247.364
 448  1695.372
 449  1205
 450  2225.933
 451  2872.235
 452  4090.022
 453  4452.687
 454  4099.783
 455  3304.904
 456  2356.598
 457  2182.623
 458  2035.527
 459  2554.69
 460  2962.799
 461  3199.937
 462  2984.894
 463  2260.354
 464  1691.062
 465  1398.317
 466  1804.461
 467  2479.55
 468  3337.121
 469  3993.708
 470  4207.977
 471  4084.88
 472  2621.067
 473  1698.028
 474  1069.448
 475  1875.927
 476  2113.767
 477  2699.088
 478  3323.39
 479  2728.045
 480  2434.36
 481  1753.937
 482  1397.41
 483  1301.456
 484  2797.625
 485  3701.941
 486  4060.831
 487  4139.943
 488  3085.896
 489  2428.573
 490  1064.055
 491  998.6716
 492  1500.825
 493  1780.86
 494  3136.815
 495  3415.541
 496  3156.78
 497  1815.827
 498  1218.163
 499  1034.141
 500  1584.581
 501  2662.934
 502  3474.367
 503  3869.135
 504  3494.05
 505  2808.242
 506  1517.849
 507  1263.627
 508  1635.127
 509  2082.421
 510  2619.223
 511  2579.264
