# Input file       =  1209632602.116271_cleaned.dat
# Candidate        =  PSR_0332+5434
# Telescope        =  AR
# Epoch_topo       =  58244.377559216096
# Epoch_bary       =  N/A
# T_sample         =  0.002
# Data Folded      =  7340032
# Data Avg         =  0.0222110667098642
# Data StdDev      =  1.00007823033536 
# Profile Bins     =  512
# Profile Avg      =  318.327640270022 
# Profile StdDev   =  119.742403132355 
# Reduced chi-sqr  =  1.412
# Prob(Noise)      <  2.22e-09   (~5.9 sigma)
# P_topo (ms)      =  714.541816108704  +/- 0.000378
# P'_topo (s/s)    =  -0                +/- 2e-10
# P''_topo (s/s^2) =  0                 +/- 8.81e-14
# P_bary (ms)      =  N/A
# P'_bary (s/s)    =  N/A
# P''_bary (s/s^2) =  N/A
# P_orb (s)        =  N/A
# asin(i)/c (s)    =  N/A
# eccentricity     =  N/A
# w (rad)          =  N/A
# T_peri           =  N/A
######################################################
   0  163.5795
   1  172.1016
   2  231.346
   3  176.7466
   4  151.5253
   5  194.5662
   6  228.1345
   7  219.1075
   8  154.9245
   9  196.8512
  10  249.0928
  11  282.8589
  12  244.1575
  13  270.7637
  14  219.3946
  15  223.9209
  16  286.4456
  17  295.8403
  18  289.76
  19  264.2976
  20  239.8019
  21  217.2438
  22  135.5806
  23  100.5896
  24  146.5732
  25  266.7688
  26  356.486
  27  391.3488
  28  373.9157
  29  342.868
  30  330.3966
  31  380.7197
  32  388.9443
  33  446.7775
  34  445.4884
  35  320.8122
  36  272.2632
  37  403.5294
  38  338.3961
  39  224.6741
  40  377.8381
  41  382.5081
  42  340.9515
  43  407.5319
  44  386.9831
  45  425.5736
  46  457.4953
  47  561.6274
  48  642.4874
  49  879.9493
  50  962.093
  51  1021.333
  52  952.7717
  53  842.5401
  54  689.3926
  55  538.6395
  56  498.5233
  57  362.3155
  58  457.7446
  59  450.0212
  60  414.741
  61  320.8183
  62  325.4361
  63  443.1877
  64  487.4687
  65  396.7736
  66  430.3262
  67  509.9256
  68  398.6946
  69  330.0906
  70  297.553
  71  356.0518
  72  307.4196
  73  400.0849
  74  387.3546
  75  248.9036
  76  323.0295
  77  396.7444
  78  392.6795
  79  336.7618
  80  353.0366
  81  345.807
  82  399.0083
  83  359.1024
  84  349.7416
  85  312.1625
  86  336.5273
  87  328.8601
  88  342.2579
  89  343.9901
  90  421.365
  91  418.3766
  92  291.6248
  93  271.9144
  94  312.1133
  95  319.3241
  96  287.1914
  97  278.1799
  98  203.9717
  99  254.6387
 100  336.7007
 101  351.3811
 102  258.0683
 103  254.5392
 104  299.6542
 105  383.8804
 106  400.3419
 107  357.4617
 108  270.6862
 109  249.3625
 110  386.4586
 111  398.724
 112  355.6165
 113  328.9572
 114  369.4688
 115  262.6076
 116  213.0773
 117  204.7065
 118  222.0023
 119  226.2953
 120  172.0616
 121  91.87744
 122  83.65068
 123  226.0366
 124  212.187
 125  236.3062
 126  219.0328
 127  212.2577
 128  218.5844
 129  215.4304
 130  256.6751
 131  352.6453
 132  317.9755
 133  200.2359
 134  70.69524
 135  120.942
 136  243.8289
 137  230.107
 138  144.7454
 139  206.931
 140  301.8493
 141  201.1754
 142  137.3601
 143  221.0146
 144  264.904
 145  323.9192
 146  315.2975
 147  375.6494
 148  374.3552
 149  418.6437
 150  364.2836
 151  211.8591
 152  314.0027
 153  310.7164
 154  298.9122
 155  330.4629
 156  309.2019
 157  319.1923
 158  342.383
 159  306.4869
 160  382.9214
 161  408.2237
 162  471.3258
 163  273.1855
 164  251.9921
 165  372.7372
 166  323.3052
 167  364.673
 168  308.8456
 169  246.0188
 170  254.4066
 171  300.3122
 172  456.25
 173  401.0196
 174  320.6978
 175  290.6303
 176  290.0967
 177  361.0789
 178  322.3881
 179  380.985
 180  455.0184
 181  397.7357
 182  356.7495
 183  300.6425
 184  352.9987
 185  353.3712
 186  438.867
 187  428.7815
 188  392.4778
 189  371.5522
 190  418.8142
 191  441.6456
 192  343.1058
 193  373.7945
 194  408.7604
 195  513.7955
 196  453.5438
 197  434.1958
 198  316.1749
 199  409.3313
 200  414.8694
 201  347.2086
 202  311.0294
 203  346.8069
 204  426.9119
 205  425.1213
 206  392.8373
 207  400.6107
 208  356.4736
 209  368.1138
 210  378.0292
 211  440.6815
 212  472.2152
 213  440.8047
 214  307.5504
 215  312.8502
 216  375.581
 217  384.787
 218  277.9374
 219  216.2115
 220  278.2391
 221  376.1179
 222  363.3384
 223  325.4987
 224  328.0364
 225  316.3979
 226  350.0878
 227  369.1663
 228  363.9253
 229  287.6063
 230  351.4615
 231  350.3811
 232  312.2184
 233  255.2581
 234  331.0562
 235  287.2102
 236  155.4898
 237  228.1214
 238  312.249
 239  408.7791
 240  395.7936
 241  378.789
 242  336.4279
 243  361.1002
 244  329.6009
 245  292.8528
 246  306.736
 247  355.3785
 248  308.8914
 249  260.8641
 250  271.4262
 251  284.6684
 252  224.1619
 253  298.8253
 254  292.8537
 255  243.725
 256  308.0293
 257  224.9999
 258  251.6425
 259  314.5438
 260  311.5164
 261  252.8826
 262  277.7718
 263  305.439
 264  354.9645
 265  370.0307
 266  327.6049
 267  315.2395
 268  299.9478
 269  211.8076
 270  216.7163
 271  350.4774
 272  361.3918
 273  282.9654
 274  380.2679
 275  397.328
 276  425.9576
 277  393.6617
 278  377.9794
 279  436.4222
 280  422.6393
 281  443.6404
 282  393.8136
 283  344.6791
 284  263.5199
 285  252.2056
 286  348.0553
 287  384.9819
 288  362.815
 289  390.9091
 290  361.6418
 291  340.9685
 292  296.6141
 293  277.6258
 294  212.339
 295  201.3766
 296  221.3577
 297  202.8293
 298  231.5479
 299  267.0271
 300  249.7771
 301  288.5483
 302  297.789
 303  228.6083
 304  208.4592
 305  210.5372
 306  262.3652
 307  322.9493
 308  313.6432
 309  321.0323
 310  273.9203
 311  300.5683
 312  355.0553
 313  319.7529
 314  271.6834
 315  247.3265
 316  261.8427
 317  299.0215
 318  301.3012
 319  270.8759
 320  363.6404
 321  418.1384
 322  373.2801
 323  353.4274
 324  297.1131
 325  313.1198
 326  253.681
 327  262.0436
 328  286.2728
 329  268.5493
 330  223.6566
 331  129.7829
 332  228.991
 333  331.4079
 334  211.0251
 335  206.2867
 336  209.4766
 337  241.6958
 338  247.4239
 339  218.8242
 340  312.2549
 341  352.923
 342  333.9619
 343  303.5271
 344  320.8519
 345  320.6124
 346  285.54
 347  280.3979
 348  385.0076
 349  257.4527
 350  175.1263
 351  175.4569
 352  206.6978
 353  236.8682
 354  317.679
 355  395.9253
 356  384.9193
 357  348.4218
 358  317.3583
 359  260.6166
 360  292.6952
 361  333.7792
 362  392.1234
 363  362.0905
 364  313.5505
 365  410.2593
 366  301.8195
 367  200.6391
 368  293.2597
 369  379.0253
 370  337.6765
 371  395.7381
 372  406.9521
 373  448.6445
 374  561.9623
 375  552.047
 376  434.4442
 377  413.9272
 378  482.4527
 379  520.0842
 380  475.0417
 381  407.2343
 382  374.0677
 383  355.1633
 384  318.826
 385  324.8686
 386  356.6451
 387  395.1555
 388  440.299
 389  414.446
 390  324.8442
 391  390.3684
 392  381.7568
 393  373.4066
 394  346.4936
 395  333.7851
 396  335.9278
 397  280.2629
 398  294.8229
 399  248.143
 400  245.186
 401  287.4446
 402  328.1392
 403  341.7448
 404  292.3371
 405  288.5507
 406  346.0285
 407  418.515
 408  378.5235
 409  368.2125
 410  407.8384
 411  330.62
 412  263.0586
 413  197.6729
 414  239.1152
 415  256.1013
 416  205.4324
 417  229.147
 418  240.0308
 419  199.6365
 420  159.3922
 421  206.6477
 422  246.3562
 423  210.8645
 424  232.9482
 425  266.8188
 426  251.3475
 427  176.7579
 428  234.3781
 429  233.9297
 430  217.0907
 431  256.8437
 432  259.0689
 433  267.697
 434  239.0074
 435  274.3738
 436  169.2744
 437  202.7568
 438  280.221
 439  266.2157
 440  401.573
 441  339.5135
 442  405.067
 443  319.2019
 444  253.3947
 445  310.2329
 446  324.8463
 447  420.6933
 448  434.4413
 449  343.8087
 450  264.5553
 451  260.57
 452  337.4126
 453  230.6162
 454  209.9765
 455  303.8588
 456  313.1247
 457  289.1626
 458  237.3553
 459  253.8296
 460  271.5228
 461  270.0825
 462  275.5498
 463  264.2013
 464  285.4472
 465  281.5488
 466  289.2554
 467  296.2699
 468  295.3295
 469  313.2265
 470  314.334
 471  281.2949
 472  296.8806
 473  362.8372
 474  355.8773
 475  310.4098
 476  368.8788
 477  340.1891
 478  275.8932
 479  219.5544
 480  216.6696
 481  352.4522
 482  293.8414
 483  236.5061
 484  214.7453
 485  322.0771
 486  241.6557
 487  321.9604
 488  362.605
 489  326.1655
 490  291.0487
 491  228.794
 492  233.5336
 493  213.6656
 494  267.0048
 495  331.7944
 496  337.1518
 497  322.0486
 498  278.0888
 499  212.3826
 500  119.1899
 501  166.3823
 502  279.5814
 503  266.4934
 504  208.2884
 505  264.0075
 506  235.8407
 507  295.651
 508  213.7974
 509  246.7962
 510  179.9959
 511  231.1651
