# Input file       =  1209101040.113664_cleaned.dat
# Candidate        =  PSR_0332+5434
# Telescope        =  AR
# Epoch_topo       =  58238.225221222965
# Epoch_bary       =  N/A
# T_sample         =  0.002
# Data Folded      =  7208960
# Data Avg         =  0.2195326387152  
# Data StdDev      =  5.79423638186304 
# Profile Bins     =  512
# Profile Avg      =  3090.95949426564 
# Profile StdDev   =  687.539313424757 
# Reduced chi-sqr  =  1.639
# Prob(Noise)      <  3.05e-18   (~8.6 sigma)
# P_topo (ms)      =  714.547414496595  +/- 2.33e-05
# P'_topo (s/s)    =  -0                +/- 1.25e-11
# P''_topo (s/s^2) =  0                 +/- 5.62e-15
# P_bary (ms)      =  N/A
# P'_bary (s/s)    =  N/A
# P''_bary (s/s^2) =  N/A
# P_orb (s)        =  N/A
# asin(i)/c (s)    =  N/A
# eccentricity     =  N/A
# w (rad)          =  N/A
# T_peri           =  N/A
######################################################
   0  3347.007
   1  3989.672
   2  4141.981
   3  3367.827
   4  3759.655
   5  2734.897
   6  2878.737
   7  3125.916
   8  3216.941
   9  3829.402
  10  3398.667
  11  3200.018
  12  2385.455
  13  2393.031
  14  1968.328
  15  2265.81
  16  2545.944
  17  3201.631
  18  3440.703
  19  2649.498
  20  3147.986
  21  2405.635
  22  2738.647
  23  3067.55
  24  3088.228
  25  3522.156
  26  2831.681
  27  3321.363
  28  2902.791
  29  2711.329
  30  2402.5
  31  2091.348
  32  2021.834
  33  2680.745
  34  3109.726
  35  3076.469
  36  3716.86
  37  3428.553
  38  3181.642
  39  2782.301
  40  2646.914
  41  3208.359
  42  3239.723
  43  3944.16
  44  2998.336
  45  2806.565
  46  2755.483
  47  2215.468
  48  2332.45
  49  2804.976
  50  3671.612
  51  3557.743
  52  3731.383
  53  3546.518
  54  3253.026
  55  2452.297
  56  2671.914
  57  3294.382
  58  3561.319
  59  4283.815
  60  3687.586
  61  3077.898
  62  2676.023
  63  1975.652
  64  1946.882
  65  2427.412
  66  3004.458
  67  3706.277
  68  3793.715
  69  4049.927
  70  3259.667
  71  2359.868
  72  1852.759
  73  2323.325
  74  3150.666
  75  3213.858
  76  3348.139
  77  3332.57
  78  2783.134
  79  1630.143
  80  1890.685
  81  1143.107
  82  2154.215
  83  3134.583
  84  3156.768
  85  3338.518
  86  2684.205
  87  2856.632
  88  1971.983
  89  2378.132
  90  2782.72
  91  2933.607
  92  3467.651
  93  3017.654
  94  2713.232
  95  2088.792
  96  2276.501
  97  1583.186
  98  1696.338
  99  2101.607
 100  2955.593
 101  3348.668
 102  3054.087
 103  3721.725
 104  2897.085
 105  2721.347
 106  2705.319
 107  2617.796
 108  3456.349
 109  3104.823
 110  3577.419
 111  2998.732
 112  2491.787
 113  1879.86
 114  1957.391
 115  1956.178
 116  2761.49
 117  3245.832
 118  3148.822
 119  3869.188
 120  2835.665
 121  2720.635
 122  2788.93
 123  2529.118
 124  3214.516
 125  3407.579
 126  3878.562
 127  3003.99
 128  2974.131
 129  2513.43
 130  1821.937
 131  1920.069
 132  2723.927
 133  3650.802
 134  3574.976
 135  3725.511
 136  3473.374
 137  3206.28
 138  2793.323
 139  2959.568
 140  3868.301
 141  3625.951
 142  3773.125
 143  3497.485
 144  2990.066
 145  2506.651
 146  2007.548
 147  2203.112
 148  2554.593
 149  3815.951
 150  4282.846
 151  4249.12
 152  3649.535
 153  3081.867
 154  2340.152
 155  2279.123
 156  3550.308
 157  3908.172
 158  3897.702
 159  3978.839
 160  3188.807
 161  2712.743
 162  2096.839
 163  2170.348
 164  2001.691
 165  2923.761
 166  3449.234
 167  3158.355
 168  3548.193
 169  2401.314
 170  2468.48
 171  2090.935
 172  2549.323
 173  3011.58
 174  2382.745
 175  3241.503
 176  3139.97
 177  3234.27
 178  2139.091
 179  2176.936
 180  1719.471
 181  2063.635
 182  2985.797
 183  2957.558
 184  3330.353
 185  2919.146
 186  3491.513
 187  2780.099
 188  2596.497
 189  3053.683
 190  2713.282
 191  3357.476
 192  3175.14
 193  3392.147
 194  2896.406
 195  2514.567
 196  2035.721
 197  1974.115
 198  2601.444
 199  3086.945
 200  3725.578
 201  3237.505
 202  3279.748
 203  2325.827
 204  1893.679
 205  2457.23
 206  2629.326
 207  3518.067
 208  3183.283
 209  3383.141
 210  2608.345
 211  2354.485
 212  2371.509
 213  1798.482
 214  2404.58
 215  3323.253
 216  3560.396
 217  3417.817
 218  3439.053
 219  3097.782
 220  2389.693
 221  2531.685
 222  2643.182
 223  3513.705
 224  3351.35
 225  3721.429
 226  3133.576
 227  2402.208
 228  1877.141
 229  1962.387
 230  2775.114
 231  3054.347
 232  3982.899
 233  4220.668
 234  3325.162
 235  2802.924
 236  2986.801
 237  2894.329
 238  2951.445
 239  3788.478
 240  3873.767
 241  3572.366
 242  3388.248
 243  3061.465
 244  2774.425
 245  1854.631
 246  1937.618
 247  2217.281
 248  3470.03
 249  3831.421
 250  3476.74
 251  3889.105
 252  3276.027
 253  3014.331
 254  2546.174
 255  2964.331
 256  3665.718
 257  3342.31
 258  3810.053
 259  3514.404
 260  2997.264
 261  2293.824
 262  2339.484
 263  2077.103
 264  2656.552
 265  3532.729
 266  3657.97
 267  3982.524
 268  2919.244
 269  2915.774
 270  2280.19
 271  2471.097
 272  2877.317
 273  3088.811
 274  3801.501
 275  3097.948
 276  3110.784
 277  2422.529
 278  2208.777
 279  1542.585
 280  2026.469
 281  2808.918
 282  3527.546
 283  3927.116
 284  3232.545
 285  2944.033
 286  2010.442
 287  2290.828
 288  2924.545
 289  3134.902
 290  3493.538
 291  3243.887
 292  3548.812
 293  2664.68
 294  2250.695
 295  2401.259
 296  2445.956
 297  3393.204
 298  4148.277
 299  4647.857
 300  4762.496
 301  5316.338
 302  4564.035
 303  4129.769
 304  3479.743
 305  3327.598
 306  3743.796
 307  3163.248
 308  3236.86
 309  2979.912
 310  2639.531
 311  2385.214
 312  2284.685
 313  2707.792
 314  3240.522
 315  3863.055
 316  3664.423
 317  3232.489
 318  3154.306
 319  2654.832
 320  2795.12
 321  3412.672
 322  4057.012
 323  3739.393
 324  3676.503
 325  3464.861
 326  2785.206
 327  2656.253
 328  2572.782
 329  3075.643
 330  3370.536
 331  3978.937
 332  3679.755
 333  3459.249
 334  3636.331
 335  3293.951
 336  3397.589
 337  2775.209
 338  3583.343
 339  3820.59
 340  3672.197
 341  3866.545
 342  3627.802
 343  3351.339
 344  2692.932
 345  2524.502
 346  2288.845
 347  3340.964
 348  4194.733
 349  3411.84
 350  3831.075
 351  2889.176
 352  2484.999
 353  2455.074
 354  2914.544
 355  3601.826
 356  3285.891
 357  3766.987
 358  3184.591
 359  2944.398
 360  2525.896
 361  2205.505
 362  2152.442
 363  2635.312
 364  3758.792
 365  3610.032
 366  3718.626
 367  2907.037
 368  3040.495
 369  2499.617
 370  2973.105
 371  3423.974
 372  3102.302
 373  3887.086
 374  3265.188
 375  2855.307
 376  2322.056
 377  2236.294
 378  2295.086
 379  2544.942
 380  3127.085
 381  3391.002
 382  3508.761
 383  3095.499
 384  3566.452
 385  3183.96
 386  3651.74
 387  3712.951
 388  3631.604
 389  4114.259
 390  3334.417
 391  3126.305
 392  2418.262
 393  2453.889
 394  2551.466
 395  2501.416
 396  3205.385
 397  3664.19
 398  3722.756
 399  3344.502
 400  3472.378
 401  3281.643
 402  3029.311
 403  2847.422
 404  3420.717
 405  3728.789
 406  3914.606
 407  3966.004
 408  3343.054
 409  3279.802
 410  3130.133
 411  2522.201
 412  2921.985
 413  3400.944
 414  3789.717
 415  3669.837
 416  3734.836
 417  3994.438
 418  3162.756
 419  2881.027
 420  3324.016
 421  3557.836
 422  3700.164
 423  3596.935
 424  4148.797
 425  3726.802
 426  2791.53
 427  1866.742
 428  2103.432
 429  2799.682
 430  3578.605
 431  3633.015
 432  3054.438
 433  3530.296
 434  2401.01
 435  2187.947
 436  2709.198
 437  3057.984
 438  3763.169
 439  3219.087
 440  3819.394
 441  3163.708
 442  2642.663
 443  2190.884
 444  2443.607
 445  2212.1
 446  3085.492
 447  3672.221
 448  2894.489
 449  2940.848
 450  2534.612
 451  3039.781
 452  2932.32
 453  3358.086
 454  3954.973
 455  3461.149
 456  3707.982
 457  3105.044
 458  3179.63
 459  2892.557
 460  2600.271
 461  2467.783
 462  2926.77
 463  3751.756
 464  3907.087
 465  3894.04
 466  3102.271
 467  3837.609
 468  3071.843
 469  3131.245
 470  3760.054
 471  3724.986
 472  4341.439
 473  4008.066
 474  3678.219
 475  3428.892
 476  3430.472
 477  3230.691
 478  3132.94
 479  3947.09
 480  4777.061
 481  4301.399
 482  3773.298
 483  3702.118
 484  3447.235
 485  3385.791
 486  4151.502
 487  4294.374
 488  4399.666
 489  4528.765
 490  4084.187
 491  3409.684
 492  2964.062
 493  2782.909
 494  2449.322
 495  3295.215
 496  3946.457
 497  4125.812
 498  4714.911
 499  3590.924
 500  3594.753
 501  3035.237
 502  3045.844
 503  3574.079
 504  4000.747
 505  4431.958
 506  4112.565
 507  3710.044
 508  2685.885
 509  2458.125
 510  2074.729
 511  2386.489
