# Input file       =  1209977319.111644_cleaned.dat
# Candidate        =  PSR_0332+5434
# Telescope        =  AR
# Epoch_topo       =  58248.367339255143
# Epoch_bary       =  N/A
# T_sample         =  0.002
# Data Folded      =  7340032
# Data Avg         =  0.163545666074372
# Data StdDev      =  4.51661231059631 
# Profile Bins     =  512
# Profile Avg      =  2344.64910655842 
# Profile StdDev   =  540.787706084378 
# Reduced chi-sqr  =  1.032
# Prob(Noise)      <  0.299   (~0.5 sigma)
# P_topo (ms)      =  714.538057844581  +/- 0.000527
# P'_topo (s/s)    =  -0                +/- 2.78e-10
# P''_topo (s/s^2) =  0                 +/- 1.23e-13
# P_bary (ms)      =  N/A
# P'_bary (s/s)    =  N/A
# P''_bary (s/s^2) =  N/A
# P_orb (s)        =  N/A
# asin(i)/c (s)    =  N/A
# eccentricity     =  N/A
# w (rad)          =  N/A
# T_peri           =  N/A
######################################################
   0  2050.934
   1  1952.456
   2  1799.169
   3  1892.467
   4  2053.601
   5  2405.284
   6  2525.358
   7  2334.18
   8  2606.925
   9  2404.887
  10  2198.848
  11  2199.772
  12  2293.756
  13  2261.377
  14  2253.064
  15  2018.649
  16  2275.625
  17  2195.591
  18  2262.53
  19  2438.871
  20  2226.801
  21  2379.098
  22  2290.634
  23  2315.775
  24  1992.044
  25  2129.092
  26  1812.684
  27  2076.809
  28  2105.473
  29  2250.187
  30  1808.233
  31  1664.769
  32  2078.676
  33  2216.463
  34  1969.426
  35  1942.508
  36  2167.657
  37  2044.88
  38  2069.958
  39  1823.466
  40  2075.649
  41  2408.058
  42  2032.426
  43  1833.982
  44  1900.561
  45  2166.548
  46  2176.671
  47  2106.619
  48  2412.603
  49  2430.786
  50  2415.976
  51  2254.799
  52  2321.301
  53  2276.146
  54  2244.484
  55  1984.925
  56  1844.824
  57  1868.204
  58  1972.715
  59  1872.149
  60  2214.443
  61  2322.732
  62  2424.609
  63  2294.885
  64  2258.03
  65  2715.406
  66  2336.398
  67  2101.658
  68  2425.308
  69  2560.426
  70  2342.97
  71  2116.858
  72  2326.368
  73  2297.254
  74  2156.359
  75  2149.85
  76  2301.746
  77  2442.986
  78  2507.107
  79  2240.218
  80  2152.359
  81  2155.803
  82  2029.006
  83  2060.643
  84  2503.414
  85  2320.598
  86  2644.434
  87  2744.883
  88  2435.136
  89  2378.835
  90  2538.815
  91  2432.567
  92  2530.36
  93  2777.586
  94  2716.714
  95  2630.12
  96  2618.38
  97  2846.107
  98  2348.995
  99  2675.51
 100  2824.672
 101  2349.679
 102  2665.016
 103  2792.248
 104  2771.682
 105  2571.352
 106  2553.773
 107  3102.444
 108  3239.351
 109  3535.491
 110  4072.347
 111  4687.879
 112  5060.672
 113  4930.207
 114  4451.791
 115  4290.757
 116  3288.238
 117  2804.942
 118  2928.086
 119  2798.565
 120  2427.805
 121  2173.121
 122  2159.478
 123  2541.629
 124  2690.241
 125  2690.102
 126  2471.858
 127  2517.457
 128  2507.085
 129  2527.321
 130  2166.521
 131  1843.305
 132  1920.731
 133  2101.719
 134  2504.346
 135  2509.946
 136  2444.125
 137  2234.789
 138  2251.209
 139  2116.917
 140  2336.802
 141  2488.199
 142  2522.327
 143  2423.586
 144  2233.384
 145  2243.471
 146  2203.442
 147  2561.111
 148  2615.151
 149  2535.596
 150  2364.153
 151  2536.359
 152  2708.783
 153  2860.35
 154  2609.607
 155  2513.083
 156  2581.564
 157  2517.432
 158  2423.645
 159  2568.154
 160  2430.971
 161  2408.102
 162  2648.147
 163  2877.756
 164  2873.182
 165  2873.304
 166  3155.571
 167  2578.036
 168  2779.61
 169  3020.097
 170  2865.685
 171  3244.75
 172  3002.446
 173  3033.629
 174  3133.76
 175  2731.623
 176  2488.241
 177  2847.382
 178  3150.024
 179  3398.282
 180  3063.202
 181  2967.804
 182  2578.023
 183  2645.477
 184  2626.736
 185  2818.385
 186  3046.68
 187  3006.804
 188  2824.551
 189  2504.962
 190  2690.257
 191  2730.133
 192  2544.501
 193  2545.991
 194  2522.925
 195  2453.724
 196  2177.267
 197  2236.891
 198  2441.386
 199  2262.258
 200  2071.531
 201  2352.058
 202  2454.384
 203  2446.43
 204  2223.5
 205  2206.454
 206  2324.077
 207  2091.504
 208  2170.17
 209  2189.253
 210  2014.94
 211  1891.806
 212  1753.466
 213  1868.155
 214  1904.456
 215  1640.973
 216  1715.236
 217  1732.312
 218  1754.615
 219  1883.612
 220  2032.443
 221  2021.282
 222  2206.641
 223  2203.64
 224  1956.452
 225  2060.137
 226  2381.567
 227  2441.983
 228  2500.006
 229  2460.119
 230  2620.393
 231  2197.322
 232  2159.173
 233  1930.954
 234  1945.77
 235  2084.031
 236  2249.603
 237  2332.919
 238  2287.178
 239  2171.655
 240  2080.744
 241  1931.993
 242  1846.719
 243  1774.172
 244  1836.071
 245  1995.896
 246  2042.249
 247  2234.431
 248  2487.902
 249  2395.394
 250  2157.8
 251  2171.806
 252  2240.425
 253  2121.01
 254  2229.801
 255  2264.251
 256  2332.554
 257  2342.382
 258  2424.761
 259  2464.122
 260  2431.083
 261  2481.312
 262  2359.441
 263  2312.134
 264  2188.126
 265  2247.828
 266  2080.67
 267  2542.753
 268  2447.516
 269  2243.402
 270  2157.301
 271  2073.378
 272  2506.783
 273  2439.538
 274  2427.169
 275  2488.835
 276  2348.142
 277  2130.835
 278  1858.385
 279  2211.16
 280  2125.839
 281  2039.803
 282  2353.771
 283  2383.503
 284  2153.073
 285  1944.171
 286  1855.532
 287  1431.415
 288  2061.268
 289  2433.19
 290  2070.627
 291  2125.611
 292  2172.258
 293  2077.336
 294  2277.693
 295  2394.87
 296  2300.816
 297  2120.959
 298  1954.804
 299  1800.029
 300  1816.546
 301  1742.297
 302  1794.671
 303  2242.871
 304  2478.725
 305  2309.716
 306  1946.099
 307  2133.008
 308  2376.5
 309  2370.874
 310  2454.987
 311  2317.203
 312  2278.952
 313  2269.774
 314  2399.437
 315  2299.488
 316  2383.319
 317  2072.778
 318  1984.614
 319  1823.258
 320  1990.276
 321  2379.468
 322  2056.173
 323  1671.475
 324  1749.253
 325  1764.842
 326  1660.732
 327  1892.035
 328  2070.237
 329  1962.177
 330  1816.013
 331  1790.686
 332  2039.819
 333  2155.068
 334  2473.048
 335  2245.289
 336  2087.01
 337  2401.707
 338  2423.232
 339  2246.394
 340  2021.446
 341  2148.106
 342  2015.64
 343  1906.844
 344  2206.629
 345  1938.332
 346  1984.82
 347  1763.283
 348  1570.665
 349  1933.853
 350  1935.579
 351  1938.547
 352  2130.153
 353  2299.721
 354  2404.749
 355  2273.076
 356  2427.672
 357  2340.237
 358  2363.382
 359  2391.473
 360  2175.647
 361  2054.743
 362  2046.97
 363  1926.778
 364  2026.877
 365  1946.92
 366  2086.374
 367  2413.967
 368  2325.906
 369  2355.702
 370  2529.841
 371  2410.385
 372  2373.443
 373  2345.264
 374  2513.869
 375  2324.392
 376  2597.952
 377  2342.946
 378  2473.242
 379  2512.894
 380  2477.403
 381  2439.831
 382  2349.351
 383  2713.382
 384  2795.109
 385  2636.667
 386  2801.541
 387  2642.39
 388  2532.444
 389  2336.758
 390  2705.926
 391  2593.922
 392  2604.115
 393  2740.581
 394  2643.003
 395  2502.358
 396  2497.418
 397  2543.991
 398  2398.233
 399  2791.573
 400  2405.518
 401  2191.703
 402  2240.201
 403  2018.728
 404  2153.002
 405  2374.999
 406  2285.149
 407  2421.188
 408  2344.562
 409  2706.934
 410  2406.843
 411  2309.397
 412  2788.147
 413  2616.545
 414  2457.298
 415  2641.593
 416  2532.051
 417  2402.608
 418  2382.066
 419  2590.047
 420  2464.476
 421  2319.315
 422  2376.345
 423  2593.878
 424  2180.17
 425  2379.968
 426  2608.149
 427  2779.545
 428  2885.533
 429  2914.634
 430  2698.038
 431  2846.617
 432  2636.003
 433  2785.585
 434  2708.615
 435  2506.794
 436  2607.806
 437  2960.279
 438  2868.525
 439  2457.862
 440  2496.143
 441  2456.441
 442  2123.598
 443  2164.873
 444  2392.35
 445  2368.497
 446  2280.588
 447  2195.661
 448  2166.315
 449  1964.876
 450  2155.696
 451  2051.947
 452  2148.309
 453  2267.587
 454  2331.005
 455  2132.231
 456  2320.039
 457  2513.74
 458  2484
 459  2419.411
 460  2425.586
 461  2653.349
 462  2477.334
 463  2225.671
 464  2350.665
 465  2173.13
 466  2244.782
 467  2189.878
 468  2126.176
 469  2303.708
 470  2501.256
 471  2686.267
 472  2503.108
 473  2222.957
 474  2581.597
 475  2408.779
 476  2720.089
 477  2641.395
 478  2708.323
 479  2657.411
 480  2345.458
 481  2248.951
 482  2546.738
 483  2261.122
 484  2105.496
 485  1940.755
 486  2081.758
 487  1745.89
 488  1653.663
 489  1917.271
 490  2009.067
 491  2108.664
 492  1966.22
 493  1791.964
 494  2217.953
 495  2030.417
 496  1792.954
 497  2053.229
 498  2222.742
 499  2202.704
 500  2257.983
 501  2232.185
 502  2058.742
 503  2241.909
 504  1975.99
 505  2058.501
 506  2145.849
 507  1948.758
 508  1857.912
 509  1795.738
 510  2045.289
 511  2206.65
