# Input file       =  1209977319.111644_cleaned.dat
# Candidate        =  PSR_0332+5434
# Telescope        =  AR
# Epoch_topo       =  58248.367339255143
# Epoch_bary       =  N/A
# T_sample         =  0.002
# Data Folded      =  7340032
# Data Avg         =  0.163545666074372
# Data StdDev      =  4.51661231059631 
# Profile Bins     =  512
# Profile Avg      =  2344.64910658251 
# Profile StdDev   =  540.787706084378 
# Reduced chi-sqr  =  1.032
# Prob(Noise)      <  0.3   (~0.5 sigma)
# P_topo (ms)      =  714.538058080259  +/- 0.000525
# P'_topo (s/s)    =  -0                +/- 2.77e-10
# P''_topo (s/s^2) =  0                 +/- 1.22e-13
# P_bary (ms)      =  N/A
# P'_bary (s/s)    =  N/A
# P''_bary (s/s^2) =  N/A
# P_orb (s)        =  N/A
# asin(i)/c (s)    =  N/A
# eccentricity     =  N/A
# w (rad)          =  N/A
# T_peri           =  N/A
######################################################
   0  1800.293
   1  1706.572
   2  1670.479
   3  1960.05
   4  2060.548
   5  1939.238
   6  1773.604
   7  1851.43
   8  2058.902
   9  2251.256
  10  2453.965
  11  2183.164
  12  2117.326
  13  2442.173
  14  2382.996
  15  2221.6
  16  2015.884
  17  2149.81
  18  1947.022
  19  1972.645
  20  2186.061
  21  1922.029
  22  1968.992
  23  1697.094
  24  1613.599
  25  1992.148
  26  1897.646
  27  1959.059
  28  2170.83
  29  2360.205
  30  2377.464
  31  2268.807
  32  2434.711
  33  2318.518
  34  2409.177
  35  2368.646
  36  2131.689
  37  2050.017
  38  2010.31
  39  1941.794
  40  2028.025
  41  1932.592
  42  2167.939
  43  2416.513
  44  2342.546
  45  2374.181
  46  2525.61
  47  2358.376
  48  2391.745
  49  2375.17
  50  2484.322
  51  2333.04
  52  2604.966
  53  2346.93
  54  2509.222
  55  2459.542
  56  2500.043
  57  2384.05
  58  2415.009
  59  2804.521
  60  2744.768
  61  2676.946
  62  2773.383
  63  2605.124
  64  2487.292
  65  2370.805
  66  2736.302
  67  2549.07
  68  2661.869
  69  2722.621
  70  2631.409
  71  2462.992
  72  2551.849
  73  2474.083
  74  2489.48
  75  2768.481
  76  2313.107
  77  2218.617
  78  2175.114
  79  2001.48
  80  2243.25
  81  2378.398
  82  2282.735
  83  2413.169
  84  2395.504
  85  2694.618
  86  2352.901
  87  2374.848
  88  2848.792
  89  2522.793
  90  2539.793
  91  2595.136
  92  2517.73
  93  2369.351
  94  2422.722
  95  2583.625
  96  2464.591
  97  2238.285
  98  2512.511
  99  2464.209
 100  2221.269
 101  2406.57
 102  2660.74
 103  2787.812
 104  2902.23
 105  2889.631
 106  2704.767
 107  2874.845
 108  2583.588
 109  2816.694
 110  2641.567
 111  2535.881
 112  2640.907
 113  3023.587
 114  2746.299
 115  2440.94
 116  2506.297
 117  2414.289
 118  2098.49
 119  2210.117
 120  2407.599
 121  2361.719
 122  2219.348
 123  2246.524
 124  2093.743
 125  2002.036
 126  2120.492
 127  2075.627
 128  2152.574
 129  2308.456
 130  2289.047
 131  2153.065
 132  2350.037
 133  2552.677
 134  2448.062
 135  2415.151
 136  2472.789
 137  2651.446
 138  2425.348
 139  2226.535
 140  2331.405
 141  2168.645
 142  2257.399
 143  2169.094
 144  2124.386
 145  2317.75
 146  2562.841
 147  2695.179
 148  2421.035
 149  2278.151
 150  2597.048
 151  2412.8
 152  2744.721
 153  2607.925
 154  2749.733
 155  2594.491
 156  2292.928
 157  2329.178
 158  2521.746
 159  2215.32
 160  2033.821
 161  1996.481
 162  2018.654
 163  1674.088
 164  1726.927
 165  1946.16
 166  2036.265
 167  2116.614
 168  1869.751
 169  1892.683
 170  2232.991
 171  1949.077
 172  1802.763
 173  2095.049
 174  2243.038
 175  2210.918
 176  2285.444
 177  2180.177
 178  2103.331
 179  2190.47
 180  1959.711
 181  2098.265
 182  2114.876
 183  1909.87
 184  1849.994
 185  1813.697
 186  2142.199
 187  2148.785
 188  2034.213
 189  1925.649
 190  1772.197
 191  1967.265
 192  2070.34
 193  2500.846
 194  2465.247
 195  2374.961
 196  2610.789
 197  2343.741
 198  2162.857
 199  2239.749
 200  2268.12
 201  2295.098
 202  2175.571
 203  2070.447
 204  2294.559
 205  2175.988
 206  2316.104
 207  2409.288
 208  2185.62
 209  2437.429
 210  2287.219
 211  2254.394
 212  1985.117
 213  2108.848
 214  1816.687
 215  2096.235
 216  2160.279
 217  2169.281
 218  1760.022
 219  1673.212
 220  2203.292
 221  2127.169
 222  1969.091
 223  1966.215
 224  2212.019
 225  1976.528
 226  2048.969
 227  1801.454
 228  2194.697
 229  2383.411
 230  1979.706
 231  1808.717
 232  1949.765
 233  2216.438
 234  2134.955
 235  2162.228
 236  2426.734
 237  2455.303
 238  2368.307
 239  2270.098
 240  2296.467
 241  2297.98
 242  2169.665
 243  1943.45
 244  1829.647
 245  1926.631
 246  1941.194
 247  1928.909
 248  2241.514
 249  2331.036
 250  2406.186
 251  2275.804
 252  2349.86
 253  2734.886
 254  2215.781
 255  2124.809
 256  2495.279
 257  2530.91
 258  2261.683
 259  2152.29
 260  2364.926
 261  2257.156
 262  2156.385
 263  2149.448
 264  2350.372
 265  2465.707
 266  2461.714
 267  2204.985
 268  2163.248
 269  2125.66
 270  2012.017
 271  2153.928
 272  2493.175
 273  2346.07
 274  2711.871
 275  2719.001
 276  2364.414
 277  2412.278
 278  2549.18
 279  2404.65
 280  2602.769
 281  2770.664
 282  2707.126
 283  2602.042
 284  2691.737
 285  2751.57
 286  2333.157
 287  2800.205
 288  2714.183
 289  2362.022
 290  2736.94
 291  2785.741
 292  2769.001
 293  2504.324
 294  2623.888
 295  3171.438
 296  3267.911
 297  3658.419
 298  4202.542
 299  4821.36
 300  5039.649
 301  4824.039
 302  4436.592
 303  4122.858
 304  3122.286
 305  2790.862
 306  2965.807
 307  2729.905
 308  2350.726
 309  2158.286
 310  2194.139
 311  2597.567
 312  2719.86
 313  2650.882
 314  2453.341
 315  2519.187
 316  2505.846
 317  2498.879
 318  2056.714
 319  1851.971
 320  1939.241
 321  2203.373
 322  2561.18
 323  2465.757
 324  2398.181
 325  2218.752
 326  2233.719
 327  2145.958
 328  2384.32
 329  2492.576
 330  2521.284
 331  2360.681
 332  2264.894
 333  2183.79
 334  2272.233
 335  2600.54
 336  2635.384
 337  2481.961
 338  2399.567
 339  2511.005
 340  2804.947
 341  2816.447
 342  2581.896
 343  2519.469
 344  2573.228
 345  2494.802
 346  2450.988
 347  2540.339
 348  2419.695
 349  2427.995
 350  2725.242
 351  2889.488
 352  2838.168
 353  2953.832
 354  3070.607
 355  2545.124
 356  2853.525
 357  3015.706
 358  2899.457
 359  3287.764
 360  2933.22
 361  3067.668
 362  3098.182
 363  2632.101
 364  2538.458
 365  2924.271
 366  3225.87
 367  3356.442
 368  3011.007
 369  2909.249
 370  2529.871
 371  2671.481
 372  2648.915
 373  2876.519
 374  3061.839
 375  2977.006
 376  2774.073
 377  2479.092
 378  2730.129
 379  2682.302
 380  2556.298
 381  2542.82
 382  2505.954
 383  2376.546
 384  2179.81
 385  2285.098
 386  2478.859
 387  2175.501
 388  2088.24
 389  2402.147
 390  2433.029
 391  2441.483
 392  2188.844
 393  2244.111
 394  2290.409
 395  2061.662
 396  2203.383
 397  2161.978
 398  1992.058
 399  1888.939
 400  1708.708
 401  1923.712
 402  1850.094
 403  1621.693
 404  1759.84
 405  1722.194
 406  1761.538
 407  1926.869
 408  2041.256
 409  2047.877
 410  2224.684
 411  2144.451
 412  1925.16
 413  2144.529
 414  2422.712
 415  2446.162
 416  2498.311
 417  2472.15
 418  2627.446
 419  2102.955
 420  2158.233
 421  1858.317
 422  2010.502
 423  2112.959
 424  2283.577
 425  2322.198
 426  2261.132
 427  2156.706
 428  2048.072
 429  1882.833
 430  1849.778
 431  1778.408
 432  1870.554
 433  2010.709
 434  2070.24
 435  2299.605
 436  2492.786
 437  2358.111
 438  2130.778
 439  2170.337
 440  2260.816
 441  2090.634
 442  2289.608
 443  2240.393
 444  2364.976
 445  2332.223
 446  2452.905
 447  2468.711
 448  2425.618
 449  2449.404
 450  2364.585
 451  2277.743
 452  2229.51
 453  2181.637
 454  2141.654
 455  2610.161
 456  2348.778
 457  2233.852
 458  2087.41
 459  2173.102
 460  2546.752
 461  2414.361
 462  2430.458
 463  2477.715
 464  2316.034
 465  2061.226
 466  1872.751
 467  2279.314
 468  2064.232
 469  2100.75
 470  2380.346
 471  2365.13
 472  2076.075
 473  1955.333
 474  1745.12
 475  1484.662
 476  2217.846
 477  2395.039
 478  2024.629
 479  2145.587
 480  2145.838
 481  2088.961
 482  2353.914
 483  2380.054
 484  2266.7
 485  2080.767
 486  1888.254
 487  1816.798
 488  1804.823
 489  1743.745
 490  1837.641
 491  2349.624
 492  2483.417
 493  2236.84
 494  1905.068
 495  2197.125
 496  2399.734
 497  2390.11
 498  2469.097
 499  2252.915
 500  2272.493
 501  2309.786
 502  2373.781
 503  2358.132
 504  2311.229
 505  2035.85
 506  1951.257
 507  1830.893
 508  2079.719
 509  2379.796
 510  1941.181
 511  1657.972
