# Input file       =  1209819896.111669-PSRB0329-2ms-sampling-dd.dat
# Candidate        =  PSR_0332+5434
# Telescope        =  AR
# Epoch_topo       =  58246.545313792463
# Epoch_bary       =  N/A
# T_sample         =  0.002
# Data Folded      =  7340032
# Data Avg         =  6.05022019988973e-10
# Data StdDev      =  8.39948909052247 
# Profile Bins     =  512
# Profile Avg      =  0.492875107578384
# Profile StdDev   =  1005.69633282178 
# Reduced chi-sqr  =  0.439
# Prob(Noise)      <  1   (~0.0 sigma)
# P_topo (ms)      =  714.540119413523  +/- 0.000599
# P'_topo (s/s)    =  -0                +/- 3.16e-10
# P''_topo (s/s^2) =  0                 +/- 1.39e-13
# P_bary (ms)      =  N/A
# P'_bary (s/s)    =  N/A
# P''_bary (s/s^2) =  N/A
# P_orb (s)        =  N/A
# asin(i)/c (s)    =  N/A
# eccentricity     =  N/A
# w (rad)          =  N/A
# T_peri           =  N/A
######################################################
   0  -629.156
   1  -346.8154
   2  -230.3957
   3  361.9673
   4  445.4315
   5  242.6903
   6  -25.55475
   7  -158.2521
   8  -23.41223
   9  -219.7309
  10  116.1555
  11  280.5287
  12  -118.1573
  13  -61.33289
  14  10.83724
  15  297.3929
  16  343.238
  17  248.9324
  18  712.085
  19  796.2739
  20  1049.667
  21  1359.265
  22  738.3898
  23  686.7645
  24  738.1113
  25  297.7066
  26  725.0039
  27  1231.638
  28  986.8112
  29  482.092
  30  264.7772
  31  127.0061
  32  218.9659
  33  205.0939
  34  245.2269
  35  770.626
  36  865.4289
  37  987.8371
  38  947.629
  39  552.4872
  40  161.4455
  41  -212.5967
  42  41.12999
  43  387.4786
  44  460.5796
  45  623.7231
  46  362.3605
  47  308.4586
  48  504.6581
  49  631.8388
  50  429.7428
  51  618.981
  52  565.9401
  53  784.2069
  54  735.684
  55  724.7657
  56  750.5356
  57  646.6516
  58  440.5686
  59  579.5295
  60  602.4876
  61  331.0749
  62  566.8411
  63  780.3154
  64  493.5264
  65  46.10587
  66  106.3386
  67  251.9166
  68  300.6767
  69  757.3941
  70  829.728
  71  425.5949
  72  -264.8501
  73  -367.1196
  74  -108.1213
  75  -261.9373
  76  64.01909
  77  254.2836
  78  11.83971
  79  -381.0937
  80  -458.3896
  81  -473.3069
  82  -609.9586
  83  -540.7794
  84  108.7016
  85  145.3624
  86  -12.62194
  87  -244.4275
  88  -273.5667
  89  -364.4978
  90  -496.8437
  91  -818.462
  92  -798.0333
  93  -421.1287
  94  -490.4222
  95  -701.0523
  96  -586.0809
  97  -441.1352
  98  -738.0583
  99  -1098.76
 100  -1097.879
 101  -775.9736
 102  -621.3231
 103  -601.5117
 104  -175.0468
 105  20.55477
 106  -455.4716
 107  -424.0374
 108  -8.910158
 109  201.8551
 110  498.816
 111  811.2268
 112  1115.12
 113  1576.229
 114  1428.1
 115  1086.24
 116  524.2688
 117  187.8842
 118  137.6327
 119  465.0792
 120  103.7744
 121  150.8822
 122  185.955
 123  4.655171
 124  392.2756
 125  539.9731
 126  284.204
 127  279.8133
 128  946.3113
 129  504.1706
 130  358.942
 131  286.651
 132  -67.9912
 133  -165.567
 134  -139.8946
 135  154.7209
 136  -191.7127
 137  -457.7155
 138  93.48428
 139  211.5107
 140  -118.5338
 141  -352.9384
 142  -346.8543
 143  -695.293
 144  -370.4814
 145  -492.4611
 146  -553.6887
 147  -300.1601
 148  -323.4372
 149  -472.7567
 150  -846.9653
 151  -229.9942
 152  138.9984
 153  356.2041
 154  209.289
 155  290.7802
 156  -6.720108
 157  -73.93414
 158  65.06995
 159  221.3869
 160  480.443
 161  475.8271
 162  375.4919
 163  483.8847
 164  627.9978
 165  858.4202
 166  582.637
 167  756.8804
 168  968.4047
 169  944.1821
 170  1090.068
 171  1412.971
 172  715.8421
 173  329.9733
 174  303.8854
 175  281.3991
 176  21.12488
 177  -243.19
 178  -268.124
 179  -348.6522
 180  -300.5769
 181  -244.6615
 182  -393.2268
 183  -552.4769
 184  -378.7382
 185  -350.9082
 186  -613.6241
 187  -578.3624
 188  -531.3028
 189  -828.9583
 190  -876.0365
 191  -841.4295
 192  -1197.645
 193  -1035.355
 194  -652.0464
 195  -1065.668
 196  -957.6857
 197  -482.9587
 198  -313.8007
 199  -254.1087
 200  -348.513
 201  -864.8535
 202  -650.9297
 203  -327.4796
 204  -41.56801
 205  339.7732
 206  2.411068
 207  -389.668
 208  -371.5779
 209  -638.2199
 210  -703.5128
 211  -709.5004
 212  -707.9177
 213  -40.0112
 214  279.3179
 215  -179.6003
 216  -579.0758
 217  -289.4445
 218  -117.5275
 219  -92.89719
 220  347.7141
 221  827.7718
 222  907.0527
 223  663.3704
 224  474.8539
 225  211.6823
 226  191.0824
 227  236.803
 228  363.7257
 229  834.4156
 230  548.3231
 231  152.4722
 232  96.86662
 233  86.79407
 234  49.84887
 235  165.0298
 236  18.93443
 237  180.8124
 238  195.8618
 239  122.214
 240  -288.8247
 241  -351.4982
 242  -384.8498
 243  -249.9411
 244  -155.6636
 245  -639.9307
 246  -788.4288
 247  -618.5549
 248  -419.221
 249  -386.2796
 250  -472.9581
 251  -452.7262
 252  -473.5341
 253  -749.0782
 254  -531.8954
 255  -155.5559
 256  -30.65474
 257  -215.5891
 258  -501.5892
 259  -338.7652
 260  -633.7054
 261  -796.2377
 262  -962.0651
 263  -1022.083
 264  -838.6814
 265  -605.1641
 266  -622.8202
 267  -892.015
 268  -594.2028
 269  -351.6989
 270  -121.2243
 271  167.8578
 272  18.76287
 273  -32.45581
 274  -149.2036
 275  99.22329
 276  254.4282
 277  -69.05311
 278  21.79056
 279  61.4849
 280  291.0684
 281  354.8233
 282  40.30273
 283  129.3476
 284  182.344
 285  -166.7346
 286  -268.2358
 287  234.5244
 288  -127.1322
 289  220.5027
 290  442.2044
 291  522.5314
 292  322.8657
 293  30.45007
 294  -26.28384
 295  -106.452
 296  45.80561
 297  195.8869
 298  -24.11315
 299  -111.8302
 300  -115.5753
 301  -233.6013
 302  -33.35336
 303  79.43179
 304  252.0373
 305  198.8371
 306  222.5235
 307  -66.68797
 308  66.68908
 309  380.0639
 310  725.6696
 311  686.53
 312  503.7672
 313  246.662
 314  105.1631
 315  103.9738
 316  534.3564
 317  803.4036
 318  1094.433
 319  1126.606
 320  853.1266
 321  526.6641
 322  710.5929
 323  746.9466
 324  314.1095
 325  548.1523
 326  360.2438
 327  211.1445
 328  177.1445
 329  160.2727
 330  169.1844
 331  21.16561
 332  218.7166
 333  247.8338
 334  218.2197
 335  755.5245
 336  175.6154
 337  -362.9065
 338  6.493721
 339  210.8305
 340  275.8535
 341  93.24191
 342  -23.47133
 343  -463.5526
 344  -393.9996
 345  -549.1119
 346  -12.69865
 347  -59.8641
 348  -307.323
 349  -100.3645
 350  37.09147
 351  -112.7658
 352  275.5281
 353  626.2896
 354  695.3544
 355  1049.135
 356  215.2188
 357  34.4012
 358  -477.9449
 359  -149.0487
 360  222.1478
 361  127.2116
 362  798.504
 363  543.8298
 364  131.6074
 365  168.101
 366  745.3624
 367  643.1211
 368  362.1046
 369  338.7101
 370  11.58842
 371  -66.89272
 372  68.25036
 373  392.2695
 374  224.0223
 375  244.5857
 376  -241.1905
 377  -174.6212
 378  -169.6182
 379  -508.5819
 380  -247.208
 381  157.9059
 382  334.8414
 383  -213.0722
 384  -80.15022
 385  217.7729
 386  -58.8539
 387  110.7067
 388  92.70608
 389  594.0667
 390  670.2805
 391  258.9103
 392  229.8342
 393  221.7679
 394  -32.59757
 395  -39.42899
 396  -393.8911
 397  21.03049
 398  -176.7957
 399  -637.9514
 400  -801.7494
 401  -884.2078
 402  -851.4473
 403  -1028.667
 404  -758.9252
 405  -347.8956
 406  -538.2439
 407  -271.8703
 408  -316.058
 409  -548.094
 410  -600.1397
 411  -539.0821
 412  -300.0402
 413  -154.4354
 414  -145.2178
 415  -217.5899
 416  -245.6712
 417  257.8379
 418  264.7863
 419  262.3278
 420  -0.8143288
 421  -447.4492
 422  -239.0909
 423  -125.1171
 424  -50.37624
 425  48.93135
 426  -58.4501
 427  -296.2848
 428  -702.0027
 429  -898.3839
 430  -685.6051
 431  -97.55483
 432  256.788
 433  36.87017
 434  -202.9186
 435  -75.38256
 436  -23.33023
 437  -390.2287
 438  -351.2446
 439  95.47176
 440  84.00101
 441  -261.5726
 442  -360.4546
 443  -357.9429
 444  -542.7922
 445  -537.6028
 446  -310.7977
 447  -96.63928
 448  -109.3438
 449  -334.1018
 450  -460.2312
 451  -874.4943
 452  -895.8859
 453  -629.9532
 454  -684.9207
 455  -570.6075
 456  155.2068
 457  368.7152
 458  147.6017
 459  72.67354
 460  -171.7289
 461  30.50218
 462  -239.8076
 463  -238.7638
 464  -209.513
 465  -209.0796
 466  -17.29071
 467  -55.1969
 468  -270.4933
 469  -763.8885
 470  -371.5331
 471  -443.2008
 472  -198.3412
 473  -598.0813
 474  -635.277
 475  27.69772
 476  -135.2245
 477  20.45436
 478  -39.31403
 479  -203.3101
 480  173.1268
 481  27.55322
 482  -56.05651
 483  -105.7917
 484  -505.2171
 485  -707.1088
 486  -537.9283
 487  -327.2682
 488  -552.062
 489  -433.0892
 490  187.496
 491  514.0524
 492  -165.7971
 493  -200.5588
 494  203.0156
 495  258.3261
 496  420.831
 497  361.5073
 498  507.038
 499  190.2106
 500  -127.3974
 501  -459.4628
 502  -113.4176
 503  -575.5557
 504  -924.8044
 505  -554.5048
 506  -114.3576
 507  -22.6325
 508  314.5216
 509  236.3614
 510  -69.81197
 511  -403.4405
