# Input file       =  1209891182.120269-PSRB0329-2ms-sampling-dd.dat
# Candidate        =  PSR_0332+5434
# Telescope        =  AR
# Epoch_topo       =  58247.370383336449
# Epoch_bary       =  N/A
# T_sample         =  0.002
# Data Folded      =  7340032
# Data Avg         =  -7.83249529021423e-10
# Data StdDev      =  5.73618496245101 
# Profile Bins     =  512
# Profile Avg      =  1.93773247124579 
# Profile StdDev   =  686.810842773006 
# Reduced chi-sqr  =  1.035
# Prob(Noise)      <  0.286   (~0.6 sigma)
# P_topo (ms)      =  714.539005865675  +/- 0.000892
# P'_topo (s/s)    =  -0                +/- 4.71e-10
# P''_topo (s/s^2) =  0                 +/- 2.08e-13
# P_bary (ms)      =  N/A
# P'_bary (s/s)    =  N/A
# P''_bary (s/s^2) =  N/A
# P_orb (s)        =  N/A
# asin(i)/c (s)    =  N/A
# eccentricity     =  N/A
# w (rad)          =  N/A
# T_peri           =  N/A
######################################################
   0  -712.6882
   1  -812.984
   2  -808.5635
   3  -634.0469
   4  -423.5518
   5  -417.4025
   6  -673.174
   7  -589.0648
   8  -536.5486
   9  -533.5368
  10  -503.7317
  11  -364.2911
  12  -530.8981
  13  -411.0349
  14  -257.2492
  15  -442.3652
  16  -368.7642
  17  111.9779
  18  -123.9264
  19  -474.9713
  20  -342.8103
  21  -294.4975
  22  -379.8667
  23  -248.1924
  24  -125.9048
  25  -420.9383
  26  -419.3666
  27  -433.7016
  28  -552.4449
  29  -115.4443
  30  -164.364
  31  -338.0592
  32  150.7189
  33  106.862
  34  -177.802
  35  -123.9653
  36  -32.24107
  37  15.24395
  38  -4.419921
  39  76.06573
  40  257.3332
  41  100.7087
  42  85.25079
  43  267.7235
  44  116.5091
  45  193.8085
  46  170.0765
  47  670.815
  48  651.8917
  49  699.363
  50  895.6599
  51  778.2633
  52  676.8248
  53  339.5081
  54  459.65
  55  721.4475
  56  699.0148
  57  700.4025
  58  634.0767
  59  591.0569
  60  359.998
  61  452.6089
  62  413.9521
  63  500.1624
  64  433.963
  65  116.012
  66  -2.551536
  67  332.0844
  68  735.1854
  69  849.6481
  70  594.8655
  71  517.4734
  72  500.7467
  73  209.5087
  74  350.8271
  75  456.6306
  76  668.8756
  77  616.6176
  78  545.2065
  79  480.5338
  80  170.3173
  81  176.0048
  82  225.2128
  83  17.59434
  84  340.8832
  85  1692.67
  86  2645.909
  87  2129.15
  88  1495.835
  89  1617.11
  90  907.0333
  91  94.83903
  92  1363.265
  93  1463.315
  94  1191.704
  95  1400.318
  96  1613.432
  97  803.9845
  98  140.1501
  99  111.4732
 100  98.4284
 101  321.61
 102  226.2051
 103  -69.36536
 104  192.1773
 105  217.2742
 106  124.1172
 107  -206.0054
 108  167.3116
 109  -217.1163
 110  -229.4225
 111  -73.17788
 112  43.2794
 113  -132.36
 114  154.8252
 115  52.82908
 116  -164.7299
 117  -0.7602281
 118  106.8148
 119  -268.7706
 120  -444.5908
 121  -17.10566
 122  413.8961
 123  336.7048
 124  402.6081
 125  81.09962
 126  -53.2566
 127  -85.42313
 128  239.1411
 129  145.8557
 130  176.3031
 131  355.8798
 132  -44.94204
 133  -221.2801
 134  -184.2193
 135  102.1202
 136  -81.66693
 137  76.86795
 138  271.1984
 139  403.5616
 140  190.6798
 141  297.4988
 142  724.9354
 143  923.5361
 144  1015.611
 145  1315.317
 146  1894.16
 147  2209.828
 148  2090.693
 149  1304.053
 150  683.1232
 151  346.544
 152  72.18293
 153  117.1543
 154  -453.5142
 155  -637.8161
 156  -422.397
 157  -439.2387
 158  -225.9617
 159  -93.84791
 160  -154.5754
 161  -292.2275
 162  -266.9522
 163  -391.8452
 164  -257.9658
 165  -379.2352
 166  -201.9432
 167  -230.0907
 168  -20.45286
 169  151.7299
 170  -104.6348
 171  -563.0763
 172  -514.5141
 173  -412.4218
 174  -155.4346
 175  -60.0174
 176  400.7995
 177  387.3212
 178  27.94173
 179  176.287
 180  -98.89817
 181  168.2469
 182  140.5208
 183  477.7994
 184  259.4737
 185  -62.8658
 186  283.19
 187  413.3216
 188  567.3222
 189  489.9797
 190  714.5518
 191  526.6172
 192  300.5287
 193  219.3803
 194  161.6307
 195  338.7455
 196  451.9238
 197  547.2256
 198  163.4344
 199  261.9805
 200  350.0051
 201  398.7494
 202  168.7122
 203  -35.21498
 204  3.130826
 205  96.98725
 206  361.0817
 207  82.72861
 208  -103.7307
 209  -221.7946
 210  -137.3788
 211  85.75136
 212  355.9929
 213  392.4344
 214  102.6904
 215  203.3359
 216  544.7321
 217  259.2394
 218  -138.6941
 219  147.6841
 220  348.312
 221  435.692
 222  24.56779
 223  151.4462
 224  267.6985
 225  337.3717
 226  236.7285
 227  122.0278
 228  281.5195
 229  -0.2748063
 230  156.3126
 231  100.1179
 232  120.784
 233  147.5532
 234  230.95
 235  -28.23935
 236  -48.55772
 237  159.964
 238  274.138
 239  173.8065
 240  -96.08854
 241  81.6718
 242  -188.4553
 243  -52.08195
 244  -75.33626
 245  211.0812
 246  94.45586
 247  -53.20019
 248  -81.24005
 249  -253.9857
 250  -52.18459
 251  -269.6888
 252  -6.997336
 253  108.5827
 254  9.795918
 255  -82.75158
 256  -55.71038
 257  57.87461
 258  16.65761
 259  -180.4888
 260  93.12762
 261  218.762
 262  336.0934
 263  203.442
 264  249.895
 265  108.4839
 266  59.12831
 267  -281.0902
 268  -506.3341
 269  -394.4692
 270  -121.9302
 271  7.865313
 272  32.68007
 273  114.4542
 274  -44.25376
 275  -295.0637
 276  -518.862
 277  -519.2905
 278  -612.3438
 279  -459.9789
 280  -168.502
 281  66.05649
 282  -260.5607
 283  -329.4374
 284  -756.4702
 285  -448.114
 286  -190.9411
 287  -221.7798
 288  -740.9784
 289  -850.2599
 290  -696.7528
 291  -612.0715
 292  -712.6581
 293  -715.6012
 294  -303.5095
 295  -260.1186
 296  -320.3155
 297  -556.6064
 298  -673.2895
 299  -443.8566
 300  -473.4095
 301  -495.0207
 302  -223.9144
 303  -381.3193
 304  -337.6276
 305  -584.3307
 306  -464.2822
 307  56.10484
 308  187.0928
 309  -80.86236
 310  239.7242
 311  294.9941
 312  335.3364
 313  752.7313
 314  437.1927
 315  269.8621
 316  177.1561
 317  274.4019
 318  336.7266
 319  286.0236
 320  240.011
 321  215.2682
 322  217.2767
 323  252.5739
 324  200.1973
 325  284.8083
 326  577.8497
 327  875.5311
 328  837.0142
 329  608.3719
 330  423.7174
 331  546.0682
 332  443.1465
 333  396.3875
 334  528.6641
 335  489.783
 336  459.4819
 337  532.1392
 338  102.3192
 339  380.2877
 340  429.8808
 341  297.4515
 342  427.6371
 343  287.2533
 344  448.0317
 345  377.4688
 346  73.6454
 347  394.8842
 348  864.1638
 349  724.9549
 350  342.6191
 351  115.7987
 352  316.5834
 353  425.4766
 354  442.7337
 355  508.9162
 356  317.9439
 357  196.125
 358  337.7995
 359  620.9935
 360  188.1783
 361  427.6833
 362  264.6607
 363  353.3902
 364  493.3897
 365  364.5155
 366  221.8102
 367  84.84666
 368  50.98347
 369  282.4362
 370  355.2071
 371  49.68633
 372  -362.1589
 373  275.3457
 374  195.7797
 375  74.71538
 376  -5.980937
 377  18.34144
 378  413.1969
 379  102.1318
 380  -92.17239
 381  -127.3807
 382  -144.6387
 383  55.34248
 384  38.2205
 385  -118.7771
 386  53.23171
 387  182.2328
 388  74.69418
 389  -383.8271
 390  -596.2665
 391  -443.5307
 392  -410.4323
 393  -355.7281
 394  -137.6819
 395  -23.55838
 396  -91.20332
 397  -493.7242
 398  -357.4143
 399  -182.3654
 400  -283.9046
 401  -122.6657
 402  83.73429
 403  -132.4513
 404  -316.218
 405  -296.1617
 406  -243.2937
 407  -293.0201
 408  -419.9804
 409  -476.3369
 410  -429.3636
 411  -158.2461
 412  -304.0862
 413  -624.9549
 414  -473.8817
 415  -582.0536
 416  -476.4227
 417  -417.5972
 418  -15.70503
 419  -103.0248
 420  -476.3619
 421  -778.8557
 422  -742.0793
 423  -416.2707
 424  -322.841
 425  -310.8604
 426  -697.8823
 427  -608.6208
 428  -638.1616
 429  -377.4291
 430  -685.1855
 431  -669.5424
 432  -649.6441
 433  -782.6656
 434  -848.1959
 435  -780.3111
 436  -670.376
 437  -599.5689
 438  -628.5081
 439  -753.7889
 440  -568.4432
 441  -525.0953
 442  -344.851
 443  -336.9485
 444  -591.5839
 445  -488.8054
 446  -460.5758
 447  -641.5167
 448  -873.6433
 449  -982.6052
 450  -1032.469
 451  -925.7025
 452  -767.5566
 453  -757.3052
 454  -980.5817
 455  -954.8529
 456  -953.1017
 457  -1191.207
 458  -1105.887
 459  -860.2231
 460  -825.7305
 461  -752.4862
 462  -756.4664
 463  -415.0835
 464  -438.5697
 465  -426.611
 466  -257.4984
 467  -235.9691
 468  -1.374307
 469  -129.7039
 470  -324.8718
 471  -213.897
 472  -451.1787
 473  -459.7858
 474  -326.7912
 475  -295.2204
 476  -384.9904
 477  -210.3919
 478  -139.6003
 479  -320.9196
 480  -384.1123
 481  -491.718
 482  -420.6505
 483  -418.3879
 484  129.2633
 485  -12.91055
 486  -34.94226
 487  -334.3429
 488  -278.1423
 489  -450.8158
 490  -576.002
 491  -159.5582
 492  -291.8
 493  -299.5453
 494  -345.8596
 495  -415.2924
 496  -631.6259
 497  -694.5266
 498  -473.0627
 499  -374.1966
 500  -388.5294
 501  -255.8531
 502  -366.7263
 503  -431.7479
 504  -532.3112
 505  -641.7677
 506  71.84859
 507  35.0566
 508  -149.6777
 509  -416.7714
 510  -453.6562
 511  -463.7221
