# Input file       =  1209389081.116451_cleaned.dat
# Candidate        =  PSR_0332+5434
# Telescope        =  AR
# Epoch_topo       =  58241.559029125594
# Epoch_bary       =  N/A
# T_sample         =  0.002
# Data Folded      =  7340032
# Data Avg         =  0.284249769876104
# Data StdDev      =  5.84906550993859 
# Profile Bins     =  512
# Profile Avg      =  4074.52807867084 
# Profile StdDev   =  700.326373471566 
# Reduced chi-sqr  =  1.822
# Prob(Noise)      <  6.56e-27   (~10.7 sigma)
# P_topo (ms)      =  714.544750252507  +/- 0.000196
# P'_topo (s/s)    =  -0                +/- 1.03e-10
# P''_topo (s/s^2) =  0                 +/- 4.56e-14
# P_bary (ms)      =  N/A
# P'_bary (s/s)    =  N/A
# P''_bary (s/s^2) =  N/A
# P_orb (s)        =  N/A
# asin(i)/c (s)    =  N/A
# eccentricity     =  N/A
# w (rad)          =  N/A
# T_peri           =  N/A
######################################################
   0  5375.18
   1  5072.737
   2  4843.515
   3  4954.035
   4  5294.064
   5  5091.703
   6  4803.674
   7  4946.254
   8  4629.488
   9  4215.249
  10  3798.257
  11  3932.007
  12  4246.692
  13  3941.944
  14  3540.774
  15  3938.969
  16  3663.103
  17  3486.21
  18  3321.233
  19  3345.079
  20  3492.488
  21  3442.784
  22  3675.539
  23  3742.778
  24  3736.414
  25  3741.464
  26  3539.148
  27  3742.014
  28  3711.545
  29  3200.879
  30  3270.394
  31  3665.262
  32  4094.374
  33  3812.355
  34  3537.306
  35  3467.604
  36  3280.423
  37  3255.799
  38  3730.529
  39  3493.827
  40  3659.273
  41  3392.85
  42  3101.67
  43  2856.987
  44  3157.783
  45  3397.053
  46  3218.894
  47  3111.5
  48  3142.567
  49  2858.405
  50  3177.409
  51  3368.162
  52  3744.476
  53  3830.324
  54  3816.59
  55  3807.072
  56  3518.158
  57  3597.939
  58  3861.994
  59  4158.582
  60  3968.252
  61  4146.396
  62  4497.083
  63  4345.263
  64  4430.503
  65  4643.798
  66  4738.256
  67  5166.738
  68  5271.497
  69  5281.766
  70  5396.544
  71  5357.68
  72  5320.465
  73  5058.099
  74  5668.181
  75  5408.653
  76  5419.174
  77  5408.351
  78  5357.447
  79  5191.187
  80  4881.238
  81  5066.075
  82  4769.923
  83  4478.673
  84  4920.131
  85  4974.681
  86  4978.15
  87  4844.206
  88  4727.87
  89  4609.838
  90  4570.276
  91  4514.905
  92  4476.34
  93  4641.209
  94  4764.991
  95  4438.386
  96  4414.94
  97  4433.822
  98  4600.554
  99  4300.031
 100  4181.198
 101  4530.291
 102  4232.246
 103  4098.767
 104  4188.979
 105  3992.083
 106  3935.945
 107  4432.773
 108  4672.473
 109  4663.836
 110  4490.341
 111  4854.655
 112  4846.986
 113  4888.539
 114  4612.048
 115  4599.688
 116  4823.077
 117  4996.674
 118  4965.64
 119  4829.029
 120  4309.158
 121  3978.961
 122  3924.42
 123  3993.87
 124  4245.017
 125  4243.648
 126  4540.801
 127  4458.025
 128  4260.678
 129  4203.82
 130  4304.515
 131  4158.238
 132  4574.367
 133  4991.718
 134  5062.487
 135  4798.834
 136  4955.895
 137  5051.752
 138  4917.409
 139  5208.507
 140  5433.814
 141  5280.233
 142  4925.706
 143  5400.982
 144  5199.451
 145  5156.061
 146  5067.676
 147  5207.39
 148  5372.78
 149  5322.6
 150  5183.948
 151  5463.602
 152  5204.933
 153  4867.175
 154  4580.805
 155  4440.721
 156  4647.718
 157  4174.503
 158  4404.692
 159  4110.253
 160  3567.627
 161  3626.736
 162  3816.731
 163  4109.919
 164  4142.304
 165  3635.266
 166  3532.21
 167  3612.495
 168  3712.121
 169  3480.293
 170  3280.354
 171  3477.004
 172  2984.166
 173  2811.047
 174  2950.744
 175  3201.072
 176  3423.384
 177  3252.571
 178  3316.913
 179  3196.742
 180  3359.719
 181  3668.392
 182  3645.958
 183  3764.804
 184  3558.082
 185  3659.422
 186  3741.72
 187  3978.298
 188  3768.91
 189  3802.555
 190  3977.61
 191  3728.219
 192  3545.462
 193  3518.105
 194  3669.864
 195  4132.814
 196  4009.236
 197  3653.173
 198  3900.914
 199  4053.493
 200  3542.17
 201  3579.109
 202  4385.917
 203  4450.345
 204  4422.209
 205  4196.597
 206  4283.047
 207  4538.839
 208  4678.682
 209  4883.333
 210  4646.927
 211  4767.917
 212  4776.389
 213  4448.607
 214  4625.063
 215  4478.382
 216  4733.504
 217  4727.147
 218  4556.461
 219  4846.601
 220  4680.713
 221  4433.949
 222  4299.083
 223  4488.12
 224  4272.716
 225  3920.319
 226  4068.954
 227  3960.809
 228  3980.55
 229  4126.305
 230  4195.524
 231  3744.625
 232  3883.187
 233  3693.718
 234  3737.105
 235  3531.613
 236  3743.808
 237  3841.398
 238  3264.696
 239  3064.317
 240  3417.533
 241  3264.635
 242  3085.466
 243  3219.394
 244  3175.053
 245  3260.586
 246  3506.736
 247  3594.951
 248  3528.908
 249  3436.859
 250  3379.339
 251  3469.449
 252  3489.746
 253  3506.548
 254  3322.875
 255  3241.885
 256  3202.6
 257  3501.439
 258  3593.28
 259  3232.86
 260  2674.116
 261  3154.583
 262  3192.445
 263  2606.059
 264  2847.829
 265  3073.71
 266  3159.207
 267  3046.514
 268  3042.088
 269  2954.341
 270  3059.48
 271  3300.681
 272  3228.796
 273  3143.905
 274  2961.669
 275  3083.976
 276  3635.584
 277  3479.74
 278  3509.356
 279  3730.471
 280  4082.157
 281  4153.59
 282  3797.518
 283  3576.207
 284  3930.436
 285  4316.246
 286  4415.371
 287  4444.136
 288  4459.194
 289  4748.141
 290  4821.457
 291  4691.99
 292  4926.108
 293  5302.946
 294  5091.808
 295  5104.555
 296  5479.34
 297  5252.248
 298  5599.832
 299  6112.391
 300  6302.574
 301  6649.899
 302  6510.738
 303  6046.708
 304  5090.018
 305  4820.512
 306  4443.009
 307  4297.119
 308  4375.175
 309  3962.407
 310  3867.458
 311  3703.541
 312  3493.024
 313  3825.862
 314  3849.376
 315  4089.47
 316  3758.715
 317  3564.24
 318  3239.365
 319  3418.296
 320  3379.305
 321  3351.887
 322  3210.87
 323  3246.543
 324  3275.965
 325  3065.714
 326  3057.926
 327  3402.353
 328  3419.72
 329  3234.316
 330  3228.778
 331  3232.982
 332  3042.598
 333  2867.245
 334  3337.972
 335  3565.472
 336  3426.003
 337  3546.595
 338  3644.425
 339  3725.941
 340  3564.25
 341  3564.793
 342  3391.192
 343  3725.191
 344  3637.36
 345  3690.73
 346  3682.365
 347  4060.552
 348  3471.831
 349  3478.823
 350  3817.149
 351  4002.202
 352  4006.535
 353  3951.191
 354  3783.832
 355  3630.461
 356  3954.263
 357  4027.067
 358  3872.425
 359  3901.633
 360  4323.188
 361  4679.637
 362  4730.436
 363  4595.803
 364  4427.36
 365  4407.762
 366  4505.671
 367  4874.522
 368  5172.566
 369  5224.333
 370  5006.653
 371  4955.393
 372  4832.083
 373  4623.856
 374  4640.339
 375  4392.949
 376  4066.012
 377  3862.733
 378  4223.526
 379  3999.003
 380  3455.947
 381  3300.46
 382  3359.27
 383  3434.363
 384  3344.809
 385  3526.891
 386  3176.042
 387  3298.506
 388  3238.6
 389  3382.61
 390  3150.974
 391  3463.124
 392  3442.599
 393  3786.151
 394  4156.251
 395  4300.216
 396  4510.332
 397  3893.219
 398  3551.345
 399  3918.652
 400  3861
 401  3662.625
 402  3854.664
 403  3936.38
 404  3943.428
 405  3897.938
 406  3575.642
 407  3618.706
 408  3771.956
 409  3813.533
 410  3877.245
 411  3720.841
 412  3732.38
 413  3378.484
 414  3506.46
 415  3583.875
 416  3683.134
 417  3670.258
 418  3528.104
 419  3517.464
 420  3145.997
 421  3171.254
 422  3205.226
 423  3566.244
 424  3842.696
 425  4255.818
 426  4261.333
 427  3885.505
 428  4080.857
 429  4177.986
 430  4142.231
 431  4367.016
 432  4476.986
 433  4362.483
 434  4572.575
 435  4783.677
 436  5179.271
 437  4662.943
 438  4344.146
 439  4589.918
 440  4970.699
 441  5100.01
 442  5066.69
 443  4956.648
 444  4717.378
 445  4515.694
 446  4382.937
 447  4206.849
 448  4135.181
 449  4502.723
 450  4598.126
 451  4175.261
 452  3896.997
 453  3815.05
 454  3887.046
 455  3919.534
 456  4054.827
 457  3976.429
 458  3741.854
 459  3657.931
 460  3864.223
 461  3438.578
 462  3708.52
 463  3613.114
 464  3463.255
 465  3851.998
 466  3935.669
 467  3898.632
 468  4065.285
 469  3823.129
 470  3787.77
 471  4105.959
 472  3833.955
 473  3822.209
 474  3751.206
 475  3915.847
 476  3812.878
 477  3508.051
 478  3399.853
 479  3214.965
 480  3387.224
 481  3361.69
 482  3326.652
 483  3810.043
 484  3805.737
 485  3481.867
 486  3247.755
 487  3563.934
 488  3870.264
 489  3728.468
 490  3962.999
 491  4180.774
 492  4180.006
 493  4068.814
 494  4075.433
 495  4238.807
 496  4272.993
 497  4206.203
 498  4293.049
 499  4347.526
 500  4350.748
 501  4374.751
 502  4847.857
 503  4840.045
 504  4783.943
 505  4677.488
 506  4719.144
 507  4897.984
 508  5053.607
 509  5206.964
 510  5126.275
 511  5369.591
