# Input file       =  1209876521.110726_cleaned.dat
# Candidate        =  PSR_0332+5434
# Telescope        =  AR
# Epoch_topo       =  58247.200695725995
# Epoch_bary       =  N/A
# T_sample         =  0.002
# Data Folded      =  7208960
# Data Avg         =  -0.010149030532502
# Data StdDev      =  1.00005576612812 
# Profile Bins     =  512
# Profile Avg      =  -142.874657314269
# Profile StdDev   =  118.66579295633  
# Reduced chi-sqr  =  1.484
# Prob(Noise)      <  6.35e-12   (~6.8 sigma)
# P_topo (ms)      =  714.53915345582   +/- 0.000102
# P'_topo (s/s)    =  -0                +/- 5.46e-11
# P''_topo (s/s^2) =  0                 +/- 2.46e-14
# P_bary (ms)      =  N/A
# P'_bary (s/s)    =  N/A
# P''_bary (s/s^2) =  N/A
# P_orb (s)        =  N/A
# asin(i)/c (s)    =  N/A
# eccentricity     =  N/A
# w (rad)          =  N/A
# T_peri           =  N/A
######################################################
   0  535.8128
   1  335.4212
   2  205.3838
   3  33.02221
   4  -54.39064
   5  -126.7757
   6  -49.78007
   7  -103.6388
   8  -249.2827
   9  -233.6979
  10  -157.2299
  11  -99.96178
  12  -10.11501
  13  -6.060118
  14  47.12397
  15  -96.41537
  16  -160.3849
  17  -159.7275
  18  -109.3936
  19  -175.3964
  20  -202.5677
  21  -285.3951
  22  -238.41
  23  -265.7683
  24  -280.8562
  25  -144.7599
  26  -192.9516
  27  -128.4062
  28  -131.6685
  29  -88.7862
  30  -168.1705
  31  -201.2515
  32  -173.6074
  33  -243.3553
  34  -217.1349
  35  -66.59077
  36  -102.7533
  37  -160.9872
  38  -156.9376
  39  -122.6874
  40  -156.5326
  41  -128.1901
  42  -250.2257
  43  -113.1598
  44  -156.2882
  45  -150.5757
  46  -118.8269
  47  -111.16
  48  -57.87409
  49  -246.036
  50  -279.6526
  51  -134.8712
  52  -130.9536
  53  -141.8994
  54  -172.9815
  55  -120.8327
  56  -113.6515
  57  -237.5092
  58  -247.3208
  59  -139.3539
  60  -120.1745
  61  -174.3774
  62  -268.0569
  63  -113.0072
  64  -158.5373
  65  -59.91247
  66  -125.5149
  67  -187.7379
  68  -163.2291
  69  -157.7225
  70  -86.60709
  71  -147.1286
  72  -174.1358
  73  -170.8483
  74  -101.6038
  75  -126.5146
  76  -71.40333
  77  -128.7283
  78  -112.645
  79  -152.7105
  80  -160.0671
  81  -114.8057
  82  -174.6718
  83  -163.11
  84  -189.6628
  85  -270.8589
  86  -173.9868
  87  -147.0836
  88  -113.0684
  89  -108.3989
  90  -131.3652
  91  -181.0405
  92  -158.9639
  93  -186.4412
  94  -161.896
  95  -98.09187
  96  -47.83039
  97  -62.59893
  98  -85.20142
  99  -52.57872
 100  -20.61248
 101  -24.03895
 102  -103.5525
 103  -121.1352
 104  -190.8063
 105  -107.0435
 106  -15.00882
 107  -152.9977
 108  -103.1163
 109  -128.4201
 110  -58.81133
 111  4.185676
 112  67.88737
 113  -55.37921
 114  -98.54736
 115  -80.15963
 116  -64.08852
 117  -80.60338
 118  -37.46067
 119  -17.9211
 120  -102.8164
 121  -108.1775
 122  -147.7493
 123  -189.922
 124  -153.6827
 125  -49.3203
 126  50.11717
 127  40.37553
 128  112.0668
 129  13.76027
 130  -33.19607
 131  -123.6814
 132  -116.7145
 133  52.86742
 134  40.50177
 135  88.66912
 136  -132.548
 137  -138.1508
 138  -36.81741
 139  -38.8653
 140  -154.3767
 141  -174.5398
 142  -124.8099
 143  -105.8996
 144  -131.7151
 145  -65.7281
 146  -36.72696
 147  -112.8488
 148  -45.11376
 149  -64.94116
 150  -127.2927
 151  -129.4857
 152  -70.72116
 153  -141.7682
 154  -124.2634
 155  -110.586
 156  -119.0117
 157  -162.4594
 158  -152.3027
 159  -28.30614
 160  12.77397
 161  -24.09363
 162  -163.5777
 163  -202.5326
 164  -126.2128
 165  -196.8412
 166  -271.8951
 167  -243.9037
 168  -78.62321
 169  -164.2801
 170  -259.3328
 171  -249.6575
 172  -283.212
 173  -222.1715
 174  -257.1959
 175  -144.927
 176  -134.9498
 177  -130.9521
 178  -218.7173
 179  -314.7043
 180  -155.61
 181  -188.5956
 182  -155.3259
 183  -254.9833
 184  -228.9082
 185  -199.1749
 186  -90.27913
 187  -66.58861
 188  -130.4265
 189  -285.5591
 190  -222.9823
 191  -93.58563
 192  -128.9541
 193  -42.25093
 194  -9.293472
 195  -32.03449
 196  -151.5318
 197  -131.4899
 198  -65.78992
 199  -245.5891
 200  -137.0989
 201  -107.1157
 202  -101.3762
 203  -198.2939
 204  -185.3976
 205  -148.4729
 206  -160.7874
 207  -184.2773
 208  -38.07379
 209  -3.234422
 210  -201.9498
 211  -109.841
 212  -60.60965
 213  -57.57062
 214  -185.4632
 215  -207.709
 216  -113.7672
 217  -79.63655
 218  -102.543
 219  -163.3767
 220  -19.33022
 221  -23.06765
 222  -254.0955
 223  -240.5437
 224  -145.222
 225  -111.9101
 226  -139.4182
 227  -147.7789
 228  -147.2185
 229  -179.886
 230  -264.7441
 231  -210.2577
 232  -190.7291
 233  -131.9015
 234  -37.15786
 235  -121.7441
 236  -187.3769
 237  -196.1453
 238  -179.6173
 239  -276.4269
 240  -142.5815
 241  -130.1202
 242  -122.4492
 243  -118.4832
 244  -108.3182
 245  -58.27993
 246  -171.6439
 247  -172.124
 248  -260.9497
 249  -199.4115
 250  -109.4639
 251  -133.7154
 252  -247.8021
 253  -175.5311
 254  -104.569
 255  -198.4681
 256  -164.2788
 257  -142.6114
 258  -81.54591
 259  -174.3507
 260  -196.4886
 261  -231.9056
 262  -228.2991
 263  -160.9655
 264  -284.5634
 265  -327.31
 266  -242.3229
 267  -47.1694
 268  -42.2345
 269  -78.68851
 270  -190.5339
 271  -192.5213
 272  -268.5104
 273  -413.1055
 274  -251.301
 275  -189.5198
 276  -89.27245
 277  -102.5361
 278  -60.56182
 279  48.0659
 280  -180.1248
 281  -249.0699
 282  -230.0974
 283  -101.1971
 284  -98.6464
 285  -65.04675
 286  -264.1533
 287  -252.5273
 288  -35.18363
 289  7.870614
 290  -82.32321
 291  -142.2235
 292  -44.86294
 293  -98.01516
 294  -103.5775
 295  -47.11103
 296  44.64226
 297  -72.01476
 298  -162.9708
 299  -45.87879
 300  -135.655
 301  -135.8253
 302  -139.8355
 303  -134.7927
 304  -34.97903
 305  -95.44489
 306  -157.0278
 307  -145.2256
 308  -121.7736
 309  -205.9893
 310  -221.2879
 311  -171.3204
 312  -189.092
 313  -208.8132
 314  -164.2355
 315  -125.1293
 316  -109.2964
 317  -62.42953
 318  -116.0769
 319  -107.1758
 320  -254.3204
 321  -301.0709
 322  -217.4885
 323  -274.5667
 324  -159.336
 325  -103.166
 326  -103.1635
 327  -164.2194
 328  -261.1552
 329  -321.2012
 330  -214.2527
 331  -284.632
 332  -140.0135
 333  3.014875
 334  -71.57934
 335  -81.40384
 336  -132.9072
 337  -199.852
 338  -251.1151
 339  -247.6653
 340  -263.4161
 341  -152.0288
 342  -87.67505
 343  -119.7992
 344  -244.0359
 345  -221.6806
 346  -222.7687
 347  -352.7142
 348  -143.8034
 349  -70.76137
 350  -40.43029
 351  -182.0653
 352  -164.3944
 353  -97.93034
 354  -259.8854
 355  -241.6786
 356  -347.9479
 357  -274.7798
 358  -158.5118
 359  -217.7942
 360  -165.6092
 361  -59.68916
 362  -100.994
 363  -269.5481
 364  -270.9763
 365  -211.4439
 366  -123.1343
 367  -218.0565
 368  -219.797
 369  -246.1593
 370  -234.2519
 371  -159.552
 372  -265.8499
 373  -206.5721
 374  -238.4025
 375  -155.3658
 376  -131.583
 377  -181.2275
 378  -209.6442
 379  -324.7795
 380  -273.6644
 381  -288.5164
 382  -259.7385
 383  -242.211
 384  -193.8644
 385  -141.3885
 386  -235.2813
 387  -239.7949
 388  -294.2785
 389  -308.3339
 390  -206.0446
 391  -112.2312
 392  -50.55299
 393  -17.7078
 394  -121.6145
 395  -208.0066
 396  -246.2794
 397  -214.4942
 398  -287.857
 399  -276.194
 400  -179.5869
 401  -167.6168
 402  -231.3254
 403  -335.3593
 404  -326.286
 405  -297.9292
 406  -214.8182
 407  -29.95173
 408  -178.8847
 409  -168.3897
 410  -236.4747
 411  -240.4174
 412  -243.0715
 413  -294.9829
 414  -186.108
 415  -122.2309
 416  -99.50043
 417  -215.5662
 418  -291.7796
 419  -294.2303
 420  -301.6434
 421  -305.7933
 422  -235.3791
 423  -129.8976
 424  -61.26229
 425  -135.4308
 426  -166.8617
 427  -56.80015
 428  -171.1236
 429  -230.4769
 430  -244.3132
 431  -97.80952
 432  -201.9937
 433  -206.8843
 434  -96.30297
 435  -206.0339
 436  -247.1798
 437  -420.7292
 438  -218.8332
 439  -138.282
 440  -76.95957
 441  -118.0125
 442  -166.812
 443  -57.26626
 444  -168.1355
 445  -199.1781
 446  -202.1229
 447  -120.1088
 448  -125.0087
 449  -59.27507
 450  -108.1283
 451  -172.894
 452  -291.4153
 453  -157.3138
 454  -28.28324
 455  -131.5924
 456  -63.39498
 457  -93.17054
 458  7.973399
 459  -57.53605
 460  -92.94669
 461  -101.3474
 462  -147.8064
 463  -181.2262
 464  -265.4024
 465  -166.7845
 466  -121.4635
 467  -160.7558
 468  -221.1016
 469  -81.30743
 470  -189.8322
 471  -304.2787
 472  -193.8595
 473  -184.9849
 474  -106.9853
 475  -110.0632
 476  -176.9726
 477  -246.3957
 478  -329.0695
 479  -310.0762
 480  -239.0517
 481  -173.8985
 482  -157.3194
 483  -158.0613
 484  -34.72583
 485  -87.45844
 486  -93.22959
 487  -190.4258
 488  -233.4062
 489  -148.7824
 490  -54.11956
 491  35.14516
 492  76.29595
 493  35.2658
 494  -175.9157
 495  -231.5713
 496  -113.7198
 497  -121.5647
 498  -95.55459
 499  -198.114
 500  -246.2876
 501  -71.31396
 502  -107.7112
 503  -139.2959
 504  -25.95217
 505  -59.15341
 506  -42.69545
 507  -60.32903
 508  186.591
 509  308.1605
 510  487.0072
 511  561.1269
