# Input file       =  1209389081.116451_cleaned.dat
# Candidate        =  PSR_0332+5434
# Telescope        =  AR
# Epoch_topo       =  58241.559029125594
# Epoch_bary       =  N/A
# T_sample         =  0.002
# Data Folded      =  7340032
# Data Avg         =  0.284249769876104
# Data StdDev      =  5.84906550993859 
# Profile Bins     =  512
# Profile Avg      =  4074.52807868902 
# Profile StdDev   =  700.326373471566 
# Reduced chi-sqr  =  1.824
# Prob(Noise)      <  5.65e-27   (~10.7 sigma)
# P_topo (ms)      =  714.544750451411  +/- 0.000196
# P'_topo (s/s)    =  -0                +/- 1.03e-10
# P''_topo (s/s^2) =  0                 +/- 4.56e-14
# P_bary (ms)      =  N/A
# P'_bary (s/s)    =  N/A
# P''_bary (s/s^2) =  N/A
# P_orb (s)        =  N/A
# asin(i)/c (s)    =  N/A
# eccentricity     =  N/A
# w (rad)          =  N/A
# T_peri           =  N/A
######################################################
   0  3796.939
   1  3619.199
   2  3167.676
   3  3336.022
   4  3748.67
   5  4105.683
   6  3701.962
   7  3519.438
   8  3455.11
   9  3243.766
  10  3363.039
  11  3717.907
  12  3494.342
  13  3664.064
  14  3306.875
  15  3065.061
  16  2876.756
  17  3201.357
  18  3393.836
  19  3176.67
  20  3143.517
  21  3085.093
  22  2884.012
  23  3250.499
  24  3384.81
  25  3816.204
  26  3781.562
  27  3864.891
  28  3743.82
  29  3512.5
  30  3615.704
  31  3950.442
  32  4142.792
  33  3946.494
  34  4251.833
  35  4485.402
  36  4315.205
  37  4474.277
  38  4653.485
  39  4813.295
  40  5225.125
  41  5231.232
  42  5338.327
  43  5375.411
  44  5385.877
  45  5246.486
  46  5129.978
  47  5698.007
  48  5340.082
  49  5478.7
  50  5374.579
  51  5368.877
  52  5096.663
  53  4882.227
  54  5068.833
  55  4691.265
  56  4510.319
  57  4985.338
  58  4943.417
  59  4996.952
  60  4794.45
  61  4738.075
  62  4552.456
  63  4611.505
  64  4461.635
  65  4519.841
  66  4683.354
  67  4705.94
  68  4421.903
  69  4429.574
  70  4460.227
  71  4573.777
  72  4226.089
  73  4259.774
  74  4541.865
  75  4142.629
  76  4123.055
  77  4149.073
  78  3993.578
  79  3963.166
  80  4530.314
  81  4653.221
  82  4656.013
  83  4497.028
  84  4933.095
  85  4813.213
  86  4886.418
  87  4569.214
  88  4610.682
  89  4881.674
  90  5015.403
  91  4944.336
  92  4737.792
  93  4253.855
  94  3929.955
  95  3967.641
  96  4015.196
  97  4249.82
  98  4265.61
  99  4570.389
 100  4416.077
 101  4268.734
 102  4180.898
 103  4313.161
 104  4155.622
 105  4692.843
 106  5047.702
 107  4998.075
 108  4797.402
 109  4967.35
 110  5054.797
 111  4929.235
 112  5279.327
 113  5444.077
 114  5175.669
 115  4985.658
 116  5439.91
 117  5160.323
 118  5151.638
 119  5064.581
 120  5222.69
 121  5413.191
 122  5264.531
 123  5242.287
 124  5434.597
 125  5157.741
 126  4820.752
 127  4527.485
 128  4485.016
 129  4574.431
 130  4148.161
 131  4435.588
 132  4042.851
 133  3485.458
 134  3677.638
 135  3818.162
 136  4183.51
 137  4082.966
 138  3563.603
 139  3549.843
 140  3579.161
 141  3778.777
 142  3354.935
 143  3376.486
 144  3405.679
 145  2909.044
 146  2786.642
 147  3006.374
 148  3253.189
 149  3415.523
 150  3254.732
 151  3318.623
 152  3195.68
 153  3399.558
 154  3703.6
 155  3648.651
 156  3759.756
 157  3551.38
 158  3668.768
 159  3789.911
 160  3951.532
 161  3770.036
 162  3844.299
 163  3963.618
 164  3638.158
 165  3551.557
 166  3532.853
 167  3763.844
 168  4159.53
 169  3903.24
 170  3669.123
 171  3967.89
 172  4023.032
 173  3452.811
 174  3701.332
 175  4436.672
 176  4461.97
 177  4386.682
 178  4187.17
 179  4337.77
 180  4544.757
 181  4752.769
 182  4839.777
 183  4667.791
 184  4759.3
 185  4753.047
 186  4411.145
 187  4633.174
 188  4479.827
 189  4794.247
 190  4691.618
 191  4565.491
 192  4868.171
 193  4618.08
 194  4426.598
 195  4297.195
 196  4491.503
 197  4193.259
 198  3917.299
 199  4093.848
 200  3905.738
 201  3993.597
 202  4185.259
 203  4130.498
 204  3744.831
 205  3904.615
 206  3655.086
 207  3715.463
 208  3504.026
 209  3830.3
 210  3754.493
 211  3183.651
 212  3107.852
 213  3439.714
 214  3258.294
 215  3023.221
 216  3266.819
 217  3142.555
 218  3339.746
 219  3531.271
 220  3566.941
 221  3520.54
 222  3419.84
 223  3407.008
 224  3476.748
 225  3480.774
 226  3479.996
 227  3287.566
 228  3248.34
 229  3233.756
 230  3528.574
 231  3558.075
 232  3135.722
 233  2679.965
 234  3258.155
 235  3066.16
 236  2580.831
 237  2940.154
 238  3082.634
 239  3153.335
 240  3050.646
 241  3041.639
 242  2933.78
 243  3095.284
 244  3323.885
 245  3190.072
 246  3115.798
 247  2955.629
 248  3180.656
 249  3675.154
 250  3433.892
 251  3546.337
 252  3774.102
 253  4160.269
 254  4090.828
 255  3717.494
 256  3623.483
 257  3981.726
 258  4407.07
 259  4386.887
 260  4459.737
 261  4465.812
 262  4813.232
 263  4782.781
 264  4716.179
 265  5002.824
 266  5315.975
 267  5051.256
 268  5174.432
 269  5452.315
 270  5253.232
 271  5749.302
 272  6126.894
 273  6377.924
 274  6671.779
 275  6453.025
 276  5857.593
 277  4993.944
 278  4785.414
 279  4390.238
 280  4292.437
 281  4325.06
 282  3886.972
 283  3901.876
 284  3622.675
 285  3567.354
 286  3851.114
 287  3885.215
 288  4050.005
 289  3712.026
 290  3483.487
 291  3251.242
 292  3421.276
 293  3401.464
 294  3315.661
 295  3204.565
 296  3245.84
 297  3272.693
 298  3012.983
 299  3119.536
 300  3460.539
 301  3381.51
 302  3231.271
 303  3219.429
 304  3195.094
 305  2981.467
 306  2927.009
 307  3418.178
 308  3554.013
 309  3429.608
 310  3542.588
 311  3722.963
 312  3671.175
 313  3605.052
 314  3495.571
 315  3434.767
 316  3760.422
 317  3605.672
 318  3684.738
 319  3714.018
 320  4077.777
 321  3354.062
 322  3569.142
 323  3853.956
 324  4002.235
 325  4009.017
 326  3915.149
 327  3761.829
 328  3652.298
 329  4025.582
 330  4006.752
 331  3816.953
 332  3986.563
 333  4404.167
 334  4693.095
 335  4715.289
 336  4570.757
 337  4384.897
 338  4450.102
 339  4537.158
 340  4983.742
 341  5159.291
 342  5228.359
 343  4963.894
 344  4940.35
 345  4810.436
 346  4582.729
 347  4646.048
 348  4308.545
 349  3998.573
 350  3904.53
 351  4275.33
 352  3886.052
 353  3388.141
 354  3286.993
 355  3412.76
 356  3406.224
 357  3367.604
 358  3481.496
 359  3151.791
 360  3311.264
 361  3284.651
 362  3341.814
 363  3181.766
 364  3483.671
 365  3478.032
 366  3861.035
 367  4171.987
 368  4352.471
 369  4484.604
 370  3739.292
 371  3597.09
 372  3937.474
 373  3848.379
 374  3637.788
 375  3929.341
 376  3870.556
 377  4021.052
 378  3826.772
 379  3537.388
 380  3677.501
 381  3722.019
 382  3879.579
 383  3804.621
 384  3765.403
 385  3685.051
 386  3363.159
 387  3533.903
 388  3584.439
 389  3703.417
 390  3639.274
 391  3525.736
 392  3483.387
 393  3097.22
 394  3202.422
 395  3251.009
 396  3634.573
 397  3905.784
 398  4285.787
 399  4201.368
 400  3883.142
 401  4105.561
 402  4168.067
 403  4149.854
 404  4434.124
 405  4451.881
 406  4372.443
 407  4598.018
 408  4906.752
 409  5115.738
 410  4577.783
 411  4362.669
 412  4660.555
 413  4995.919
 414  5100.865
 415  5080.43
 416  4889.289
 417  4704.162
 418  4477.201
 419  4361.854
 420  4138.908
 421  4210.018
 422  4529.39
 423  4575.099
 424  4083.596
 425  3889.062
 426  3807.949
 427  3897.837
 428  3948.489
 429  4059.561
 430  3916.22
 431  3728.48
 432  3686.847
 433  3825.184
 434  3420.618
 435  3752.976
 436  3562.822
 437  3494.985
 438  3904.322
 439  3921.134
 440  3927.285
 441  4071.838
 442  3744.145
 443  3864.001
 444  4105.407
 445  3795.193
 446  3833.89
 447  3728.17
 448  3962.013
 449  3730.876
 450  3511.348
 451  3334.715
 452  3257.677
 453  3373.837
 454  3319.323
 455  3405.919
 456  3856.007
 457  3775.407
 458  3407.412
 459  3266.267
 460  3655.399
 461  3829.992
 462  3770.695
 463  3985.702
 464  4227.939
 465  4117.393
 466  4076.14
 467  4096.493
 468  4273.354
 469  4272.73
 470  4219.003
 471  4326.105
 472  4315.452
 473  4369.525
 474  4399.198
 475  4909.808
 476  4828.617
 477  4749.899
 478  4712.356
 479  4699.581
 480  4943.47
 481  5065.454
 482  5240.706
 483  5102.678
 484  5450.402
 485  5306.555
 486  5031.224
 487  4822.672
 488  5026.312
 489  5270.497
 490  5027.739
 491  4807.003
 492  4961.979
 493  4551.882
 494  4122.667
 495  3769.398
 496  3992.809
 497  4279.96
 498  3794.2
 499  3596.67
 500  3919.691
 501  3641.733
 502  3438.275
 503  3310.325
 504  3373.112
 505  3514.047
 506  3431.666
 507  3747.882
 508  3719.538
 509  3790.976
 510  3653.301
 511  3543.855
