# Input file       =  1209531821.109581_cleaned.dat
# Candidate        =  PSR_0332+5434
# Telescope        =  AR
# Epoch_topo       =  58243.211112379409
# Epoch_bary       =  N/A
# T_sample         =  0.002
# Data Folded      =  7143424
# Data Avg         =  0.294462077925196
# Data StdDev      =  5.95856400447976 
# Profile Bins     =  512
# Profile Avg      =  4108.38117375951 
# Profile StdDev   =  703.817145753755 
# Reduced chi-sqr  =  1.237
# Prob(Noise)      <  0.0002   (~3.5 sigma)
# P_topo (ms)      =  714.542887184283  +/- 3.89e-05
# P'_topo (s/s)    =  -0                +/- 2.11e-11
# P''_topo (s/s^2) =  0                 +/- 9.56e-15
# P_bary (ms)      =  N/A
# P'_bary (s/s)    =  N/A
# P''_bary (s/s^2) =  N/A
# P_orb (s)        =  N/A
# asin(i)/c (s)    =  N/A
# eccentricity     =  N/A
# w (rad)          =  N/A
# T_peri           =  N/A
######################################################
   0  3777.903
   1  4455.834
   2  4215.201
   3  4338.464
   4  4151.804
   5  3629.562
   6  4000.932
   7  4534.25
   8  4944.121
   9  4544.39
  10  4396.765
  11  4130.446
  12  3824.518
  13  3762.512
  14  3659.207
  15  3580.399
  16  3634.963
  17  4158.663
  18  3871.228
  19  4185.787
  20  4323.737
  21  3967.866
  22  3885.797
  23  3807.535
  24  4515.886
  25  4315.81
  26  4534.144
  27  4543.255
  28  4538.561
  29  4550.852
  30  3892.713
  31  3481.088
  32  3037.433
  33  4038.907
  34  4240.562
  35  4310.713
  36  4050.261
  37  3855.045
  38  4052.912
  39  3873.563
  40  4382.8
  41  4524.127
  42  4706.48
  43  4271.541
  44  3723.372
  45  3620.729
  46  3216.175
  47  3288.88
  48  3601.99
  49  4601.73
  50  4583.099
  51  4016.983
  52  3924.315
  53  3973.368
  54  3674.244
  55  4052.905
  56  4461.915
  57  4787.706
  58  5057.373
  59  4372.096
  60  4034.31
  61  3940.939
  62  3274.495
  63  2766.21
  64  3140.654
  65  3512.567
  66  4240.101
  67  4243.744
  68  3982.601
  69  3434.328
  70  3082.702
  71  3385.002
  72  3710.997
  73  4017.045
  74  4313.906
  75  4614.44
  76  4428.668
  77  3826.699
  78  3304.407
  79  3632.147
  80  3610.59
  81  3374.59
  82  3808.51
  83  3645.364
  84  4190.831
  85  3993.498
  86  4202.773
  87  3724.909
  88  3169.938
  89  3471.337
  90  3915.693
  91  4754.413
  92  4257.529
  93  3940.64
  94  3761.47
  95  3521.538
  96  2928.074
  97  2703.197
  98  3212.775
  99  3322.787
 100  4264.375
 101  4345.092
 102  3798.557
 103  4282.556
 104  3559.583
 105  3910.405
 106  3865.185
 107  4770.893
 108  4822.66
 109  4404.62
 110  3950.169
 111  3506.016
 112  3920.07
 113  3571.789
 114  3732.574
 115  4042.057
 116  4142.168
 117  4292.941
 118  4121.685
 119  4043.666
 120  4089.599
 121  4100.65
 122  4176.103
 123  4716.089
 124  4753.612
 125  5014.479
 126  4712.523
 127  4365.962
 128  4387.705
 129  3429.832
 130  3376.591
 131  3859.259
 132  4696.46
 133  4627.373
 134  4873.629
 135  4685.981
 136  3855.289
 137  3931.801
 138  4273.635
 139  4703.552
 140  4932.01
 141  5147.63
 142  4820.5
 143  4069.528
 144  3773.113
 145  3881.937
 146  3290.292
 147  3460.181
 148  4134.224
 149  4747.135
 150  4740.214
 151  4521.279
 152  4296.096
 153  4141.987
 154  4077.884
 155  4174.922
 156  4906.309
 157  5195.791
 158  4834.176
 159  4726.828
 160  4469.556
 161  3844.011
 162  3279.35
 163  3188.648
 164  3481.292
 165  4111.233
 166  4272.13
 167  4365.157
 168  3849.219
 169  3723.691
 170  3731.257
 171  3509.834
 172  3594.431
 173  4255.551
 174  4690.743
 175  4621.634
 176  3976.762
 177  4022.188
 178  3734.237
 179  3326.074
 180  2741.803
 181  3660.603
 182  4044.479
 183  4244.201
 184  4362.984
 185  3847.595
 186  4022.404
 187  3386.978
 188  3990.927
 189  4397.935
 190  4895.634
 191  4238.448
 192  4002.252
 193  4001.385
 194  3635.608
 195  3399.218
 196  3204.339
 197  3613.142
 198  3734.361
 199  3901.164
 200  3728.671
 201  3974.36
 202  4242.935
 203  3958.924
 204  3932.905
 205  3977.134
 206  4863.52
 207  4293.301
 208  4538.13
 209  4190.438
 210  3172.754
 211  3194.88
 212  3158.651
 213  3755.115
 214  3893.049
 215  4319.722
 216  4368.688
 217  4312.419
 218  4444.389
 219  4006.453
 220  4062.595
 221  4012.409
 222  4564.078
 223  5210.281
 224  5337.824
 225  4223.815
 226  3848.414
 227  3696.555
 228  3182.751
 229  3678.798
 230  4122.407
 231  4665.054
 232  4934.395
 233  4235.818
 234  3897.2
 235  3538.183
 236  4181.382
 237  4603.679
 238  4746.34
 239  5113.582
 240  4868.295
 241  4750.53
 242  4371.811
 243  4131.624
 244  3970.622
 245  3812.205
 246  3959.637
 247  3607.647
 248  4312.665
 249  4569.053
 250  4725.255
 251  4235.04
 252  3694.579
 253  3843.472
 254  3750.633
 255  4833.283
 256  5357.623
 257  5496.113
 258  4834.431
 259  4240.102
 260  4459.82
 261  3852.755
 262  3508.72
 263  3489.958
 264  4205.16
 265  4659.101
 266  4999.444
 267  4446.545
 268  4481.064
 269  4315.462
 270  3854.703
 271  4429.384
 272  4741.847
 273  5095.096
 274  4557.078
 275  4316.525
 276  4392.101
 277  4117.257
 278  3828.96
 279  3624.934
 280  4337.247
 281  4257.106
 282  4732.931
 283  3919.244
 284  4140.605
 285  4668.464
 286  4307.604
 287  4472.024
 288  4331.812
 289  5330.677
 290  5370.877
 291  4917.768
 292  4457.582
 293  4294.215
 294  4232.426
 295  4029.349
 296  4778.387
 297  4969.617
 298  5209.104
 299  5365.017
 300  6098.383
 301  6434.734
 302  6189.818
 303  5888.911
 304  5051.228
 305  5461.679
 306  5366.868
 307  4669.252
 308  4338.227
 309  3967.794
 310  3918.545
 311  3575.826
 312  3726.482
 313  4442.856
 314  5007.426
 315  4791.792
 316  4401.996
 317  4237.708
 318  4050.504
 319  3821.781
 320  3962.995
 321  4274.728
 322  4968.516
 323  5142.466
 324  4672.876
 325  4051.021
 326  3600.815
 327  3310.404
 328  2907.347
 329  3400.729
 330  3902.099
 331  4382.948
 332  4788.585
 333  4428.312
 334  4035.963
 335  3498.795
 336  3709.96
 337  4155.293
 338  5345.06
 339  5341.478
 340  4970.076
 341  4448.983
 342  4035.122
 343  3655.068
 344  3306.135
 345  3191.783
 346  3500.493
 347  4646.646
 348  4498.09
 349  4464.538
 350  4093.747
 351  4177.159
 352  3935.195
 353  3679.324
 354  4390.711
 355  4739.46
 356  4907.016
 357  4232.444
 358  3909.994
 359  4173.901
 360  3697.623
 361  3584.725
 362  3662.284
 363  4121.17
 364  4111.326
 365  4173.759
 366  4057.713
 367  3931.359
 368  4548.808
 369  4094.873
 370  4368.923
 371  4731.864
 372  5148.989
 373  4708.809
 374  4249.879
 375  3786.186
 376  3230.243
 377  3582.556
 378  3687.493
 379  4394.467
 380  4367.183
 381  4018.382
 382  3502.505
 383  3672.365
 384  4518.008
 385  4265.702
 386  4155.721
 387  4341.018
 388  4955.271
 389  4675.765
 390  3970.215
 391  3202.939
 392  3265.712
 393  3013.706
 394  2743.43
 395  3302.849
 396  3718.279
 397  3795.975
 398  3889.646
 399  3737.195
 400  3512.651
 401  3138.493
 402  3637.734
 403  4048.604
 404  4298.655
 405  4659.476
 406  4618.617
 407  3656.429
 408  3467.039
 409  3451.721
 410  3074.039
 411  3206.867
 412  3574.645
 413  4053.045
 414  4635.809
 415  4105.913
 416  3364.156
 417  3192.1
 418  2913.79
 419  3446.922
 420  3998.862
 421  4865.552
 422  4591.96
 423  4072.519
 424  3645.661
 425  3419.98
 426  3075.591
 427  2613.248
 428  2822.616
 429  3104.013
 430  4060.389
 431  4006.312
 432  4208.221
 433  4073.861
 434  3826.239
 435  4030.925
 436  4211.102
 437  4882.807
 438  4741.517
 439  4732.876
 440  4003.127
 441  3565.91
 442  4048.247
 443  3767.979
 444  3493.088
 445  3398.473
 446  3859.44
 447  3764.401
 448  3701.479
 449  4212.03
 450  4502.212
 451  4630.169
 452  4026.517
 453  4628.327
 454  4794.014
 455  4754.702
 456  4380.206
 457  3948.736
 458  4137.789
 459  4163.373
 460  4043.004
 461  3601.402
 462  4106.329
 463  3837.394
 464  4379.514
 465  3967.09
 466  3977.015
 467  4021.07
 468  3766.725
 469  4097.963
 470  4671.765
 471  5154.867
 472  4574.335
 473  3900.471
 474  3405.887
 475  3519.979
 476  3959.527
 477  3912.539
 478  4302.708
 479  4427.665
 480  3882.801
 481  3595.005
 482  3240.908
 483  3648.36
 484  4059.663
 485  4611.835
 486  4688.29
 487  4922.153
 488  4788.763
 489  3759.368
 490  3517.509
 491  3734.125
 492  3752.573
 493  3469.254
 494  3725.652
 495  4425.224
 496  4289.324
 497  4681.868
 498  3733.205
 499  3512.259
 500  3545.815
 501  3608.441
 502  4284.83
 503  4726.348
 504  5237.28
 505  4653.135
 506  4177.255
 507  3808.934
 508  3560.752
 509  3653.83
 510  3589.492
 511  3777.369
