# Input file       =  1209101040.113664-PSRB0329-2ms-sampling-dd.dat
# Candidate        =  PSR_0332+5434
# Telescope        =  AR
# Epoch_topo       =  58238.225221222965
# Epoch_bary       =  N/A
# T_sample         =  0.002
# Data Folded      =  7208960
# Data Avg         =  -1.48583533904169e-10
# Data StdDev      =  7.59687591277638 
# Profile Bins     =  512
# Profile Avg      =  0.124304961397638
# Profile StdDev   =  901.43903441577  
# Reduced chi-sqr  =  1.065
# Prob(Noise)      <  0.15   (~1.0 sigma)
# P_topo (ms)      =  714.547414357547  +/- 3.05e-05
# P'_topo (s/s)    =  -0                +/- 1.64e-11
# P''_topo (s/s^2) =  0                 +/- 7.36e-15
# P_bary (ms)      =  N/A
# P'_bary (s/s)    =  N/A
# P''_bary (s/s^2) =  N/A
# P_orb (s)        =  N/A
# asin(i)/c (s)    =  N/A
# eccentricity     =  N/A
# w (rad)          =  N/A
# T_peri           =  N/A
######################################################
   0  -370.6564
   1  616.8666
   2  -73.68835
   3  338.423
   4  70.33508
   5  105.8978
   6  -160.6063
   7  -568.6097
   8  -608.2469
   9  -771.5143
  10  287.4298
  11  471.3497
  12  194.7413
  13  99.38234
  14  -592.6788
  15  -954.3961
  16  -492.0673
  17  -102.9758
  18  -134.1961
  19  221.8132
  20  116.455
  21  -127.8214
  22  -428.2898
  23  -950.1626
  24  -685.17
  25  -734.356
  26  141.9758
  27  935.0653
  28  294.6058
  29  348.1383
  30  -135.2377
  31  -81.20132
  32  -604.2199
  33  1.412918
  34  168.2979
  35  -9.477303
  36  552.7072
  37  71.25638
  38  -134.5168
  39  -602.4146
  40  -531.3155
  41  -664.3127
  42  62.67814
  43  284.8907
  44  532.2753
  45  534.0283
  46  160.2876
  47  599.01
  48  265.0515
  49  570.5242
  50  891.8891
  51  968.3914
  52  1219.2
  53  305.1234
  54  -37.63747
  55  -639.173
  56  -228.0546
  57  -422.7887
  58  93.00516
  59  683.1738
  60  1141.762
  61  879.7102
  62  -8.795983
  63  572.1603
  64  -204.1123
  65  -288.1205
  66  172.7684
  67  457.4746
  68  1239.182
  69  801.6511
  70  812.6962
  71  304.5223
  72  397.7364
  73  -106.3461
  74  -426.2615
  75  137.6391
  76  514.603
  77  779.7556
  78  392.8115
  79  1123.071
  80  485.0071
  81  -33.97637
  82  -343.7878
  83  -113.6426
  84  563.9903
  85  86.51717
  86  847.7042
  87  849.5298
  88  309.1758
  89  -784.7496
  90  -1134.511
  91  -855.5365
  92  76.24301
  93  574.5389
  94  228.4207
  95  374.1202
  96  26.99798
  97  -702.9153
  98  -1062.893
  99  -331.2983
 100  191.6293
 101  195.3869
 102  353.841
 103  509.4153
 104  13.20809
 105  -335.1164
 106  -1031.099
 107  -526.9371
 108  -318.6929
 109  694.7874
 110  549.6758
 111  -64.19784
 112  61.75734
 113  -315.8686
 114  -127.7854
 115  -26.818
 116  494.2675
 117  962.9573
 118  872.9147
 119  780.2693
 120  371.592
 121  304.2952
 122  -292.4091
 123  -395.895
 124  -373.1864
 125  775.2947
 126  1373.482
 127  1029.169
 128  971.9424
 129  270.6934
 130  748.2282
 131  -42.53168
 132  144.6344
 133  1096.968
 134  937.4136
 135  1528.977
 136  953.6378
 137  803.5036
 138  240.9038
 139  171.7287
 140  -279.3748
 141  333.607
 142  1383.683
 143  1560.661
 144  1333.502
 145  513.7419
 146  858.537
 147  -95.89105
 148  359.1631
 149  1349.761
 150  1008.215
 151  1747.426
 152  1139.068
 153  809.601
 154  271.1036
 155  -272.5406
 156  -521.4196
 157  -589.8009
 158  433.8467
 159  832.97
 160  1445.57
 161  870.3881
 162  469.1266
 163  128.0911
 164  -215.9061
 165  28.9983
 166  5.040772
 167  1145.482
 168  678.7663
 169  909.0163
 170  161.8066
 171  -584.0974
 172  -848.408
 173  -1077.942
 174  -544.0419
 175  492.7388
 176  627.1393
 177  590.5324
 178  752.4447
 179  409.9816
 180  -607.2034
 181  -657.082
 182  -490.0014
 183  330.8821
 184  648.3597
 185  856.0317
 186  84.95215
 187  -560.3225
 188  -809.2253
 189  -1501.835
 190  -999.5934
 191  -564.9431
 192  502.0074
 193  275.5506
 194  -117.7006
 195  287.3887
 196  -568.2667
 197  -518.8112
 198  -229.9583
 199  -271.0841
 200  -102.3289
 201  -363.3734
 202  -67.21413
 203  -429.7356
 204  -508.3955
 205  -1089.003
 206  -1339.302
 207  -1038.969
 208  -482.547
 209  -169.231
 210  -536.575
 211  694.2552
 212  107.9428
 213  61.99872
 214  -455.0955
 215  -440.7065
 216  173.9002
 217  368.9823
 218  597.8931
 219  -371.8358
 220  -156.2375
 221  -761.7571
 222  -892.018
 223  -994.4776
 224  261.4877
 225  785.0767
 226  386.492
 227  987.1863
 228  269.4277
 229  113.7175
 230  -661.6412
 231  -378.8427
 232  568.4014
 233  616.0248
 234  1257.224
 235  59.59954
 236  -245.4908
 237  -712.329
 238  -1454.668
 239  -1252.67
 240  -717.056
 241  -163.6326
 242  376.3828
 243  781.6849
 244  426.6588
 245  238.9142
 246  -1252.196
 247  -1279.372
 248  -421.7253
 249  -85.91726
 250  335.1249
 251  394.1746
 252  481.4324
 253  -680.6818
 254  -1394.496
 255  -1371.289
 256  -2055.473
 257  -761.0464
 258  -22.76177
 259  385.4923
 260  55.19202
 261  119.7661
 262  -582.7068
 263  -1180.766
 264  -1060.13
 265  -891.9344
 266  -147.1363
 267  -241.4288
 268  -26.86678
 269  -539.8635
 270  -748.7548
 271  -1128.343
 272  -2005.078
 273  -1586.5
 274  -828.7194
 275  9.061175
 276  325.07
 277  332.8738
 278  591.0714
 279  -139.8761
 280  -504.2885
 281  -311.8703
 282  -127.0112
 283  302.9208
 284  350.7043
 285  682.2865
 286  59.36585
 287  -571.3954
 288  -1104.287
 289  -706.163
 290  -744.1906
 291  -163.8172
 292  247.7845
 293  437.2177
 294  974.2611
 295  -421.018
 296  -287.5822
 297  -538.5618
 298  -575.0045
 299  117.6109
 300  487.8435
 301  420.3793
 302  -247.8866
 303  -212.8018
 304  -1055.571
 305  -1202.871
 306  -1194.023
 307  144.3714
 308  736.4849
 309  260.1154
 310  990.7438
 311  271.6286
 312  378.6813
 313  -228.6815
 314  183.8304
 315  1044.167
 316  423.106
 317  976.7435
 318  437.9501
 319  237.4664
 320  -537.6838
 321  -366.3174
 322  -671.3275
 323  116.9614
 324  837.3566
 325  968.4996
 326  1211.12
 327  108.2639
 328  196.6017
 329  -1229.208
 330  -534.1697
 331  414.8153
 332  173.2313
 333  879.0978
 334  213.5574
 335  -96.59891
 336  -723.4794
 337  -1108.545
 338  -1437.022
 339  -1088.632
 340  -51.32972
 341  210.3067
 342  447.282
 343  -251.4248
 344  -592.4848
 345  -1126.723
 346  -980.1581
 347  -328.6796
 348  -645.3298
 349  -260.0412
 350  -74.08467
 351  438.2805
 352  -185.4383
 353  -1134.868
 354  -1009.543
 355  -1332.986
 356  -579.9263
 357  -217.5455
 358  -179.2211
 359  182.9381
 360  382.625
 361  532.964
 362  -405.807
 363  -658.8928
 364  -703.9741
 365  -635.7034
 366  -223.9274
 367  145.1733
 368  271.4525
 369  -322.0829
 370  -656.0121
 371  -1361.34
 372  -919.61
 373  -599.0029
 374  23.13878
 375  847.4998
 376  228.5304
 377  219.1647
 378  -749.2459
 379  -882.7935
 380  -341.481
 381  -184.3585
 382  354.4937
 383  37.99208
 384  132.2444
 385  -473.778
 386  -257.3013
 387  -960.4209
 388  -803.6497
 389  -521.3126
 390  195.2238
 391  355.5288
 392  105.7843
 393  1001.905
 394  -251.091
 395  -313.83
 396  -532.496
 397  -564.0768
 398  203.467
 399  -71.30577
 400  756.1539
 401  -221.7471
 402  -466.4901
 403  -1152.508
 404  -520.5273
 405  -405.2796
 406  377.0901
 407  1207.924
 408  1006.049
 409  588.5226
 410  -220.7833
 411  255.7072
 412  -338.2147
 413  210.6542
 414  1198.334
 415  527.0324
 416  887.6251
 417  262.9171
 418  215.3109
 419  -722.5591
 420  -1022.221
 421  -1394.581
 422  -702.002
 423  163.8709
 424  404.6945
 425  601.3883
 426  135.7142
 427  326.0481
 428  -810.0169
 429  -940.1803
 430  -336.5965
 431  -570.1275
 432  140.2125
 433  208.1346
 434  269.3421
 435  -391.0266
 436  -907.3224
 437  -759.7969
 438  -1165.877
 439  -585.5287
 440  121.6569
 441  292.9735
 442  337.5901
 443  -269.1957
 444  -604.1738
 445  -681.4582
 446  -603.5042
 447  -276.3636
 448  352.9537
 449  223.8425
 450  8.454652
 451  -146.7378
 452  -761.3919
 453  -985.6378
 454  -1265.221
 455  -502.1263
 456  239.5292
 457  655.1329
 458  1017.695
 459  403.5444
 460  -282.4222
 461  -829.1394
 462  -448.7004
 463  133.4039
 464  -104.0402
 465  243.3203
 466  481.6741
 467  207.9514
 468  -844.447
 469  -437.6454
 470  -764.1284
 471  -13.25592
 472  683.2557
 473  1436.347
 474  2117.293
 475  1947.764
 476  2791.684
 477  1662.768
 478  1045.039
 479  667.8348
 480  538.0476
 481  917.7816
 482  -6.402942
 483  332.9315
 484  26.70468
 485  -147.9662
 486  -668.4139
 487  -426.3512
 488  -235.488
 489  672.4459
 490  1010.215
 491  30.52345
 492  519.3448
 493  -399.6049
 494  -127.3048
 495  14.34377
 496  627.6907
 497  1061.427
 498  164.6671
 499  783.4379
 500  -228.6337
 501  -414.3482
 502  -560.1068
 503  -118.6957
 504  69.57041
 505  503.2838
 506  699.0522
 507  3.948445
 508  381.206
 509  -5.913628
 510  288.8288
 511  -190.7328
