# Input file       =  1209201872.113502-PSRB0329-2ms-sampling-dd.dat
# Candidate        =  PSR_0332+5434
# Telescope        =  AR
# Epoch_topo       =  58239.392258258122
# Epoch_bary       =  N/A
# T_sample         =  0.002
# Data Folded      =  7340032
# Data Avg         =  -1.35955248136116e-10
# Data StdDev      =  7.86969947570476 
# Profile Bins     =  512
# Profile Avg      =  -10.2895399690312
# Profile StdDev   =  942.263013598776 
# Reduced chi-sqr  =  0.553
# Prob(Noise)      <  1   (~0.0 sigma)
# P_topo (ms)      =  714.54638122993   +/- 0.000802
# P'_topo (s/s)    =  -0                +/- 4.23e-10
# P''_topo (s/s^2) =  0                 +/- 1.87e-13
# P_bary (ms)      =  N/A
# P'_bary (s/s)    =  N/A
# P''_bary (s/s^2) =  N/A
# P_orb (s)        =  N/A
# asin(i)/c (s)    =  N/A
# eccentricity     =  N/A
# w (rad)          =  N/A
# T_peri           =  N/A
######################################################
   0  -482.789
   1  -118.4686
   2  -320.4952
   3  -224.1784
   4  -238.8233
   5  104.9262
   6  -32.62777
   7  37.95743
   8  456.8581
   9  275.1229
  10  164.4523
  11  -66.17477
  12  -474.4891
  13  -482.7105
  14  -592.1987
  15  -737.4578
  16  -252.781
  17  360.6782
  18  294.4576
  19  -32.84718
  20  -220.1003
  21  -22.13098
  22  -297.3619
  23  -186.9501
  24  232.2947
  25  273.5056
  26  127.5669
  27  -71.16507
  28  -232.1591
  29  -268.3937
  30  -82.6984
  31  -457.2719
  32  -389.785
  33  -154.7119
  34  -209.8014
  35  -335.9241
  36  -363.8403
  37  -141.1557
  38  -232.092
  39  -510.3316
  40  -352.6014
  41  -283.66
  42  -360.9763
  43  -720.5892
  44  -588.0147
  45  -207.3142
  46  174.193
  47  -275.4375
  48  -217.6942
  49  -466.7374
  50  -98.98154
  51  -129.8055
  52  -177.2953
  53  115.1974
  54  -297.7368
  55  -27.35263
  56  -338.6226
  57  -592.7243
  58  -347.2232
  59  -274.5136
  60  -404.2798
  61  -62.87702
  62  64.63082
  63  431.6448
  64  340.7955
  65  -0.7568923
  66  -130.2129
  67  -146.6831
  68  -64.93811
  69  346.9542
  70  459.394
  71  151.8872
  72  -256.4929
  73  -218.0239
  74  -635.3924
  75  -777.9689
  76  -404.5766
  77  70.04287
  78  22.63165
  79  -550.7287
  80  -567.4464
  81  -1087.819
  82  -800.0937
  83  -626.0245
  84  -513.6379
  85  -482.0392
  86  -681.5093
  87  -492.8265
  88  -442.6954
  89  -1164.844
  90  -913.2602
  91  -33.30325
  92  -19.21713
  93  -101.4021
  94  -188.8236
  95  -357.1147
  96  -256.0551
  97  -85.86052
  98  -200.8561
  99  46.43932
 100  7.414677
 101  -241.0073
 102  -74.11689
 103  48.55729
 104  -165.8745
 105  -522.554
 106  -398.0644
 107  199.2307
 108  537.9302
 109  588.4508
 110  358.066
 111  439.4064
 112  402.4269
 113  423.9209
 114  55.6067
 115  114.6093
 116  -128.0267
 117  -29.59756
 118  -203.2874
 119  -480.9466
 120  -390.2046
 121  -283.197
 122  -67.75342
 123  -2.194536
 124  397.8161
 125  49.57579
 126  -6.603244
 127  93.42579
 128  201.9144
 129  736.5169
 130  238.767
 131  598.6944
 132  -24.85698
 133  -520.0531
 134  -261.8333
 135  -29.55202
 136  102.1148
 137  195.2191
 138  11.08288
 139  84.83536
 140  158.1122
 141  68.53342
 142  -318.539
 143  21.94216
 144  281.1096
 145  690.8835
 146  579.9238
 147  336.5273
 148  626.6609
 149  360.3266
 150  373.8332
 151  374.1086
 152  468.1983
 153  295.2571
 154  482.0822
 155  689.0457
 156  935.7889
 157  472.4578
 158  397.7791
 159  677.4868
 160  115.9235
 161  602.1026
 162  366.3085
 163  491.6487
 164  556.8418
 165  544.2169
 166  241.0907
 167  457.101
 168  545.257
 169  630.3999
 170  830.8514
 171  826.8947
 172  425.7328
 173  285.2279
 174  646.1855
 175  1275.747
 176  1040.854
 177  1068.107
 178  1121.367
 179  787.5975
 180  542.713
 181  531.678
 182  878.0632
 183  666.2888
 184  341.5599
 185  467.8668
 186  506.9091
 187  406.8916
 188  135.7285
 189  237.5007
 190  247.742
 191  556.8444
 192  680.9243
 193  573.1882
 194  332.8682
 195  602.2073
 196  590.873
 197  689.512
 198  947.3271
 199  848.6383
 200  550.1263
 201  498.4292
 202  532.3702
 203  674.5143
 204  491.0972
 205  666.6198
 206  441.7024
 207  171.8422
 208  374.3475
 209  300.3655
 210  129.2239
 211  -315.1986
 212  1.132643
 213  685.33
 214  526.7715
 215  280.5086
 216  210.5075
 217  362.3323
 218  336.6783
 219  387.4529
 220  378.4177
 221  415.621
 222  322.9545
 223  24.00671
 224  -372.8551
 225  -706.2761
 226  -404.2278
 227  -308.4767
 228  -456.5662
 229  -428.1507
 230  -637.4752
 231  -273.0004
 232  -293.885
 233  -302.6995
 234  -495.4759
 235  -256.2399
 236  -261.3417
 237  69.35322
 238  -17.42882
 239  -408.7963
 240  -446.5027
 241  -451.7149
 242  -144.0363
 243  -47.60398
 244  466.3636
 245  223.9875
 246  28.62703
 247  129.1616
 248  -62.89698
 249  162.4675
 250  488.616
 251  329.7356
 252  266.5208
 253  206.5256
 254  26.12841
 255  -353.3132
 256  -412.9054
 257  -245.4953
 258  162.728
 259  111.1808
 260  -79.78716
 261  -338.3276
 262  -772.3665
 263  -439.21
 264  -465.817
 265  -243.8471
 266  -361.9514
 267  -257.7858
 268  -477.6046
 269  -359.0248
 270  -198.0329
 271  16.50216
 272  370.4607
 273  425.1583
 274  471.8923
 275  537.4624
 276  452.913
 277  389.4963
 278  228.3796
 279  571.2149
 280  156.532
 281  77.40907
 282  243.6497
 283  290.1956
 284  -251.8362
 285  -236.9307
 286  -329.3019
 287  -375.5541
 288  -337.5525
 289  -505.0747
 290  -572.8621
 291  -226.6759
 292  -128.6396
 293  210.658
 294  -107.696
 295  -6.769092
 296  148.7994
 297  -182.4694
 298  -122.8488
 299  216.6266
 300  816.3731
 301  560.5661
 302  266.9956
 303  410.6729
 304  655.4579
 305  513.1619
 306  512.7079
 307  531.3272
 308  713.7103
 309  782.8877
 310  628.872
 311  754.5134
 312  884.7212
 313  386.7122
 314  -79.79253
 315  94.02295
 316  -39.76048
 317  269.1087
 318  208.8161
 319  185.9198
 320  186.8283
 321  55.30239
 322  -140.1487
 323  -201.6551
 324  344.3435
 325  499.7395
 326  228.2901
 327  60.94821
 328  373.5277
 329  472.3874
 330  339.6718
 331  220.7178
 332  652.3811
 333  142.8719
 334  321.1867
 335  480.8199
 336  552.7194
 337  690.3954
 338  633.3329
 339  553.8479
 340  548.9769
 341  614.3423
 342  851.4734
 343  597.5404
 344  43.21525
 345  215.1062
 346  589.9477
 347  665.6938
 348  265.2059
 349  333.7362
 350  163.1412
 351  -267.4146
 352  -66.55867
 353  88.00007
 354  -78.52775
 355  -175.0831
 356  -420.9978
 357  -204.3443
 358  -783.1846
 359  -795.6218
 360  -141.4873
 361  18.43015
 362  -23.19689
 363  -276.3203
 364  -498.4729
 365  -518.5965
 366  -440.9357
 367  19.20153
 368  -45.38588
 369  -276.8709
 370  -442.4783
 371  -480.1624
 372  -464.2035
 373  -339.8259
 374  -30.84896
 375  -75.13876
 376  -29.0173
 377  -98.95899
 378  -242.5617
 379  -244.1689
 380  -288.1044
 381  -174.9281
 382  -340.1308
 383  -199.3581
 384  -382.2017
 385  -514.9117
 386  -272.1472
 387  -34.01263
 388  -188.3847
 389  -183.4812
 390  45.99678
 391  167.7093
 392  292.7043
 393  427.6844
 394  440.8201
 395  796.4645
 396  1127.59
 397  1890.788
 398  2123.184
 399  2152.712
 400  1991.229
 401  1656.213
 402  849.3692
 403  395.7046
 404  443.9043
 405  309.018
 406  304.4913
 407  261.495
 408  331.7308
 409  59.47414
 410  -61.25286
 411  212.7799
 412  180.6152
 413  337.2505
 414  -42.02141
 415  -255.3506
 416  -597.0221
 417  -927.8633
 418  -1039.853
 419  -1128.485
 420  -882.9833
 421  -520.9463
 422  -730.0932
 423  -954.6492
 424  -796.3975
 425  -247.4426
 426  -233.5439
 427  77.43613
 428  325.563
 429  233.9739
 430  -120.1381
 431  -351.1606
 432  -164.1104
 433  -187.4158
 434  -139.4568
 435  -566.9793
 436  -665.1008
 437  -270.4014
 438  -41.57147
 439  12.53047
 440  -60.801
 441  -105.1251
 442  -454.9458
 443  -589.4617
 444  -452.1114
 445  -735.5678
 446  -748.2371
 447  -1282.878
 448  -1330.587
 449  -1089.358
 450  -1319.921
 451  -1633.356
 452  -1435.866
 453  -1148.026
 454  -1078.844
 455  -711.77
 456  -844.8256
 457  -1119.046
 458  -857.3192
 459  -815.6574
 460  -1075.035
 461  -1066.559
 462  -984.6982
 463  -976.4468
 464  -1099.3
 465  -1114.798
 466  -805.5053
 467  -667.04
 468  -763.7766
 469  -411.98
 470  -509.1472
 471  28.05738
 472  88.25652
 473  41.13393
 474  -365.6694
 475  -595.8458
 476  -425.5548
 477  -357.6542
 478  135.0741
 479  149.889
 480  -150.8815
 481  -643.7413
 482  -460.0005
 483  -204.1915
 484  -251.2738
 485  -29.55202
 486  -199.8017
 487  -79.2952
 488  -172.875
 489  -245.219
 490  42.94168
 491  182.275
 492  185.816
 493  -319.0624
 494  -603.8632
 495  -779.4703
 496  -359.8259
 497  -273.1883
 498  -103.21
 499  -67.98895
 500  153.2534
 501  278.2048
 502  -390.4676
 503  134.0303
 504  27.69805
 505  -150.2862
 506  -292.0057
 507  -304.4459
 508  -231.1898
 509  -395.127
 510  -73.06766
 511  -254.2155
