# Input file       =  1209632602.116271_cleaned.dat
# Candidate        =  PSR_0332+5434
# Telescope        =  AR
# Epoch_topo       =  58244.377559216096
# Epoch_bary       =  N/A
# T_sample         =  0.002
# Data Folded      =  7340032
# Data Avg         =  0.0824593080677529
# Data StdDev      =  4.46809742952347 
# Profile Bins     =  256
# Profile Avg      =  2363.4295853727  
# Profile StdDev   =  756.574376456068 
# Reduced chi-sqr  =  1.355
# Prob(Noise)      <  0.000134   (~3.6 sigma)
# P_topo (ms)      =  714.541815959372  +/- 0.000435
# P'_topo (s/s)    =  -0                +/- 2.3e-10
# P''_topo (s/s^2) =  0                 +/- 1.01e-13
# P_bary (ms)      =  N/A
# P'_bary (s/s)    =  N/A
# P''_bary (s/s^2) =  N/A
# P_orb (s)        =  N/A
# asin(i)/c (s)    =  N/A
# eccentricity     =  N/A
# w (rad)          =  N/A
# T_peri           =  N/A
######################################################
   0  1965.706
   1  2323.332
   2  2122.834
   3  1644.01
   4  2030.345
   5  2228.987
   6  2949.879
   7  2790.918
   8  3419.19
   9  3156.979
  10  2565.146
  11  2069.875
  12  2732.21
  13  2779.88
  14  2467.798
  15  2147.168
  16  1905.307
  17  1756.683
  18  2099.58
  19  2335.012
  20  2201.372
  21  2117.533
  22  2594.684
  23  2629.06
  24  2708.234
  25  2701.123
  26  2269.327
  27  2300.346
  28  2369.777
  29  3000.747
  30  2661.417
  31  2355.241
  32  2038.869
  33  2170.9
  34  1165.485
  35  2145.968
  36  1512.642
  37  1756.992
  38  1490.307
  39  2581.972
  40  2670.256
  41  2689.396
  42  2586.332
  43  2210.15
  44  1813.544
  45  2202.796
  46  3110.118
  47  3061.25
  48  2464.072
  49  2986.688
  50  2733.928
  51  3090.511
  52  1758.199
  53  2838.596
  54  2954.181
  55  3698.293
  56  4334.239
  57  3474.586
  58  4053.318
  59  3411.327
  60  2923.366
  61  2870.331
  62  3268.832
  63  3275.1
  64  2932.276
  65  2767.226
  66  2721.707
  67  2146.432
  68  1970.312
  69  2050.876
  70  2504.327
  71  2329.464
  72  3096.502
  73  2819.126
  74  2377.246
  75  1573.093
  76  1795.281
  77  1631.549
  78  1383.46
  79  1492.707
  80  1587.194
  81  1761.879
  82  1553.413
  83  1693.991
  84  1387.226
  85  1606.322
  86  1689.082
  87  1772.924
  88  2461.153
  89  2772.048
  90  2562.291
  91  2330.756
  92  3065.586
  93  2496.395
  94  2262.195
  95  1788.84
  96  1980.795
  97  2216.491
  98  1934.21
  99  2242.525
 100  1933.87
 101  2186.705
 102  2169.707
 103  2273.771
 104  2027.881
 105  2641.115
 106  2316.906
 107  2602.204
 108  1513.192
 109  2095.536
 110  1687.636
 111  2040.15
 112  2451.715
 113  2454.439
 114  2037.113
 115  2006.844
 116  2574.242
 117  2279.688
 118  1295.155
 119  1344.917
 120  1938.974
 121  1971.968
 122  1738.559
 123  1585.704
 124  1537.338
 125  1813.665
 126  1122.149
 127  1572.301
 128  1585.934
 129  1688.258
 130  2041.103
 131  1875.914
 132  1876.098
 133  2429.48
 134  2007.897
 135  1444.28
 136  952.6501
 137  2053.982
 138  2590.836
 139  2595.376
 140  2860.972
 141  3152.348
 142  2239.385
 143  2620.165
 144  2043.535
 145  2722.595
 146  2812.38
 147  3486.493
 148  4327.448
 149  6269.143
 150  7140.147
 151  6049.385
 152  4371.432
 153  3462.027
 154  3456.458
 155  2487.449
 156  3259.867
 157  3220.92
 158  3385.264
 159  2471.478
 160  2292.154
 161  2636.845
 162  2184.165
 163  2929.712
 164  2584.316
 165  2641.088
 166  2294.111
 167  2080.035
 168  2271.517
 169  2700.561
 170  3204.139
 171  2290.21
 172  2300.074
 173  2242.284
 174  2095.4
 175  2284.809
 176  2285.553
 177  2798.461
 178  2487.276
 179  1783.983
 180  2388.932
 181  2146.421
 182  1849.227
 183  1469.522
 184  1421.502
 185  640.3437
 186  1440.841
 187  1606.675
 188  1644.851
 189  1655.811
 190  2552.523
 191  903.8271
 192  556.6378
 193  1131.687
 194  1452.761
 195  1348.813
 196  1352.113
 197  2201.413
 198  2560.157
 199  2771.16
 200  2044.782
 201  2189.253
 202  2242.476
 203  2091.227
 204  2403.358
 205  2938.173
 206  2092.37
 207  2402.988
 208  2369.372
 209  2064.437
 210  2698.355
 211  2806.429
 212  2100.843
 213  2559.725
 214  2722.437
 215  2917.511
 216  2474.139
 217  2703.433
 218  3010.385
 219  2798.215
 220  2893.02
 221  2882.42
 222  3624.445
 223  3157.617
 224  2841.772
 225  2367.622
 226  2407.705
 227  3127.429
 228  2810.452
 229  2458.941
 230  3065.542
 231  3069.652
 232  2164.881
 233  2604.652
 234  1746.422
 235  2421.958
 236  2326.589
 237  2115.502
 238  2811.638
 239  2190.481
 240  2371.494
 241  2052.671
 242  1944.538
 243  1574.872
 244  2631.143
 245  2486.18
 246  2003.981
 247  1883.901
 248  2129.476
 249  1420.108
 250  1574.378
 251  1777.559
 252  1685.485
 253  1531.343
 254  2013.674
 255  2063.326
