# Input file       =  1209546443.111069-PSRB0329-2ms-sampling-dd.dat
# Candidate        =  PSR_0332+5434
# Telescope        =  AR
# Epoch_topo       =  58243.380348507744
# Epoch_bary       =  N/A
# T_sample         =  0.002
# Data Folded      =  7340032
# Data Avg         =  -7.32976146446242e-11
# Data StdDev      =  10.029257927521  
# Profile Bins     =  512
# Profile Avg      =  3.27935382019342 
# Profile StdDev   =  1200.83350426785 
# Reduced chi-sqr  =  0.830
# Prob(Noise)      <  0.998   (~0.0 sigma)
# P_topo (ms)      =  714.542741231207  +/- 0.00058
# P'_topo (s/s)    =  -0                +/- 3.06e-10
# P''_topo (s/s^2) =  0                 +/- 1.35e-13
# P_bary (ms)      =  N/A
# P'_bary (s/s)    =  N/A
# P''_bary (s/s^2) =  N/A
# P_orb (s)        =  N/A
# asin(i)/c (s)    =  N/A
# eccentricity     =  N/A
# w (rad)          =  N/A
# T_peri           =  N/A
######################################################
   0  -382.5258
   1  -11.32637
   2  109.6039
   3  377.9309
   4  -14.77731
   5  343.5261
   6  616.1487
   7  977.271
   8  723.7374
   9  312.4695
  10  764.9731
  11  591.5059
  12  468.18
  13  413.9205
  14  743.4035
  15  676.584
  16  550.556
  17  430.6936
  18  269.1899
  19  283.3436
  20  184.3796
  21  81.2766
  22  96.36787
  23  203.3814
  24  161.8941
  25  147.4454
  26  -75.88995
  27  -135.6803
  28  129.161
  29  120.2396
  30  218.8838
  31  207.253
  32  30.53652
  33  240.362
  34  438.7311
  35  463.7818
  36  663.5869
  37  765.2214
  38  507.0565
  39  861.4285
  40  790.8498
  41  814.7808
  42  794.9439
  43  435.9323
  44  -38.07064
  45  375.3463
  46  519.1061
  47  529.5812
  48  321.2101
  49  491.7637
  50  250.0363
  51  -92.93259
  52  -165.2259
  53  243.6009
  54  465.3443
  55  309.5388
  56  629.2905
  57  432.053
  58  360.9983
  59  153.711
  60  9.036538
  61  -120.4353
  62  -52.92918
  63  104.6169
  64  301.457
  65  299.0829
  66  -71.04407
  67  -45.75138
  68  -281.2243
  69  -174.0878
  70  -295.1117
  71  -102.4239
  72  -6.478113
  73  -3.804055
  74  -39.41809
  75  -175.8349
  76  -410.7626
  77  -251.5004
  78  -119.1993
  79  -148.4453
  80  52.48856
  81  -103.3836
  82  -285.636
  83  -111.6662
  84  -22.94116
  85  -215.745
  86  173.932
  87  202.4799
  88  208.9709
  89  393.8595
  90  367.8395
  91  271.0628
  92  106.3372
  93  47.85457
  94  -98.63882
  95  292.1865
  96  287.6476
  97  72.54913
  98  338.7635
  99  407.4673
 100  621.6086
 101  79.81275
 102  45.67793
 103  348.3902
 104  486.2045
 105  82.64251
 106  -248.0385
 107  48.73383
 108  301.312
 109  47.29552
 110  -37.82326
 111  -326.9914
 112  -380.7961
 113  -192.6493
 114  40.04284
 115  62.42666
 116  80.79285
 117  -107.1514
 118  11.41418
 119  -177.625
 120  -222.4894
 121  -85.00137
 122  31.35908
 123  289.9115
 124  -95.98891
 125  109.8863
 126  -126.5124
 127  -127.2692
 128  -195.4551
 129  23.96607
 130  -72.25583
 131  -161.8033
 132  -20.17006
 133  361.2843
 134  349.8263
 135  -140.9271
 136  327.1457
 137  236.4889
 138  69.19519
 139  106.1232
 140  21.2303
 141  -76.22758
 142  -58.26232
 143  180.0853
 144  -349.5056
 145  -670.4416
 146  -442.5238
 147  -163.1189
 148  -201.6111
 149  -242.9863
 150  287.2242
 151  936.9473
 152  1113.463
 153  1653.472
 154  886.012
 155  478.4847
 156  1414.405
 157  1760.199
 158  1589.697
 159  826.9434
 160  575.9388
 161  147.5837
 162  -600.3044
 163  -537.3021
 164  -287.9418
 165  -299.7461
 166  -137.8909
 167  -77.90355
 168  79.25726
 169  408.9157
 170  361.5464
 171  562.864
 172  804.1304
 173  905.4361
 174  1039.025
 175  1636.683
 176  2068.632
 177  1744.449
 178  1669.338
 179  1450.521
 180  1063.017
 181  534.6209
 182  250.5618
 183  446.9302
 184  564.8158
 185  588.4055
 186  403.5324
 187  103.9864
 188  390.7867
 189  935.5303
 190  937.3438
 191  554.1993
 192  307.7559
 193  286.1177
 194  448.4995
 195  456.1706
 196  96.3711
 197  310.507
 198  203.1008
 199  213.115
 200  38.21561
 201  116.8151
 202  287.7139
 203  486.501
 204  552.5943
 205  459.5605
 206  150.3661
 207  456.2681
 208  5.777331
 209  -24.49541
 210  84.40433
 211  251.0802
 212  6.542924
 213  158.5065
 214  270.6786
 215  251.5162
 216  -15.28935
 217  -64.08746
 218  8.28483
 219  -259.0425
 220  -306.8391
 221  -480.4815
 222  -418.8668
 223  -218.6387
 224  -391.7727
 225  -757.5277
 226  -991.9451
 227  -558.2312
 228  -278.0933
 229  -548.9312
 230  -583.3616
 231  -299.5978
 232  102.9221
 233  89.05806
 234  -247.8997
 235  -309.1912
 236  -125.8732
 237  205.5606
 238  -173.1247
 239  -255.8477
 240  -258.7042
 241  -328.9174
 242  -349.4034
 243  -198.749
 244  -420.6699
 245  -363.0533
 246  -208.6582
 247  -394.1418
 248  -502.2328
 249  -893.5329
 250  -890.5261
 251  -991.7413
 252  -1081.482
 253  -1094.985
 254  -862.2658
 255  -915.7865
 256  -978.9713
 257  -1208.557
 258  -1214.518
 259  -1318.844
 260  -1539.48
 261  -1227.068
 262  -1190.088
 263  -1270.703
 264  -1036.345
 265  -984.5277
 266  -1127.159
 267  -1260.799
 268  -1110.538
 269  -690.5176
 270  -865.3904
 271  -586.5453
 272  -560.9353
 273  -920.9047
 274  -916.6306
 275  -1164.488
 276  -725.6616
 277  -657.8977
 278  -852.5215
 279  -658.256
 280  -693.8209
 281  -669.6623
 282  -690.371
 283  -496.647
 284  -493.6549
 285  -795.3636
 286  -634.5366
 287  -499.1628
 288  -390.2107
 289  -473.0588
 290  -467.6171
 291  -359.2709
 292  -293.5715
 293  -385.4266
 294  -706.7794
 295  -617.6377
 296  -236.9919
 297  -269.8067
 298  -550.5856
 299  -697.9183
 300  -436.8015
 301  -260.4856
 302  -500.3466
 303  -873.6056
 304  1227.461
 305  2023.173
 306  2579.159
 307  3572.761
 308  2881.567
 309  1643.088
 310  -1559.74
 311  2412.813
 312  5011.513
 313  6348.23
 314  6159.549
 315  4356.884
 316  1031.807
 317  -465.5601
 318  -469.31
 319  -461.8072
 320  -269.4104
 321  -88.0959
 322  -95.43681
 323  -329.7889
 324  -396.9182
 325  -280.4563
 326  -557.6214
 327  -522.6838
 328  -259.6436
 329  -451.6093
 330  -179.9199
 331  -46.32056
 332  -112.0107
 333  -107.574
 334  -308.3597
 335  -13.01615
 336  64.5621
 337  -114.1596
 338  -329.6317
 339  20.82604
 340  -160.0243
 341  -10.80172
 342  180.8466
 343  -201.5974
 344  36.8343
 345  -154.4885
 346  344.9453
 347  335.9663
 348  477.8689
 349  607.0354
 350  586.16
 351  454.1079
 352  470.1378
 353  267.2456
 354  54.5745
 355  56.26346
 356  -13.48276
 357  514.1143
 358  405.2736
 359  101.3278
 360  151.6711
 361  201.9771
 362  284.4796
 363  22.28798
 364  -35.66187
 365  219.6667
 366  252.7139
 367  228.2836
 368  101.9036
 369  -324.8005
 370  -555.8008
 371  -473.7344
 372  -638.3529
 373  -752.9269
 374  -551.7798
 375  -626.7084
 376  -1126.165
 377  -1226.691
 378  -1373.906
 379  -1037.583
 380  -559.4957
 381  -79.75021
 382  215.8834
 383  187.0041
 384  410.3693
 385  -403.8
 386  -923.2823
 387  186.0713
 388  729.3386
 389  766.0188
 390  985.51
 391  455.8987
 392  -292.8013
 393  -244.8314
 394  175.6111
 395  210.2099
 396  48.19653
 397  -859.9769
 398  -689.389
 399  735.9988
 400  692.673
 401  734.6928
 402  767.7454
 403  -672.1513
 404  -707.9319
 405  -1276.036
 406  -1284.117
 407  -1092.757
 408  -944.3292
 409  -1435.375
 410  -1727.795
 411  -1338.803
 412  -1208.652
 413  -1030.889
 414  -651.0447
 415  -681.996
 416  -433.8089
 417  -777.4016
 418  -1154.364
 419  -1173.992
 420  -883.7419
 421  -795.0655
 422  -1049.866
 423  -786.2698
 424  -641.6483
 425  -1007.601
 426  -1002.265
 427  -863.763
 428  -728.5294
 429  -538.9341
 430  -564.5815
 431  -530.8641
 432  -570.3718
 433  -666.2316
 434  -632.9872
 435  -787.5247
 436  -806.4015
 437  -476.7211
 438  -68.3691
 439  11.1044
 440  139.034
 441  266.2386
 442  376.2789
 443  363.1269
 444  70.29086
 445  21.46576
 446  -14.60252
 447  76.57005
 448  -77.43388
 449  -503.8745
 450  -539.7926
 451  -238.3777
 452  -151.554
 453  -85.35976
 454  -241.2304
 455  -169.9697
 456  -49.57313
 457  -79.84971
 458  -339.262
 459  -158.158
 460  173.3822
 461  -25.41114
 462  -22.39957
 463  240.4751
 464  25.23662
 465  -172.9656
 466  -150.5609
 467  -20.7895
 468  322.1445
 469  214.0119
 470  309.2229
 471  300.5645
 472  1.26031
 473  531.1414
 474  645.4136
 475  513.9521
 476  110.0386
 477  -408.6816
 478  -194.7701
 479  -208.0931
 480  -213.2023
 481  -29.68919
 482  -246.3811
 483  -275.0155
 484  -192.0408
 485  -149.4364
 486  -310.9793
 487  -39.85398
 488  -145.9576
 489  -54.10458
 490  -55.60177
 491  -330.2612
 492  -178.4168
 493  -125.7734
 494  57.0499
 495  114.5098
 496  75.6031
 497  245.0171
 498  -53.85921
 499  90.15194
 500  -37.71776
 501  -249.9836
 502  -414.8628
 503  -528.2405
 504  -284.5946
 505  35.40319
 506  -149.947
 507  104.7277
 508  -31.19876
 509  95.03016
 510  -220.3316
 511  -268.7047
