# Input file       =  1209130620.106693_cleaned.dat
# Candidate        =  PSR_0332+5434
# Telescope        =  AR
# Epoch_topo       =  58238.567582253389
# Epoch_bary       =  N/A
# T_sample         =  0.002
# Data Folded      =  7340032
# Data Avg         =  0.0342302061148756
# Data StdDev      =  1.000032371349   
# Profile Bins     =  512
# Profile Avg      =  490.697894788971 
# Profile StdDev   =  119.736912296674 
# Reduced chi-sqr  =  1.401
# Prob(Noise)      <  5.17e-09   (~5.7 sigma)
# P_topo (ms)      =  714.547455587971  +/- 0.000311
# P'_topo (s/s)    =  -0                +/- 1.64e-10
# P''_topo (s/s^2) =  0                 +/- 7.24e-14
# P_bary (ms)      =  N/A
# P'_bary (s/s)    =  N/A
# P''_bary (s/s^2) =  N/A
# P_orb (s)        =  N/A
# asin(i)/c (s)    =  N/A
# eccentricity     =  N/A
# w (rad)          =  N/A
# T_peri           =  N/A
######################################################
   0  373.1646
   1  449.2906
   2  593.6479
   3  500.0437
   4  426.5998
   5  435.245
   6  384.6488
   7  356.0249
   8  428.5048
   9  540.2395
  10  489.7666
  11  381.7611
  12  424.6799
  13  497.8349
  14  515.2103
  15  627.9825
  16  621.9299
  17  549.0109
  18  451.8749
  19  434.9811
  20  468.9721
  21  473.8937
  22  568.6147
  23  596.0349
  24  584.7654
  25  476.9789
  26  398.8146
  27  495.4653
  28  501.86
  29  435.7014
  30  511.5948
  31  490.7868
  32  495.1856
  33  493.8706
  34  527.4152
  35  637.5816
  36  564.2467
  37  500.8301
  38  511.9341
  39  526.5822
  40  645.8826
  41  613.7899
  42  598.2373
  43  623.7108
  44  616.3455
  45  644.1503
  46  716.8818
  47  652.6539
  48  699.3969
  49  897.5214
  50  938.092
  51  1047.428
  52  1108.894
  53  1154.175
  54  841.1859
  55  506.4866
  56  421.8051
  57  450.2407
  58  522.0559
  59  385.95
  60  298.4615
  61  311.6602
  62  339.1212
  63  382.4683
  64  458.3461
  65  420.3167
  66  441.3212
  67  495.1261
  68  451.4874
  69  401.3453
  70  452.9624
  71  453.4858
  72  428.8102
  73  508.3879
  74  529.5911
  75  457.1861
  76  419.5149
  77  438.2202
  78  549.7097
  79  481.6615
  80  571.4426
  81  641.7828
  82  464.3038
  83  443.8478
  84  551.7166
  85  624.1021
  86  611.9655
  87  581.9334
  88  533.0136
  89  508.7976
  90  600.7878
  91  564.5839
  92  488.2551
  93  540.4838
  94  456.5629
  95  472.1118
  96  358.3305
  97  444.6852
  98  506.2927
  99  509.5997
 100  535.18
 101  525.9929
 102  437.0625
 103  406.1209
 104  424.7531
 105  490.792
 106  541.3982
 107  547.1752
 108  420.4269
 109  479.8726
 110  584.289
 111  479.7696
 112  415.4529
 113  433.0639
 114  425.265
 115  481.36
 116  485.6708
 117  411.2671
 118  545.7712
 119  520.8255
 120  451.36
 121  357.7499
 122  540.2085
 123  619.6127
 124  454.1558
 125  448.2325
 126  513.9054
 127  543.759
 128  601.2731
 129  592.102
 130  565.7498
 131  383.093
 132  506.4207
 133  489.288
 134  439.1068
 135  450.0887
 136  413.2766
 137  324.4899
 138  446.3724
 139  494.4156
 140  426.1726
 141  459.8741
 142  457.6932
 143  540.8859
 144  509.169
 145  621.6213
 146  545.9783
 147  432.4117
 148  504.6114
 149  534.8638
 150  479.4978
 151  482.1853
 152  442.4301
 153  472.8948
 154  421.385
 155  491.4455
 156  650.3499
 157  567.25
 158  451.2465
 159  405.0557
 160  402.3979
 161  589.6758
 162  436.9215
 163  440.7003
 164  502.1548
 165  496.8899
 166  463.8715
 167  434.4415
 168  419.8126
 169  466.3684
 170  526.5213
 171  489.6912
 172  501.3338
 173  444.0584
 174  376.3766
 175  435.2752
 176  340.4166
 177  502.9152
 178  384.1949
 179  324.1253
 180  391.7646
 181  559.5291
 182  462.591
 183  440.2794
 184  391.7103
 185  398.4013
 186  483.0547
 187  656.0697
 188  672.1993
 189  581.7268
 190  514.486
 191  529.7202
 192  474.5203
 193  430.5713
 194  569.1808
 195  519.8979
 196  557.9052
 197  650.7416
 198  588.3053
 199  584.9904
 200  533.1183
 201  523.39
 202  484.949
 203  490.7204
 204  408.5006
 205  434.3909
 206  475.2661
 207  404.4404
 208  399.3965
 209  425.1582
 210  513.9673
 211  472.2672
 212  336.7378
 213  383.2728
 214  445.4838
 215  443.4288
 216  301.0258
 217  300.759
 218  484.5124
 219  473.2242
 220  467.6464
 221  466.9595
 222  475.4917
 223  558.5617
 224  509.8439
 225  477.7723
 226  546.6113
 227  611.1881
 228  571.349
 229  608.3564
 230  619.6053
 231  552.8091
 232  573.2521
 233  579.848
 234  546.4668
 235  411.1075
 236  403.8989
 237  486.9576
 238  511.5865
 239  429.0873
 240  418.8925
 241  491.819
 242  571.3707
 243  565.5909
 244  578.3976
 245  612.7402
 246  523.6281
 247  493.6063
 248  497.7013
 249  496.3162
 250  515.4396
 251  408.5005
 252  448.8489
 253  523.5842
 254  520.108
 255  563.5571
 256  529.0667
 257  397.555
 258  458.4892
 259  604.3135
 260  530.7876
 261  520.2106
 262  536.8112
 263  521.98
 264  500.4622
 265  470.9979
 266  438.36
 267  417.4939
 268  575.9598
 269  492.0151
 270  424.8989
 271  365.4546
 272  487.6189
 273  478.2322
 274  422.3832
 275  514.959
 276  530.7236
 277  544.1091
 278  487.9721
 279  343.3947
 280  388.8246
 281  474.582
 282  460.25
 283  455.0798
 284  416.6319
 285  460.9227
 286  482.0659
 287  446.7463
 288  440.8248
 289  556.8667
 290  653.8253
 291  530.5027
 292  422.723
 293  384.1141
 294  482.7165
 295  453.9916
 296  494.8838
 297  529.3826
 298  547.6014
 299  577.1242
 300  535.5901
 301  580.3182
 302  573.4708
 303  546.0684
 304  547.7713
 305  544.9874
 306  493.5289
 307  552.6768
 308  580.2594
 309  626.9974
 310  508.8387
 311  536.111
 312  610.6915
 313  578.7772
 314  437.2261
 315  505.1937
 316  567.0089
 317  567.5618
 318  565.3049
 319  640.15
 320  554.9683
 321  492.8365
 322  428.8805
 323  437.2978
 324  512.951
 325  448.4211
 326  492.6268
 327  460.4976
 328  486.4525
 329  463.916
 330  481.4994
 331  464.8135
 332  380.7808
 333  451.9268
 334  511.6469
 335  526.8318
 336  458.4621
 337  473.9611
 338  400.1852
 339  346.1884
 340  285.1912
 341  476.8791
 342  668.0168
 343  741.4718
 344  549.5982
 345  364.1951
 346  295.7552
 347  384.6746
 348  493.6944
 349  545.9092
 350  457.0617
 351  356.4442
 352  381.9599
 353  444.8599
 354  385.1201
 355  378.5576
 356  252.7487
 357  287.9615
 358  385.6196
 359  398.2436
 360  428.6354
 361  487.1819
 362  471.844
 363  527.483
 364  564.5412
 365  639.2927
 366  632.3368
 367  533.7612
 368  582.0295
 369  642.5524
 370  562.9736
 371  555.1589
 372  564.6613
 373  583.8343
 374  613.7832
 375  677.2983
 376  636.3303
 377  602.9044
 378  522.7734
 379  534.1146
 380  519.1361
 381  578.7245
 382  504.5264
 383  384.4455
 384  538.8865
 385  616.2164
 386  593.8035
 387  564.1826
 388  449.9045
 389  489.463
 390  504.1328
 391  584.972
 392  586.814
 393  632.2274
 394  594.5712
 395  443.9406
 396  555.7346
 397  525.5388
 398  536.4223
 399  519.2163
 400  625.919
 401  644.6863
 402  522.1188
 403  519.0225
 404  547.8297
 405  478.094
 406  458.7066
 407  435.3543
 408  412.5401
 409  493.1697
 410  510.2328
 411  453.1552
 412  537.0275
 413  375.1684
 414  335.2317
 415  408.4043
 416  426.9199
 417  451.449
 418  528.1791
 419  526.0504
 420  386.458
 421  388.3014
 422  394.5087
 423  308.8274
 424  261.2801
 425  282.2905
 426  276.063
 427  263.1768
 428  374.3134
 429  376.7798
 430  447.0217
 431  395.8706
 432  386.7205
 433  555.2321
 434  598.052
 435  467.6324
 436  399.5108
 437  403.8378
 438  467.469
 439  472.7192
 440  565.8412
 441  552.3997
 442  603.9757
 443  564.4425
 444  545.725
 445  539.0466
 446  438.3436
 447  529.4654
 448  649.8069
 449  636.4669
 450  523.5083
 451  546.7559
 452  499.5097
 453  497.7719
 454  516.2906
 455  514.9819
 456  447.4518
 457  481.5774
 458  570.2192
 459  567.2255
 460  600.5989
 461  605.5401
 462  426.8409
 463  410.0929
 464  390.4708
 465  394.3558
 466  453.9181
 467  439.6954
 468  514.312
 469  464.5408
 470  430.4807
 471  396.7578
 472  539.3115
 473  544.285
 474  454.9983
 475  383.2557
 476  536.5906
 477  444.6287
 478  379.9482
 479  372.0881
 480  490.7955
 481  392.2211
 482  326.5934
 483  375.0766
 484  349.4613
 485  508.9211
 486  537.4614
 487  412.3946
 488  314.3897
 489  397.2725
 490  413.1682
 491  466.2886
 492  508.0009
 493  530.3713
 494  535.3516
 495  441.5838
 496  355.2629
 497  318.9875
 498  440.254
 499  321.2897
 500  271.7448
 501  307.3632
 502  353.4479
 503  364.4444
 504  322.6865
 505  229.9314
 506  348.4135
 507  378.1559
 508  329.5993
 509  353.4955
 510  380.2044
 511  392.2245
