# Input file       =  1209790337.117914_cleaned.dat
# Candidate        =  PSR_0332+5434
# Telescope        =  AR
# Epoch_topo       =  58246.203195809190
# Epoch_bary       =  N/A
# T_sample         =  0.002
# Data Folded      =  7208960
# Data Avg         =  0.0395060831862373
# Data StdDev      =  1.0000497539487  
# Profile Bins     =  512
# Profile Avg      =  556.082580551957 
# Profile StdDev   =  118.665079556076 
# Reduced chi-sqr  =  2.237
# Prob(Noise)      <  2.27e-50   (~14.9 sigma)
# P_topo (ms)      =  714.5400960843    +/- 3.05e-05
# P'_topo (s/s)    =  -0                +/- 1.64e-11
# P''_topo (s/s^2) =  0                 +/- 7.36e-15
# P_bary (ms)      =  N/A
# P'_bary (s/s)    =  N/A
# P''_bary (s/s^2) =  N/A
# P_orb (s)        =  N/A
# asin(i)/c (s)    =  N/A
# eccentricity     =  N/A
# w (rad)          =  N/A
# T_peri           =  N/A
######################################################
   0  551.6191
   1  449.8499
   2  438.9431
   3  412.1902
   4  467.5956
   5  565.2048
   6  507.0956
   7  632.6104
   8  654.1279
   9  609.8824
  10  502.8426
  11  390.8986
  12  368.0698
  13  400.6827
  14  521.2544
  15  507.0164
  16  534.7708
  17  605.1132
  18  520.0865
  19  477.0185
  20  470.9417
  21  567.1172
  22  538.9843
  23  576.1657
  24  771.0023
  25  668.3701
  26  513.4476
  27  433.5632
  28  542.3618
  29  532.3994
  30  564.0498
  31  592.4348
  32  473.4099
  33  368.2714
  34  301.1519
  35  485.1767
  36  466.2108
  37  537.2575
  38  791.9216
  39  779.2136
  40  862.636
  41  952.4279
  42  1122.926
  43  1244.815
  44  1320.111
  45  1135.534
  46  1117.058
  47  967.5544
  48  752.3203
  49  576.1363
  50  604.1584
  51  577.1658
  52  491.8804
  53  521.6381
  54  561.067
  55  688.0362
  56  843.2792
  57  870.3237
  58  787.5407
  59  746.5272
  60  690.8215
  61  526.4494
  62  505.5381
  63  588.049
  64  651.0815
  65  778.5015
  66  683.8163
  67  622.7794
  68  409.5058
  69  321.6704
  70  511.9568
  71  620.5577
  72  675.7701
  73  685.8365
  74  812.4559
  75  752.2471
  76  643.4116
  77  553.9957
  78  427.0891
  79  576.5154
  80  733.3491
  81  769.0386
  82  598.0747
  83  569.12
  84  487.0493
  85  354.1
  86  540.5773
  87  585.903
  88  556.0276
  89  689.0556
  90  639.1559
  91  656.3901
  92  664.803
  93  588.9562
  94  503.1701
  95  462.6551
  96  527.6668
  97  629.3939
  98  623.9747
  99  751.7842
 100  730.7985
 101  548.3169
 102  500.2516
 103  546.8635
 104  716.9342
 105  689.4577
 106  699.3544
 107  797.2509
 108  682.3296
 109  475.1434
 110  581.5462
 111  528.0781
 112  574.5726
 113  540.9775
 114  564.4748
 115  674.777
 116  644.1683
 117  577.2133
 118  478.3812
 119  407.7067
 120  539.1887
 121  704.4186
 122  812.6879
 123  646.0287
 124  666.6942
 125  659.7165
 126  543.0684
 127  430.3151
 128  323.7249
 129  493.7616
 130  668.7296
 131  687.5971
 132  702.0563
 133  448.3297
 134  391.2203
 135  389.8242
 136  471.0763
 137  499.7695
 138  677.3569
 139  786.0334
 140  743.6627
 141  719.5418
 142  606.0776
 143  452.1344
 144  349.5707
 145  459.625
 146  556.8361
 147  636.4092
 148  749.0336
 149  629.8994
 150  316.9403
 151  282.6335
 152  459.5522
 153  573.4342
 154  601.4064
 155  670.8132
 156  757.5397
 157  776.6188
 158  602.6189
 159  499.363
 160  370.6397
 161  473.4127
 162  538.2627
 163  593.4832
 164  633.525
 165  552.6531
 166  657.1746
 167  603.6136
 168  402.3654
 169  318.3583
 170  530.5648
 171  636.377
 172  609.098
 173  679.1224
 174  622.1918
 175  526.9114
 176  535.5833
 177  509.0737
 178  494.0381
 179  489.7957
 180  571.394
 181  551.306
 182  557.6823
 183  544.6711
 184  531.1179
 185  513.4255
 186  486.338
 187  649.7484
 188  644.8237
 189  609.8599
 190  487.1617
 191  422.6104
 192  503.0446
 193  539.4298
 194  564.2253
 195  510.3023
 196  568.6463
 197  556.1693
 198  532.1198
 199  480.6251
 200  467.9804
 201  533.1525
 202  515.4206
 203  580.5814
 204  614.7205
 205  617.8074
 206  704.321
 207  539.0795
 208  556.1401
 209  466.9293
 210  536.1974
 211  568.441
 212  581.4447
 213  700.1733
 214  651.9205
 215  584.4124
 216  423.7022
 217  527.1336
 218  487.0195
 219  470.4416
 220  547.7294
 221  694.051
 222  749.9891
 223  706.0516
 224  617.4435
 225  496.9219
 226  476.9156
 227  551.8585
 228  578.668
 229  548.0002
 230  581.3129
 231  455.2084
 232  442.9583
 233  490.6244
 234  445.6714
 235  486.1581
 236  597.2798
 237  714.8559
 238  771.8989
 239  650.7468
 240  617.1886
 241  447.6842
 242  454.3935
 243  460.8118
 244  572.7476
 245  514.4497
 246  547.8116
 247  642.1915
 248  690.6339
 249  558.6988
 250  372.7713
 251  450.7846
 252  499.6819
 253  435.0429
 254  529.8146
 255  589.8589
 256  529.7946
 257  533.8069
 258  382.8622
 259  345.1137
 260  363.2485
 261  434.0657
 262  513.5494
 263  450.6045
 264  498.3504
 265  502.1226
 266  591.5008
 267  461.0443
 268  469.3711
 269  537.5349
 270  554.8589
 271  632.0973
 272  688.4594
 273  612.0679
 274  381.2248
 275  384.6369
 276  431.5749
 277  570.6534
 278  536.5724
 279  518.7183
 280  558.5837
 281  509.2743
 282  528.6157
 283  528.9978
 284  539.8949
 285  481.7328
 286  734.7451
 287  799.313
 288  796.6406
 289  645.3641
 290  548.4812
 291  569.3111
 292  397.0305
 293  491.8531
 294  518.1746
 295  520.4047
 296  654.2263
 297  531.5899
 298  504.0699
 299  553.472
 300  488.4868
 301  414.2729
 302  631.0388
 303  567.5659
 304  603.1976
 305  666.348
 306  627.1432
 307  607.5269
 308  447.4213
 309  423.5938
 310  396.98
 311  400.3585
 312  548.9387
 313  492.3459
 314  449.3877
 315  543.2193
 316  472.692
 317  476.5044
 318  582.4595
 319  629.5118
 320  646.8406
 321  680.3343
 322  626.4695
 323  564.9872
 324  504.6213
 325  474.6197
 326  482.6016
 327  557.7701
 328  565.1884
 329  539.9211
 330  461.9976
 331  490.752
 332  509.0961
 333  415.381
 334  330.9648
 335  482.9913
 336  513.2876
 337  556.9832
 338  568.7095
 339  587.6857
 340  451.4307
 341  400.4554
 342  355.8483
 343  347.8881
 344  408.8834
 345  557.6403
 346  539.614
 347  493.6271
 348  361.8797
 349  387.935
 350  427.9445
 351  529.3279
 352  594.8899
 353  607.6569
 354  601.8718
 355  650.1729
 356  589.962
 357  521.3179
 358  352.8038
 359  348.4004
 360  394.1186
 361  377.2136
 362  442.6732
 363  482.9459
 364  462.3016
 365  414.167
 366  299.2018
 367  392.4927
 368  568.3385
 369  704.7635
 370  641.5898
 371  611.7552
 372  423.3317
 373  342.5699
 374  355.4761
 375  407.1368
 376  462.4405
 377  514.287
 378  665.6143
 379  568.9865
 380  544.8213
 381  470.8973
 382  418.331
 383  441.6576
 384  386.7912
 385  407.9319
 386  613.671
 387  818.8953
 388  756.6108
 389  635.1179
 390  569.6562
 391  454.267
 392  433.2598
 393  541.8744
 394  479.1145
 395  525.1875
 396  544.7681
 397  491.1742
 398  469.8642
 399  367.5147
 400  449.9052
 401  595.9442
 402  653.1707
 403  630.8065
 404  674.1261
 405  657.3259
 406  747.0004
 407  490.7549
 408  456.6898
 409  468.9724
 410  524.7551
 411  413.5611
 412  380.3152
 413  450.9951
 414  554.0855
 415  500.2009
 416  470.1126
 417  558.8394
 418  559.4426
 419  634.1842
 420  668.1201
 421  606.2478
 422  589.4618
 423  479.1876
 424  428.2592
 425  404.072
 426  390.5426
 427  411.2618
 428  597.565
 429  727.6895
 430  680.6299
 431  582.4954
 432  485.2022
 433  558.896
 434  668.0343
 435  670.3152
 436  697.549
 437  682.0941
 438  680.0072
 439  631.697
 440  572.4915
 441  595.3789
 442  534.1628
 443  508.2684
 444  569.6981
 445  614.0893
 446  645.404
 447  503.6661
 448  451.3111
 449  347.3293
 450  519.245
 451  539.1746
 452  630.3168
 453  747.597
 454  706.9714
 455  604.1768
 456  543.1157
 457  582.2753
 458  553.6851
 459  542.117
 460  620.0891
 461  596.7088
 462  658.0813
 463  486.2003
 464  431.3813
 465  524.5825
 466  568.3454
 467  608.5874
 468  598.0637
 469  726.203
 470  752.056
 471  688.4911
 472  564.0109
 473  456.6897
 474  389.4868
 475  491.3212
 476  448.966
 477  514.5267
 478  665.1353
 479  559.0681
 480  553.3245
 481  575.0737
 482  490.6796
 483  462.6754
 484  561.7521
 485  641.1678
 486  660.7203
 487  633.6456
 488  511.6747
 489  500.3283
 490  369.5545
 491  331.7383
 492  422.6897
 493  343.5339
 494  561.3022
 495  704.2338
 496  689.9496
 497  478.1726
 498  380.8349
 499  360.6269
 500  417.0459
 501  471.3732
 502  540.3093
 503  598.881
 504  617.1433
 505  537.3806
 506  439.1999
 507  446.4012
 508  485.6341
 509  444.3432
 510  477.355
 511  575.8564
