# Input file       =  1209130620.106693-PSRB0329-2ms-sampling-dd.dat
# Candidate        =  PSR_0332+5434
# Telescope        =  AR
# Epoch_topo       =  58238.567582253389
# Epoch_bary       =  N/A
# T_sample         =  0.002
# Data Folded      =  7340032
# Data Avg         =  1.7807727181504e-10
# Data StdDev      =  9.45983089672504 
# Profile Bins     =  512
# Profile Avg      =  0.178898207087231
# Profile StdDev   =  1132.65427687563 
# Reduced chi-sqr  =  0.692
# Prob(Noise)      <  1   (~0.0 sigma)
# P_topo (ms)      =  714.547455587971  +/- 0.000256
# P'_topo (s/s)    =  -0                +/- 1.35e-10
# P''_topo (s/s^2) =  0                 +/- 5.97e-14
# P_bary (ms)      =  N/A
# P'_bary (s/s)    =  N/A
# P''_bary (s/s^2) =  N/A
# P_orb (s)        =  N/A
# asin(i)/c (s)    =  N/A
# eccentricity     =  N/A
# w (rad)          =  N/A
# T_peri           =  N/A
######################################################
   0  -716.2673
   1  -425.3658
   2  -266.174
   3  -727.413
   4  -1145.222
   5  -739.0555
   6  -589.9387
   7  -534.7921
   8  -434.054
   9  -297.8441
  10  -788.108
  11  -1180.906
  12  -904.5654
  13  -282.5508
  14  -343.7832
  15  125.4998
  16  221.8413
  17  -240.1819
  18  -592.3307
  19  -760.5818
  20  -363.5638
  21  -415.2996
  22  -206.5629
  23  -74.59895
  24  -78.75082
  25  -600.0878
  26  -1378.486
  27  -1047.072
  28  -553.3201
  29  -720.62
  30  -517.6634
  31  -560.6619
  32  -870.2153
  33  -735.6424
  34  -744.1624
  35  -173.1881
  36  -660.195
  37  -552.6539
  38  -305.5633
  39  -116.5725
  40  310.6218
  41  -165.3696
  42  -79.87741
  43  -115.9695
  44  -106.9567
  45  72.14719
  46  459.7275
  47  611.2765
  48  678.0369
  49  1284.811
  50  1379.475
  51  1344.772
  52  1763.027
  53  1990.102
  54  1261.374
  55  478.7539
  56  -172.7271
  57  -411.0285
  58  -490.9853
  59  -751.6271
  60  -683.365
  61  -560.1827
  62  -388.9746
  63  -208.3068
  64  1.306852
  65  -251.4946
  66  -221.6172
  67  -125.6706
  68  -410.7094
  69  -753.1083
  70  -646.7117
  71  -356.5106
  72  -419.5709
  73  -279.7092
  74  -94.46969
  75  -474.3422
  76  -1011.931
  77  -831.348
  78  -343.1529
  79  -32.19779
  80  187.0103
  81  430.9505
  82  -30.68866
  83  -253.4946
  84  -139.6497
  85  -134.8286
  86  204.1603
  87  5.06034
  88  -140.9067
  89  -56.82341
  90  104.5932
  91  -194.9337
  92  -609.7533
  93  -250.0722
  94  -506.8889
  95  -256.2434
  96  -333.9861
  97  -151.5409
  98  156.9364
  99  245.2564
 100  277.5443
 101  209.7916
 102  -100.9908
 103  -444.1632
 104  -309.5385
 105  -313.9912
 106  -124.96
 107  -144.7047
 108  -343.4527
 109  178.2031
 110  83.67475
 111  8.453818
 112  -189.5035
 113  -244.0578
 114  -321.8876
 115  -24.56096
 116  -181.3755
 117  -712.7335
 118  -53.09309
 119  -222.5453
 120  -562.7481
 121  414.1978
 122  1029.322
 123  1856.409
 124  1567.776
 125  1709.784
 126  1637.246
 127  2237.009
 128  3520.701
 129  2509.46
 130  2584.254
 131  1724.473
 132  1987.897
 133  1295.348
 134  1171.947
 135  538.5064
 136  116.601
 137  -185.087
 138  -46.12695
 139  -13.65938
 140  -590.4658
 141  -282.5406
 142  -231.9352
 143  166.3204
 144  269.6432
 145  171.0446
 146  -54.76692
 147  -721.0203
 148  -504.5588
 149  -612.5483
 150  -851.3284
 151  -520.2396
 152  -365.0089
 153  -148.6042
 154  -641.2879
 155  -332.659
 156  -66.37103
 157  -378.0007
 158  -798.6575
 159  -765.0971
 160  -325.509
 161  74.91763
 162  -490.4496
 163  -405.4689
 164  -230.3525
 165  -296.3152
 166  -422.9995
 167  -273.1008
 168  -488.4899
 169  -330.46
 170  -253.4605
 171  -33.26313
 172  -76.88196
 173  -428.7388
 174  -486.1114
 175  -339.1652
 176  -641.662
 177  -153.3467
 178  -463.8383
 179  -867.2507
 180  -744.0833
 181  -193.7089
 182  -419.9423
 183  -495.4385
 184  -771.2839
 185  -939.7825
 186  -743.7311
 187  -34.76396
 188  14.39319
 189  332.5759
 190  7.036302
 191  -294.1955
 192  -192.9434
 193  -49.66977
 194  385.4349
 195  142.5321
 196  588.7964
 197  1067.93
 198  408.7774
 199  496.0755
 200  349.2031
 201  504.0801
 202  -177.6261
 203  -25.61135
 204  -118.8824
 205  -30.39974
 206  183.2467
 207  506.4279
 208  1162.278
 209  1667.631
 210  2006.576
 211  1055.988
 212  -354.1328
 213  -57.57996
 214  796.9352
 215  1513.318
 216  1700.084
 217  891.2244
 218  648.2532
 219  -211.8198
 220  -243.9433
 221  -120.6372
 222  -20.58155
 223  -67.10017
 224  -416.3681
 225  -246.5461
 226  -188.8309
 227  -169.9952
 228  -354.1686
 229  -54.90316
 230  -202.6501
 231  -517.7981
 232  -425.1273
 233  -284.5694
 234  -166.3595
 235  -516.0449
 236  -576.6249
 237  -411.4866
 238  -10.76927
 239  -409.0439
 240  -539.0346
 241  -471.5366
 242  -119.3566
 243  -101.6798
 244  -236.472
 245  -151.5217
 246  -602.3475
 247  -751.5444
 248  -729.1307
 249  -916.8274
 250  -834.9781
 251  -764.67
 252  -556.9625
 253  -519.6371
 254  -423.1893
 255  -195.2507
 256  -439.9039
 257  -906.0229
 258  -835.0195
 259  -353.1685
 260  -682.2319
 261  -764.5181
 262  -266.8185
 263  -317.4055
 264  -290.5204
 265  -823.4519
 266  -846.5786
 267  -827.881
 268  -599.1523
 269  -671.7285
 270  474.8733
 271  410.9752
 272  360.7426
 273  630.4778
 274  -291.4039
 275  -600.3276
 276  -257.9387
 277  1860.539
 278  2626.67
 279  1152.648
 280  606.2911
 281  -58.61961
 282  -617.172
 283  -581.6546
 284  -314.6846
 285  -55.31501
 286  321.7025
 287  332.2668
 288  -9.363409
 289  -161.5267
 290  165.7877
 291  -168.8584
 292  -179.4161
 293  -432.7811
 294  -341.9065
 295  -280.1238
 296  228.4819
 297  288.6798
 298  322.1798
 299  687.1163
 300  557.1376
 301  246.8521
 302  22.71981
 303  244.9596
 304  425.5998
 305  230.0969
 306  -57.54391
 307  239.4938
 308  71.29473
 309  147.2418
 310  47.6192
 311  16.57663
 312  14.42378
 313  -131.7399
 314  -611.2204
 315  -439.3351
 316  -361.8601
 317  -128.0602
 318  3.603985
 319  246.4569
 320  82.87075
 321  -106.6801
 322  -230.7025
 323  -319.3866
 324  -92.88267
 325  -174.2424
 326  -429.0017
 327  -648.0296
 328  -367.4774
 329  -217.3892
 330  -150.9297
 331  -330.9496
 332  -570.2393
 333  -213.4229
 334  84.5505
 335  -215.2024
 336  -239.22
 337  -181.4982
 338  -298.5629
 339  -552.4413
 340  -585.6616
 341  42.27977
 342  615.4466
 343  733.9525
 344  184.6077
 345  34.49137
 346  -379.8765
 347  -602.1426
 348  -253.8877
 349  228.8444
 350  17.38549
 351  -195.8821
 352  -133.817
 353  -43.18419
 354  -441.7468
 355  -389.3602
 356  -690.91
 357  -736.7923
 358  -271.0657
 359  -105.2365
 360  -89.99146
 361  265.0524
 362  817.7551
 363  1137.802
 364  886.0978
 365  909.0429
 366  908.9725
 367  461.8343
 368  562.5994
 369  881.037
 370  741.8569
 371  519.3628
 372  280.6306
 373  482.3336
 374  506.9242
 375  835.1321
 376  355.1718
 377  541.2827
 378  454.5845
 379  110.8247
 380  55.89171
 381  135.6341
 382  367.7672
 383  -18.1379
 384  512.2617
 385  706.6259
 386  676.5448
 387  666.736
 388  -103.8254
 389  70.10236
 390  68.27532
 391  471.3804
 392  506.7687
 393  647.056
 394  472.9809
 395  -41.82579
 396  132.1328
 397  -181.1747
 398  -198.2623
 399  677.7389
 400  1225.475
 401  1272.025
 402  1694.715
 403  1428.123
 404  633.9607
 405  42.73093
 406  346.8011
 407  1099.731
 408  1958.268
 409  1621.997
 410  1304.991
 411  42.14472
 412  518.7402
 413  -522.4244
 414  -1092.544
 415  -800.3777
 416  -566.9559
 417  -403.1049
 418  -38.18688
 419  164.3443
 420  -554.2205
 421  -503.49
 422  -686.0788
 423  -887.4667
 424  -715.784
 425  -537.9701
 426  -159.9265
 427  -38.11096
 428  65.27171
 429  -162.8432
 430  -86.38158
 431  -11.22658
 432  46.57237
 433  538.6783
 434  448.8911
 435  212.5273
 436  157.4979
 437  271.7021
 438  596.4431
 439  248.4715
 440  605.4868
 441  456.123
 442  951.5585
 443  924.5505
 444  566.8119
 445  704.8871
 446  1.51983
 447  -31.89217
 448  229.9712
 449  445.3338
 450  810.0996
 451  1119.466
 452  1213.545
 453  1055.534
 454  453.7462
 455  -38.34072
 456  1.219423
 457  1016.786
 458  1587.3
 459  1508.57
 460  1890.556
 461  1541.112
 462  225.3993
 463  -486.3495
 464  -889.5151
 465  -864.2532
 466  -287.0004
 467  -319.3672
 468  179.2922
 469  175.5965
 470  -100.1193
 471  -317.3137
 472  -355.3525
 473  -265.4913
 474  -649.3024
 475  -584.937
 476  675.0648
 477  502.6873
 478  462.0971
 479  331.6377
 480  537.9013
 481  -20.31071
 482  -1199.961
 483  302.0686
 484  688.0266
 485  973.7906
 486  1367.446
 487  419.31
 488  -605.3559
 489  -1139.581
 490  -950.2537
 491  -588.4482
 492  -135.2517
 493  276.0145
 494  -40.64124
 495  -406.5296
 496  -1020.285
 497  -1478.422
 498  -790.8906
 499  -866.2744
 500  -853.2824
 501  -745.9138
 502  -741.6426
 503  -796.3868
 504  -819.2852
 505  -1065.636
 506  -930.5639
 507  -545.2787
 508  -727.0778
 509  -688.1523
 510  -389.111
 511  -285.8995
