# Input file       =  1209718813.113208_cleaned.dat
# Candidate        =  PSR_0332+5434
# Telescope        =  AR
# Epoch_topo       =  58245.375371680646
# Epoch_bary       =  N/A
# T_sample         =  0.002
# Data Folded      =  7340032
# Data Avg         =  0.0241559728520228
# Data StdDev      =  1.00003779726981 
# Profile Bins     =  512
# Profile Avg      =  346.291287090691 
# Profile StdDev   =  119.737561958647 
# Reduced chi-sqr  =  1.244
# Prob(Noise)      <  0.000136   (~3.6 sigma)
# P_topo (ms)      =  714.540884999276  +/- 0.000402
# P'_topo (s/s)    =  -0                +/- 2.12e-10
# P''_topo (s/s^2) =  0                 +/- 9.37e-14
# P_bary (ms)      =  N/A
# P'_bary (s/s)    =  N/A
# P''_bary (s/s^2) =  N/A
# P_orb (s)        =  N/A
# asin(i)/c (s)    =  N/A
# eccentricity     =  N/A
# w (rad)          =  N/A
# T_peri           =  N/A
######################################################
   0  316.5706
   1  411.8595
   2  419.5072
   3  365.3605
   4  435.8637
   5  338.7853
   6  359.8808
   7  367.0005
   8  381.3405
   9  390.2579
  10  265.6308
  11  260.0409
  12  265.7766
  13  353.9969
  14  389.7881
  15  299.3395
  16  303.6082
  17  327.4583
  18  348.4654
  19  480.4548
  20  447.4515
  21  401.7967
  22  441.1334
  23  368.7111
  24  288.3321
  25  307.3399
  26  290.7973
  27  311.4221
  28  373.3094
  29  346.5055
  30  291.8577
  31  253.0714
  32  220.5065
  33  294.5622
  34  311.7334
  35  302.6216
  36  294.5394
  37  283.5225
  38  310.7851
  39  339.31
  40  430.284
  41  432.4325
  42  424.272
  43  433.0033
  44  438.8067
  45  370.6145
  46  315.5157
  47  433.2887
  48  482.6985
  49  403.1451
  50  361.2726
  51  340.6629
  52  297.2302
  53  355.1211
  54  260.351
  55  120.5152
  56  244.1071
  57  264.1093
  58  202.5921
  59  246.9591
  60  235.7375
  61  197.208
  62  194.562
  63  263.8832
  64  308.575
  65  382.5129
  66  341.8882
  67  343.4626
  68  283.1339
  69  329.0356
  70  278.7884
  71  263.3682
  72  245.5211
  73  308.8664
  74  205.3325
  75  277.4723
  76  154.1819
  77  154.5902
  78  97.71265
  79  116.299
  80  138.1195
  81  183.8452
  82  254.4716
  83  144.6153
  84  139.8959
  85  173.4771
  86  207.1055
  87  326.9143
  88  218.2667
  89  96.89307
  90  212.904
  91  303.3819
  92  207.4279
  93  186.2421
  94  195.3385
  95  231.7191
  96  212.7537
  97  180.1366
  98  178.7305
  99  245.4297
 100  183.8505
 101  162.9623
 102  198.5846
 103  277.1966
 104  187.5902
 105  184.1625
 106  306.4194
 107  331.3091
 108  355.3662
 109  328.8739
 110  320.9494
 111  377.8234
 112  311.6031
 113  329.3373
 114  298.7469
 115  206.7
 116  140.9102
 117  139.7594
 118  167.5869
 119  204.3854
 120  231.8581
 121  278.5486
 122  378.7534
 123  269.7865
 124  183.3723
 125  290.9116
 126  267.3133
 127  277.9281
 128  344.77
 129  380.8396
 130  356.2724
 131  350.0265
 132  231.3922
 133  175.0525
 134  235.3226
 135  322.183
 136  266.1935
 137  236.7345
 138  286.5511
 139  330.2471
 140  252.0571
 141  273.0337
 142  281.7342
 143  339.2306
 144  281.8748
 145  194.5976
 146  263.2471
 147  389.7946
 148  397.6278
 149  325.5546
 150  196.1053
 151  343.6689
 152  298.8274
 153  302.4131
 154  311.798
 155  318.0492
 156  358.4998
 157  300.375
 158  368.1639
 159  387.0582
 160  395.709
 161  392.0291
 162  397.8232
 163  319.1327
 164  256.4451
 165  274.3163
 166  197.8286
 167  235.411
 168  303.1624
 169  292.602
 170  363.4909
 171  441.4738
 172  405.7367
 173  382.7526
 174  317.064
 175  282.7827
 176  417.8206
 177  397.107
 178  337.3135
 179  414.0935
 180  431.4968
 181  453.9937
 182  451.574
 183  413.4194
 184  435.2149
 185  334.8683
 186  302.1039
 187  362.515
 188  428.9771
 189  451.3532
 190  340.9389
 191  336.6158
 192  266.8558
 193  310.8821
 194  280.7184
 195  357.1
 196  254.8707
 197  295.9772
 198  365.6501
 199  357.0558
 200  312.5675
 201  417.6559
 202  521.7484
 203  568.8381
 204  525.7778
 205  407.9578
 206  340.1646
 207  300.5792
 208  381.4807
 209  384.8599
 210  426.6588
 211  495.1082
 212  533.6086
 213  398.5333
 214  352.254
 215  442.6489
 216  433.6519
 217  431.7925
 218  469.3802
 219  399.9021
 220  308.4894
 221  330.7643
 222  342.3734
 223  404.8636
 224  395.678
 225  372.3422
 226  306.5549
 227  341.8321
 228  375.6399
 229  466.8026
 230  380.3783
 231  343.7443
 232  439.4482
 233  401.6539
 234  318.7195
 235  318.3653
 236  443.3711
 237  433.3172
 238  320.1345
 239  342.6235
 240  352.2498
 241  294.5337
 242  350.5045
 243  367.9415
 244  478.5247
 245  507.7435
 246  482.1993
 247  335.1702
 248  213.6456
 249  307.1282
 250  309.778
 251  306.1877
 252  328.7878
 253  422.5339
 254  463.9815
 255  388.1186
 256  367.0276
 257  340.0997
 258  395.5868
 259  406.4565
 260  367.8673
 261  389.5128
 262  387.506
 263  357.6466
 264  337.5689
 265  350.5944
 266  382.4868
 267  388.2788
 268  451.8891
 269  493.5574
 270  425.9635
 271  292.8354
 272  423.2675
 273  455.8912
 274  468.5903
 275  409.1666
 276  445.0953
 277  424.5028
 278  333.9196
 279  367.2028
 280  419.3708
 281  435.1467
 282  342.9603
 283  354.115
 284  381.3368
 285  377.8472
 286  390.0382
 287  341.9924
 288  335.4579
 289  333.841
 290  324.4147
 291  268.5036
 292  267.0135
 293  345.4791
 294  275.2708
 295  330.7103
 296  400.9789
 297  407.3537
 298  322.7616
 299  401.4214
 300  477.219
 301  448.419
 302  341.9587
 303  331.9181
 304  431.7707
 305  423.6333
 306  338.5954
 307  347.6429
 308  276.3433
 309  283.5516
 310  257.4848
 311  323.8142
 312  308.4958
 313  332.6307
 314  301.2964
 315  239.0034
 316  197.1043
 317  292.4782
 318  296.3029
 319  352.4303
 320  427.3939
 321  341.9549
 322  334.4725
 323  254.357
 324  349.3375
 325  337.8597
 326  391.972
 327  349.7907
 328  351.3704
 329  402.7238
 330  328.9157
 331  315.7383
 332  294.0233
 333  235.0102
 334  363.9914
 335  457.0329
 336  439.9629
 337  436.7803
 338  360.3868
 339  345.4666
 340  333.8835
 341  330.1646
 342  421.2009
 343  486.8611
 344  560.3203
 345  470.8495
 346  376.9006
 347  299.6881
 348  298.0081
 349  316.7359
 350  414.7915
 351  388.1169
 352  415.3626
 353  366.19
 354  450.8551
 355  296.9413
 356  301.6684
 357  367.0613
 358  461.1635
 359  410.3619
 360  398.7071
 361  367.5318
 362  330.6325
 363  272.8245
 364  309.1662
 365  344.2468
 366  418.7725
 367  372.2845
 368  356.1253
 369  414.6866
 370  338.2677
 371  302.7707
 372  374.1648
 373  401.8429
 374  359.162
 375  417.9975
 376  443.8614
 377  355.5948
 378  283.4639
 379  321.5076
 380  361.4496
 381  267.9936
 382  321.6861
 383  320.9584
 384  310.0365
 385  306.3707
 386  360.5373
 387  348.9692
 388  351.9132
 389  319.3622
 390  309.3073
 391  209.3878
 392  208.664
 393  342.6476
 394  410.506
 395  442.4362
 396  340.8831
 397  276.3084
 398  358.9773
 399  352.2399
 400  279.7926
 401  259.7184
 402  265.5363
 403  343.0838
 404  444.7833
 405  366.9589
 406  361.4639
 407  350.7834
 408  374.5962
 409  289.3581
 410  339.0298
 411  356.6064
 412  360.1219
 413  404.7157
 414  365.2199
 415  403.6749
 416  359.8877
 417  389.7089
 418  330.6702
 419  349.7574
 420  347.2137
 421  395.5013
 422  403.1348
 423  311.3091
 424  220.3742
 425  210.3629
 426  307.1876
 427  404.3277
 428  357.6199
 429  320.6505
 430  269.3103
 431  329.3348
 432  295.342
 433  332.7113
 434  326.0147
 435  319.6198
 436  313.5474
 437  218.8128
 438  239.4565
 439  244.8175
 440  263.0912
 441  268.3099
 442  265.0708
 443  249.5493
 444  362.6138
 445  401.0473
 446  329.949
 447  451.6589
 448  421.0187
 449  417.1713
 450  371.0322
 451  405.8554
 452  393.0025
 453  383.0968
 454  470.8067
 455  398.6695
 456  332.5519
 457  301.5235
 458  375.6264
 459  420.1485
 460  393.2016
 461  420.7997
 462  350.624
 463  361.0916
 464  416.036
 465  392.6206
 466  426.7417
 467  427.7612
 468  412.8163
 469  327.753
 470  365.1595
 471  507.3407
 472  404.7834
 473  373.014
 474  407.869
 475  550.0141
 476  687.9014
 477  844.623
 478  946.3992
 479  956.8408
 480  824.6506
 481  783.4823
 482  557.4095
 483  387.2781
 484  285.6943
 485  352.7495
 486  424.3376
 487  414.3242
 488  351.4646
 489  349.7113
 490  350.0361
 491  388.7363
 492  409.3794
 493  438.2394
 494  489.6379
 495  469.2589
 496  471.5679
 497  449.896
 498  327.2404
 499  341.727
 500  325.5767
 501  331.657
 502  380.3974
 503  420.7243
 504  354.6403
 505  432.683
 506  266.6369
 507  198.1057
 508  286.5848
 509  410.612
 510  372.0527
 511  300.2849
