# Input file       =  1209632602.116271_cleaned.dat
# Candidate        =  PSR_0332+5434
# Telescope        =  AR
# Epoch_topo       =  58244.377559216096
# Epoch_bary       =  N/A
# T_sample         =  0.002
# Data Folded      =  7340032
# Data Avg         =  0.0222110667098642
# Data StdDev      =  1.00007823033536 
# Profile Bins     =  512
# Profile Avg      =  318.327635094341 
# Profile StdDev   =  119.742403132355 
# Reduced chi-sqr  =  1.412
# Prob(Noise)      <  2.21e-09   (~5.9 sigma)
# P_topo (ms)      =  714.541815448132  +/- 0.000381
# P'_topo (s/s)    =  -0                +/- 2.01e-10
# P''_topo (s/s^2) =  0                 +/- 8.88e-14
# P_bary (ms)      =  N/A
# P'_bary (s/s)    =  N/A
# P''_bary (s/s^2) =  N/A
# P_orb (s)        =  N/A
# asin(i)/c (s)    =  N/A
# eccentricity     =  N/A
# w (rad)          =  N/A
# T_peri           =  N/A
######################################################
   0  1016.22
   1  914.1127
   2  811.4302
   3  614.3602
   4  535.5216
   5  444.9333
   6  377.9789
   7  469.5205
   8  450.5285
   9  378.8681
  10  319.7788
  11  340.7156
  12  483.9618
  13  452.9127
  14  383.5167
  15  477.0098
  16  490.515
  17  367.2314
  18  310.23
  19  311.4524
  20  349.7815
  21  319.145
  22  422.7329
  23  341.6779
  24  241.3516
  25  360.86
  26  405.6785
  27  366.8893
  28  343.8388
  29  345.315
  30  368.4826
  31  391.618
  32  354.4459
  33  331.993
  34  315.1191
  35  343.0795
  36  324.5281
  37  354.6412
  38  349.4465
  39  455.518
  40  369.5961
  41  271.6511
  42  275.7593
  43  331.7547
  44  298.5183
  45  300.5598
  46  241.2795
  47  220.954
  48  272.0513
  49  365.576
  50  309.26
  51  258.0113
  52  252.961
  53  331.4795
  54  401.9141
  55  386.1478
  56  343.8295
  57  225.5164
  58  295.2727
  59  413.6751
  60  375.5034
  61  348.0286
  62  334.7935
  63  356.4041
  64  233.2946
  65  210.3188
  66  205.0771
  67  230.2733
  68  212.0594
  69  153.4433
  70  61.5528
  71  148.5559
  72  221.286
  73  218.3595
  74  236.762
  75  206.967
  76  222.8424
  77  201.7238
  78  230.6204
  79  279.0607
  80  365.7281
  81  285.7497
  82  143.3618
  83  78.23988
  84  148.1215
  85  280.2136
  86  183.7536
  87  159.8995
  88  241.1449
  89  288.7747
  90  156.7943
  91  159.5737
  92  246.1604
  93  277.0639
  94  325.9631
  95  337.4892
  96  378.6121
  97  382.6785
  98  421.713
  99  302.8128
 100  222.6856
 101  334.5547
 102  305.734
 103  305.4012
 104  333.1592
 105  292.9518
 106  344.2654
 107  321.1335
 108  331.7523
 109  391.8806
 110  437.5653
 111  427.0512
 112  221.8713
 113  299.1906
 114  362.8587
 115  321.6787
 116  374.487
 117  275.1625
 118  257.1936
 119  237.35
 120  365.5864
 121  462.5047
 122  363.0003
 123  308.6136
 124  292.5659
 125  312.2359
 126  363.0122
 127  314.4793
 128  419.7972
 129  439.8265
 130  383.7517
 131  335.8111
 132  313.5774
 133  352.1524
 134  370.2058
 135  451.4845
 136  409.2542
 137  396.77
 138  364.6369
 139  451.5306
 140  396.4744
 141  348.4416
 142  378.8126
 143  457.4425
 144  502.0713
 145  454.5207
 146  389.7142
 147  315.6201
 148  445.9652
 149  386.5205
 150  344.8705
 151  301.6467
 152  371.0126
 153  442.7772
 154  409.5115
 155  406.2791
 156  384.5165
 157  351.5698
 158  360.6974
 159  397.0779
 160  450.6263
 161  487.4432
 162  386.7255
 163  297.9253
 164  334.1706
 165  393.6347
 166  349.0455
 167  254.6029
 168  223.3474
 169  313.6099
 170  384.209
 171  340.4946
 172  335.6648
 173  318.1472
 174  319.6633
 175  349.4118
 176  380.737
 177  338.1565
 178  305.5366
 179  353.3553
 180  350.7701
 181  278.8189
 182  268.0753
 183  340.2986
 184  249.934
 185  148.9002
 186  277.3401
 187  319.3959
 188  432.4987
 189  374.939
 190  376.0539
 191  332.9773
 192  365.6255
 193  309.2088
 194  297.1466
 195  326.3608
 196  347.6349
 197  283.8762
 198  262.7114
 199  278.1996
 200  267.8465
 201  218.841
 202  328.2963
 203  254.4966
 204  291.5208
 205  271.8957
 206  227.8233
 207  269.3539
 208  328.8174
 209  284.7417
 210  250.5814
 211  296.7617
 212  321.4279
 213  364.2675
 214  365.1216
 215  305.3489
 216  325.1895
 217  266.576
 218  194.7308
 219  266.8128
 220  363.1524
 221  337.4475
 222  298.8824
 223  401.4785
 224  398.5673
 225  423.9956
 226  369.4563
 227  408.8658
 228  439.9304
 229  421.063
 230  434.9204
 231  375.7438
 232  326.2214
 233  242.2252
 234  281.4782
 235  369.3771
 236  373.493
 237  376.2955
 238  383.7419
 239  363.2553
 240  315.1744
 241  292.4273
 242  256.1604
 243  205.6034
 244  211.9132
 245  219.4136
 246  201.9127
 247  247.5692
 248  264.8796
 249  253.0464
 250  300.7591
 251  278.2307
 252  213.9114
 253  203.6592
 254  220.9461
 255  293.6371
 256  325.9429
 257  312.5046
 258  313.3684
 259  265.2986
 260  322.9225
 261  343.657
 262  304.7049
 263  268.468
 264  241.6514
 265  279.526
 266  299.5793
 267  290.8993
 268  292.6324
 269  397.7276
 270  401.644
 271  379.3202
 272  323.4922
 273  300.4577
 274  303.1591
 275  245.4438
 276  269.427
 277  292.7378
 278  247.0957
 279  189.8018
 280  131.9967
 281  295.0948
 282  298.3047
 283  195.7471
 284  212.0536
 285  216.9875
 286  248.626
 287  232.264
 288  232.7756
 289  345.8286
 290  347.8128
 291  321.3183
 292  314.2015
 293  317.8363
 294  323.3505
 295  245.8332
 296  329.0418
 297  363.4347
 298  221.0904
 299  177.5102
 300  182.3779
 301  211.1375
 302  256.5952
 303  344.017
 304  412.3911
 305  362.5938
 306  347.6747
 307  280.1208
 308  278.3492
 309  298.0144
 310  367.8103
 311  395.0135
 312  318.6152
 313  350.4044
 314  396.5326
 315  255.9374
 316  208.2729
 317  340.3575
 318  364.011
 319  342.9235
 320  422.2763
 321  395.6318
 322  493.5581
 323  574.9556
 324  512.6154
 325  422.2237
 326  425.1597
 327  515.565
 328  502.2716
 329  451.0209
 330  382.6179
 331  372.8593
 332  350.455
 333  309.5096
 334  337.5717
 335  371.5137
 336  404.6552
 337  449.2572
 338  375.4453
 339  337.8943
 340  403.2705
 341  368.532
 342  373.7809
 343  329.5457
 344  346.5745
 345  315.2048
 346  281.8144
 347  296.3683
 348  232.6844
 349  250.0596
 350  307.8198
 351  339.4002
 352  331.9662
 353  282.6197
 354  292.1003
 355  380.195
 356  416.2647
 357  362.1633
 358  390.2987
 359  391.9861
 360  297.3029
 361  236.7023
 362  201.2183
 363  261.0149
 364  237.801
 365  202.6484
 366  238.0213
 367  229.5313
 368  192.9827
 369  157.4826
 370  232.7256
 371  230.0269
 372  206.2666
 373  251.1137
 374  272.2079
 375  219.9873
 376  186.4387
 377  256.9288
 378  214.6554
 379  241.4601
 380  245.5714
 381  264.1832
 382  258.4165
 383  251.9817
 384  253.9478
 385  154.3584
 386  247.709
 387  265.0914
 388  316.478
 389  382.296
 390  350.718
 391  405.7154
 392  273.2483
 393  277.1574
 394  308.4678
 395  348.4639
 396  444.5395
 397  399.8607
 398  326.4004
 399  233.4812
 400  298.6025
 401  321.9877
 402  201.029
 403  240.5746
 404  320.5712
 405  309.0731
 406  275.3227
 407  217.7719
 408  271.2985
 409  264.1616
 410  288.8442
 411  259.6679
 412  269.0959
 413  287.1584
 414  281.5143
 415  294.8784
 416  289.3728
 417  297.6336
 418  328.8972
 419  297.7141
 420  281.4909
 421  324.5869
 422  371.4159
 423  329.8846
 424  314.6851
 425  383.5581
 426  308.7303
 427  269.5328
 428  192.3798
 429  272.3565
 430  347.036
 431  270.9188
 432  212.1958
 433  253.6917
 434  315.5095
 435  238.221
 436  358.508
 437  347.9263
 438  324.9463
 439  266.8486
 440  222.0654
 441  233.3384
 442  214.5083
 443  303.3197
 444  325.2761
 445  339.0875
 446  301.6457
 447  267.1904
 448  179.7971
 449  114.7974
 450  209.8298
 451  291.1826
 452  241.0712
 453  218.2116
 454  263.3462
 455  250.6778
 456  272.3206
 457  222.8576
 458  215.9398
 459  198.8435
 460  228.0649
 461  144.7154
 462  204.2277
 463  213.0073
 464  173.9289
 465  143.9945
 466  219.1983
 467  226.6019
 468  201.6923
 469  156.8246
 470  214.2703
 471  268.756
 472  260.8651
 473  254.659
 474  270.588
 475  208.986
 476  248.1003
 477  288.7674
 478  292.8123
 479  283.6035
 480  244.4039
 481  245.7365
 482  193.0075
 483  121.5677
 484  98.28806
 485  183.3354
 486  297.9675
 487  374.785
 488  392.1694
 489  366.2604
 490  338.3728
 491  341.6595
 492  387.3207
 493  385.6932
 494  478.2981
 495  404.7611
 496  289.7982
 497  302.9273
 498  422.6518
 499  270.7418
 500  262.4809
 501  402.9741
 502  350.776
 503  373.331
 504  399.9807
 505  401.3945
 506  427.1433
 507  486.2957
 508  581.3776
 509  714.7021
 510  926.0196
 511  984.6263
