# Input file       =  1209876521.110726_cleaned.dat
# Candidate        =  PSR_0332+5434
# Telescope        =  AR
# Epoch_topo       =  58247.200695725995
# Epoch_bary       =  N/A
# T_sample         =  0.002
# Data Folded      =  7208960
# Data Avg         =  0.0138919330149125
# Data StdDev      =  6.0102826524679  
# Profile Bins     =  512
# Profile Avg      =  195.66108735579  
# Profile StdDev   =  713.175185827996 
# Reduced chi-sqr  =  1.276
# Prob(Noise)      <  2.29e-05   (~4.1 sigma)
# P_topo (ms)      =  714.539154179481  +/- 2.58e-05
# P'_topo (s/s)    =  -0                +/- 1.38e-11
# P''_topo (s/s^2) =  0                 +/- 6.22e-15
# P_bary (ms)      =  N/A
# P'_bary (s/s)    =  N/A
# P''_bary (s/s^2) =  N/A
# P_orb (s)        =  N/A
# asin(i)/c (s)    =  N/A
# eccentricity     =  N/A
# w (rad)          =  N/A
# T_peri           =  N/A
######################################################
   0  364.9259
   1  1064.005
   2  197.228
   3  297.0213
   4  -639.9787
   5  424.1577
   6  353.7476
   7  374.3128
   8  190.6425
   9  144.8057
  10  24.44909
  11  -761.4761
  12  -45.65604
  13  181.6342
  14  1176.701
  15  859.4177
  16  831.9351
  17  442.7027
  18  -503.0089
  19  -29.32913
  20  -564.0305
  21  151.4943
  22  328.6149
  23  1044.411
  24  16.22782
  25  -279.7154
  26  168.4005
  27  -606.8697
  28  -45.23757
  29  -416.4356
  30  421.7745
  31  822.8954
  32  1140.976
  33  745.9637
  34  182.5347
  35  342.4573
  36  -581.3464
  37  -532.3591
  38  -92.94444
  39  789.9353
  40  348.1021
  41  69.32626
  42  -190.6094
  43  -461.0203
  44  -514.8117
  45  -410.7588
  46  544.9297
  47  768.6082
  48  886.7415
  49  728.2849
  50  205.7018
  51  127.5371
  52  -230.5599
  53  -828.6022
  54  -929.3187
  55  342.9368
  56  776.9866
  57  664.2298
  58  233.479
  59  -73.87749
  60  -474.3579
  61  -1075.608
  62  -966.9207
  63  -65.94979
  64  684.7298
  65  1371.255
  66  1012.294
  67  745.4147
  68  567.4429
  69  -587.8156
  70  -276.0382
  71  -332.6245
  72  384.2195
  73  346.0344
  74  -38.03039
  75  -88.9507
  76  -53.35626
  77  770.7125
  78  -50.47717
  79  147.9926
  80  316.8033
  81  689.2939
  82  805.7033
  83  436.9193
  84  1004.584
  85  335.1022
  86  75.99632
  87  -472.0446
  88  526.6184
  89  -10.51377
  90  626.1799
  91  344.1853
  92  36.55882
  93  267.3722
  94  -618.9366
  95  30.71311
  96  142.4197
  97  1143.269
  98  777.5333
  99  425.6928
 100  484.1101
 101  -717.7562
 102  -14.29973
 103  -787.3236
 104  402.379
 105  373.7524
 106  797.6671
 107  120.4885
 108  -401.9785
 109  -540.0742
 110  -992.0161
 111  -279.7407
 112  -439.7893
 113  1004.188
 114  943.8636
 115  1023.801
 116  219.9308
 117  -232.6457
 118  -124.0117
 119  -985.6161
 120  -747.2687
 121  -18.40295
 122  1150.802
 123  470.1965
 124  412.4386
 125  -155.9804
 126  -854.4255
 127  -640.7072
 128  -571.3582
 129  312.6486
 130  964.3376
 131  1075.403
 132  448.1196
 133  96.6812
 134  -75.24937
 135  -899.2328
 136  -718.2224
 137  138.802
 138  893.7736
 139  703.8478
 140  497.6982
 141  293.5459
 142  -59.39999
 143  -862.9056
 144  -667.8434
 145  -610.2999
 146  579.4437
 147  950.9294
 148  627.3608
 149  822.9016
 150  190.5958
 151  110.4478
 152  -989.5436
 153  -498.2789
 154  -364.9695
 155  356.1567
 156  428.7302
 157  211.7595
 158  170.264
 159  10.6476
 160  -322.2223
 161  -825.5202
 162  -32.27285
 163  525.2657
 164  1098.321
 165  704.3943
 166  261.8323
 167  145.8832
 168  -872.2961
 169  -527.2697
 170  -605.0346
 171  374.391
 172  216.9451
 173  255.7998
 174  -68.72811
 175  -444.6962
 176  -470.8337
 177  -1455.093
 178  -53.3975
 179  300.2635
 180  944.249
 181  1222.588
 182  668.3628
 183  548.4235
 184  -666.7267
 185  -478.0677
 186  -834.1149
 187  222.2467
 188  276.0404
 189  523.3651
 190  164.7418
 191  -488.2673
 192  -541.7327
 193  -776.6312
 194  -306.7216
 195  60.87692
 196  1179.634
 197  796.971
 198  435.7377
 199  374.0958
 200  -287.8863
 201  -230.0138
 202  -969.1589
 203  85.73179
 204  228.4373
 205  662.0646
 206  -117.2231
 207  -143.8071
 208  -35.32971
 209  -811.8012
 210  -308.0509
 211  -167.2312
 212  767.6199
 213  1140.406
 214  983.9609
 215  854.6495
 216  346.1367
 217  -2.648677
 218  -685.0327
 219  -296.2574
 220  286.5911
 221  619.3845
 222  522.5399
 223  506.6956
 224  -216.5474
 225  -704.8065
 226  -818.9402
 227  38.93705
 228  517.7313
 229  1048.38
 230  1139.213
 231  853.8427
 232  487.6087
 233  24.81515
 234  -18.72491
 235  -506.6287
 236  -182.2875
 237  567.8213
 238  487.507
 239  408.9228
 240  111.5526
 241  265.7489
 242  149.8152
 243  184.7398
 244  43.14059
 245  914.2419
 246  1086.812
 247  1253.828
 248  716.5599
 249  151.52
 250  162.1234
 251  -718.5314
 252  73.81642
 253  -43.78643
 254  749.0759
 255  603.5356
 256  51.39971
 257  384.4625
 258  -131.3274
 259  -258.2953
 260  -695.5339
 261  487.6172
 262  572.3629
 263  1145.778
 264  869.1619
 265  89.94572
 266  -352.8327
 267  -1285.37
 268  -532.288
 269  -527.5035
 270  747.5912
 271  450.8353
 272  566.0035
 273  337.0715
 274  74.72266
 275  19.7856
 276  -870.4142
 277  51.84652
 278  278.4008
 279  1256.075
 280  1450.651
 281  876.7099
 282  735.3474
 283  -480.6173
 284  -0.1587439
 285  -471.1281
 286  434.6965
 287  607.7482
 288  210.4828
 289  -128.3879
 290  79.46271
 291  -8.577947
 292  -174.2362
 293  243.9587
 294  194.0959
 295  1007.404
 296  1232.319
 297  1677.09
 298  1861.427
 299  2176.592
 300  2070.524
 301  1068.846
 302  1038.897
 303  998.7057
 304  1235.688
 305  463.6603
 306  524.0878
 307  321.3455
 308  -348.8542
 309  -597.1718
 310  -209.4134
 311  652.8765
 312  838.2822
 313  1363.939
 314  1110.404
 315  848.5304
 316  249.6476
 317  -173.0296
 318  -254.3493
 319  -105.4501
 320  286.7831
 321  -283.4668
 322  -192.7001
 323  -213.7997
 324  -60.34579
 325  -465.0553
 326  157.0566
 327  -99.92622
 328  842.7985
 329  914.3065
 330  521.0432
 331  481.6871
 332  -313.8315
 333  -39.92041
 334  -888.8834
 335  130.9696
 336  417.6369
 337  516.5907
 338  356.4881
 339  10.38549
 340  54.71388
 341  -479.0766
 342  -151.4112
 343  -319.7477
 344  837.549
 345  881.8418
 346  1199.834
 347  815.3422
 348  -34.5259
 349  300.493
 350  -1034.836
 351  -157.6003
 352  17.69769
 353  738.484
 354  356.0775
 355  -265.2669
 356  145.0726
 357  -443.8587
 358  -375.6021
 359  -912.8645
 360  426.7504
 361  461.726
 362  570.1711
 363  297.3403
 364  373.6233
 365  420.2924
 366  -255.7568
 367  -522.8531
 368  -783.0933
 369  704.4545
 370  551.155
 371  449.3749
 372  -233.564
 373  -458.873
 374  -12.6832
 375  -529.0656
 376  219.1349
 377  269.053
 378  1016.224
 379  903.5474
 380  618.8198
 381  456.6013
 382  -44.66737
 383  -214.9927
 384  -945.6013
 385  -148.4971
 386  106.3141
 387  841.2632
 388  359.1159
 389  348.8677
 390  187.1194
 391  -674.3726
 392  -307.2617
 393  -177.174
 394  620.5463
 395  1040.929
 396  944.6339
 397  613.8741
 398  386.4247
 399  30.32155
 400  -231.2635
 401  18.20072
 402  498.9483
 403  575.3782
 404  194.7815
 405  97.66523
 406  -39.55376
 407  -70.56026
 408  -294.4177
 409  117.7741
 410  314.9413
 411  1227.922
 412  1397.863
 413  980.6946
 414  753.2089
 415  126.4678
 416  270.7867
 417  -369.7434
 418  142.2637
 419  253.9938
 420  370.5843
 421  146.9573
 422  284.2855
 423  362.9553
 424  -406.8241
 425  -127.2269
 426  -21.23592
 427  1500.205
 428  1644.733
 429  1133.168
 430  784.0464
 431  251.414
 432  154.2131
 433  -502.0774
 434  706.4166
 435  531.7412
 436  849.4754
 437  -16.57709
 438  -179.8439
 439  514.0938
 440  -296.3622
 441  129.792
 442  -220.0901
 443  1123.751
 444  706.5798
 445  673.7592
 446  931.5259
 447  301.5195
 448  514.2654
 449  -230.8268
 450  48.2679
 451  -256.4128
 452  1035.909
 453  335.7434
 454  61.24311
 455  -11.08964
 456  -395.4525
 457  -223.2685
 458  -460.3323
 459  650.9376
 460  969.1995
 461  1688.212
 462  940.5081
 463  101.1351
 464  340.3419
 465  -110.2069
 466  -512.5967
 467  -881.9593
 468  282.3368
 469  742.598
 470  256.7942
 471  -345.8606
 472  -565.6714
 473  -318.2014
 474  -677.264
 475  -68.27593
 476  538.0906
 477  938.3613
 478  739.8398
 479  39.47031
 480  -101.4862
 481  76.84902
 482  -302.0869
 483  -315.7257
 484  -254.0835
 485  168.054
 486  463.3519
 487  446.5068
 488  368.6473
 489  -507.4842
 490  -711.0851
 491  -299.5476
 492  157.9001
 493  720.8251
 494  1356.141
 495  1296.028
 496  844.8279
 497  461.9858
 498  104.3705
 499  41.33048
 500  -645.9172
 501  -84.67068
 502  418.073
 503  284.054
 504  -52.98304
 505  -85.50137
 506  426.227
 507  -341.7751
 508  64.94907
 509  463.8468
 510  961.3094
 511  486.7939
