# Input file       =  1209704165.112302_cleaned.dat
# Candidate        =  PSR_0332+5434
# Telescope        =  AR
# Epoch_topo       =  58245.205834633125
# Epoch_bary       =  N/A
# T_sample         =  0.002
# Data Folded      =  7208960
# Data Avg         =  0.211990160629449
# Data StdDev      =  5.2590771120289  
# Profile Bins     =  512
# Profile Avg      =  2984.76376313817 
# Profile StdDev   =  624.03775554797  
# Reduced chi-sqr  =  3.046
# Prob(Noise)      <  4.61e-106   (~21.8 sigma)
# P_topo (ms)      =  714.541032216007  +/- 1.79e-05
# P'_topo (s/s)    =  -0                +/- 9.6e-12
# P''_topo (s/s^2) =  0                 +/- 4.32e-15
# P_bary (ms)      =  N/A
# P'_bary (s/s)    =  N/A
# P''_bary (s/s^2) =  N/A
# P_orb (s)        =  N/A
# asin(i)/c (s)    =  N/A
# eccentricity     =  N/A
# w (rad)          =  N/A
# T_peri           =  N/A
######################################################
   0  4131.705
   1  3969.783
   2  2974.402
   3  2129.329
   4  1684.515
   5  1678.525
   6  2355.414
   7  3156.207
   8  2995.531
   9  2417.737
  10  2286.075
  11  1812.586
  12  1801.134
  13  2426.172
  14  3519.933
  15  4083.587
  16  3675.357
  17  3530.778
  18  3318.59
  19  2835.807
  20  2116.997
  21  1755.153
  22  2549.045
  23  2611.076
  24  2972.029
  25  2942.962
  26  2484.7
  27  2297.132
  28  2023.952
  29  2376.902
  30  2313.057
  31  4156.899
  32  3993.306
  33  4373.048
  34  4084.095
  35  3010.196
  36  2895.658
  37  2754.726
  38  2495.483
  39  2444.115
  40  3085.362
  41  2797.927
  42  2478.887
  43  1971.511
  44  2136.282
  45  2681.227
  46  2374.428
  47  3633.484
  48  4173.184
  49  4383.517
  50  3694.864
  51  3490.398
  52  3055.349
  53  2068.353
  54  2435.15
  55  2779.025
  56  3652.487
  57  3655.209
  58  2923.257
  59  2278.405
  60  1952.423
  61  2014.188
  62  2130.595
  63  2742.238
  64  3228.297
  65  4356.727
  66  4863.967
  67  4006.974
  68  3456.068
  69  2286.196
  70  2253.889
  71  2174.929
  72  3016.495
  73  3506.783
  74  3649.046
  75  3021.584
  76  2555.779
  77  2476.31
  78  2222.43
  79  2521.777
  80  3246.299
  81  4337.074
  82  4812.552
  83  4302.434
  84  4032.299
  85  2676.567
  86  2352.6
  87  1856.093
  88  2169.697
  89  3065.84
  90  3860.102
  91  3621.199
  92  3074.85
  93  2663.539
  94  2148.202
  95  2078.625
  96  3029.27
  97  3692.745
  98  4266.967
  99  4286.329
 100  3727.155
 101  3445.275
 102  3014.169
 103  2494.058
 104  2261.439
 105  2753.285
 106  3055.873
 107  3140.147
 108  2491.117
 109  2377.774
 110  2447.119
 111  1995.966
 112  2445.868
 113  2823.038
 114  3846.646
 115  3927.675
 116  3759.309
 117  3430.741
 118  2824.888
 119  2785.164
 120  2051.418
 121  2398.591
 122  2831.688
 123  3475.122
 124  3155.441
 125  2606.615
 126  2220.581
 127  2179.391
 128  2561.891
 129  2597.466
 130  4267.14
 131  4640.427
 132  4411.791
 133  3700.722
 134  2944.039
 135  2875.267
 136  2427.896
 137  2816.51
 138  2802.076
 139  3656.768
 140  3415.267
 141  2943.226
 142  2417.468
 143  1570.73
 144  1938.663
 145  2140.643
 146  3108.824
 147  3786.826
 148  4115.729
 149  4094.747
 150  3327.431
 151  2773.964
 152  2273.544
 153  2095.722
 154  2295.051
 155  3071.356
 156  3405.701
 157  3448.517
 158  3051.171
 159  2389.512
 160  2026.632
 161  2164.519
 162  2932.6
 163  4157.154
 164  4709.627
 165  4456.06
 166  3993.225
 167  3438.037
 168  2692.342
 169  2442.503
 170  2537.841
 171  2986.655
 172  3801.143
 173  3759.646
 174  3196.299
 175  2834.183
 176  2307.47
 177  2571.753
 178  2372.028
 179  3546.492
 180  4207.911
 181  4474.46
 182  3763.256
 183  3288.013
 184  3131.086
 185  2649.943
 186  2535.71
 187  2356.147
 188  3259.247
 189  3481.77
 190  3305.373
 191  2853.905
 192  2850.069
 193  2518.741
 194  1963.977
 195  2715.511
 196  3545.469
 197  4582.304
 198  4331.427
 199  4016.188
 200  3331.635
 201  2382.836
 202  2230.399
 203  1949.85
 204  2700.94
 205  3332.706
 206  3584.969
 207  2791.554
 208  2218.875
 209  2307.129
 210  2280.519
 211  3047.243
 212  2994.331
 213  3938.263
 214  4097.28
 215  4369.442
 216  4138.946
 217  2892.921
 218  2638.487
 219  2628.444
 220  2182.602
 221  2582.257
 222  3151.933
 223  2886.588
 224  2704.648
 225  2688.422
 226  2240.549
 227  2361.288
 228  2243.453
 229  3956.096
 230  4465.534
 231  4372.083
 232  3750.434
 233  3127.092
 234  2661.709
 235  1659.124
 236  1939.001
 237  2270.144
 238  2739.838
 239  3428.04
 240  3161.242
 241  2196.59
 242  1689.25
 243  2084.565
 244  2429.966
 245  3134.243
 246  3881.104
 247  4272.037
 248  4224.413
 249  3447.989
 250  2805.631
 251  2184.355
 252  1949.893
 253  2087.48
 254  2587.066
 255  3154.498
 256  3042.303
 257  2638.177
 258  2431.667
 259  1811.964
 260  2456.641
 261  2860.761
 262  3730.741
 263  4226.421
 264  4374.217
 265  3993.922
 266  3633.614
 267  3265.679
 268  2614.107
 269  2348.164
 270  2425.775
 271  2784.606
 272  3447.172
 273  3116.928
 274  2829.568
 275  2611.45
 276  2501.823
 277  2190.776
 278  3216.49
 279  3985.298
 280  4719.638
 281  4262.101
 282  3656.146
 283  3360.671
 284  2731.581
 285  2518.109
 286  2253.006
 287  2831.942
 288  3355.507
 289  3303.923
 290  2950.822
 291  2432.584
 292  2490.879
 293  2257.776
 294  3123.928
 295  3811.417
 296  4711.604
 297  4735.372
 298  5215.364
 299  5397.807
 300  4568.416
 301  4268.712
 302  4120.995
 303  3698.852
 304  3327.476
 305  3168.499
 306  2931.795
 307  2584.106
 308  1995.112
 309  1874.104
 310  2582.063
 311  2781.836
 312  4376.199
 313  4720.74
 314  4198.495
 315  3626.057
 316  2828.219
 317  2897.4
 318  2322.104
 319  2831.763
 320  3154.002
 321  3273.747
 322  3131.787
 323  2327.329
 324  1794.023
 325  1878.977
 326  2280.158
 327  2903.302
 328  3421.349
 329  3935.542
 330  4360.915
 331  4122.985
 332  2929.012
 333  2568.709
 334  2135.365
 335  2211.744
 336  2518.426
 337  3212.955
 338  3272.847
 339  3050.069
 340  2656.394
 341  2350.156
 342  2187.646
 343  2242.756
 344  3062.639
 345  4325.194
 346  4694.654
 347  4402.016
 348  3852.96
 349  3329.669
 350  2939.264
 351  2893.188
 352  2835.329
 353  2827.462
 354  3338.184
 355  3317.217
 356  2955.657
 357  2629.428
 358  2369.066
 359  2535.998
 360  2848.08
 361  4239.083
 362  4683.818
 363  4952.727
 364  4544.514
 365  3410.333
 366  3168.737
 367  2495.488
 368  2723.812
 369  2488.705
 370  2935.139
 371  3222.646
 372  3295.819
 373  2815.449
 374  2391.016
 375  2315.771
 376  2433.06
 377  3448.179
 378  3968.811
 379  4555.403
 380  3737.953
 381  3264.491
 382  2968.655
 383  2176.12
 384  2567.044
 385  1984.438
 386  2726.258
 387  3271
 388  3141.751
 389  2656.586
 390  1910.303
 391  1764.049
 392  1751.784
 393  2740.604
 394  3399.896
 395  4478.725
 396  4317.414
 397  3592.126
 398  2818.961
 399  1938.902
 400  1929.269
 401  2002.023
 402  2416.832
 403  2671.053
 404  2679.883
 405  2175.791
 406  1879.062
 407  1750.153
 408  1929.508
 409  2370.69
 410  2654.404
 411  3438.032
 412  3542.93
 413  3777.858
 414  3207.749
 415  2401.575
 416  1742.308
 417  1235.232
 418  1029.396
 419  1766.156
 420  2731.154
 421  2718.297
 422  2437.493
 423  2018.532
 424  1596.351
 425  1572.474
 426  1946.755
 427  2810.161
 428  3663.602
 429  3778.063
 430  3367.523
 431  3134.187
 432  2201.737
 433  1811.176
 434  1580.489
 435  1687.739
 436  2414.228
 437  3249.709
 438  2904.666
 439  2339.431
 440  2067.408
 441  1713.486
 442  2189.132
 443  2542.74
 444  3804.872
 445  3662.385
 446  3924.821
 447  3701.878
 448  2939.737
 449  2682.154
 450  1982.87
 451  1637.393
 452  2024.478
 453  3066.372
 454  3123.651
 455  3021.18
 456  2361.169
 457  2076.977
 458  2624.825
 459  2730.536
 460  4385.254
 461  4361.822
 462  4225.629
 463  3715.249
 464  2921.306
 465  2957.157
 466  2669.73
 467  3090.047
 468  2170.113
 469  2923.364
 470  2908.315
 471  2364.482
 472  2681.541
 473  2264.634
 474  2638.104
 475  2585.75
 476  3366.319
 477  3766.713
 478  4125.745
 479  3905.435
 480  3574.595
 481  2973.358
 482  2777.775
 483  2799.104
 484  2552.634
 485  2688.673
 486  3101.208
 487  3452.499
 488  2410.206
 489  2089.627
 490  2443.621
 491  2260.953
 492  2875.75
 493  3516.712
 494  4219.028
 495  4303.065
 496  3880.23
 497  3688.944
 498  2913.979
 499  2474.088
 500  1827.037
 501  2518.716
 502  3380.955
 503  3698.748
 504  3473.694
 505  2745.996
 506  2326.158
 507  1832.238
 508  1755.14
 509  2679.182
 510  3481.424
 511  4443.849
