# Input file       =  1209804988.111969-PSRB0329-2ms-sampling-dd.dat
# Candidate        =  PSR_0332+5434
# Telescope        =  AR
# Epoch_topo       =  58246.372767499641
# Epoch_bary       =  N/A
# T_sample         =  0.002
# Data Folded      =  7340032
# Data Avg         =  -2.20425785363054e-09
# Data StdDev      =  7.6273783732382  
# Profile Bins     =  512
# Profile Avg      =  0.644119692962041
# Profile StdDev   =  913.249172222289 
# Reduced chi-sqr  =  0.558
# Prob(Noise)      <  1   (~0.0 sigma)
# P_topo (ms)      =  714.539948328495  +/- 0.000762
# P'_topo (s/s)    =  -0                +/- 4.02e-10
# P''_topo (s/s^2) =  0                 +/- 1.78e-13
# P_bary (ms)      =  N/A
# P'_bary (s/s)    =  N/A
# P''_bary (s/s^2) =  N/A
# P_orb (s)        =  N/A
# asin(i)/c (s)    =  N/A
# eccentricity     =  N/A
# w (rad)          =  N/A
# T_peri           =  N/A
######################################################
   0  77.79
   1  -225.6374
   2  -152.9882
   3  -171.6299
   4  -233.669
   5  -323.0205
   6  -200.5468
   7  -194.643
   8  -319.2366
   9  211.9084
  10  159.2785
  11  945.1287
  12  1127.214
  13  1231.012
  14  1095.748
  15  -325.7043
  16  -275.3082
  17  -95.72526
  18  597.479
  19  589.5291
  20  409.7304
  21  125.4339
  22  -415.5816
  23  -389.0664
  24  -138.8332
  25  -43.27143
  26  -162.1253
  27  -633.8687
  28  -958.692
  29  -935.5001
  30  -646.9507
  31  -556.0732
  32  -845.4356
  33  -740.4084
  34  -510.0812
  35  -697.6971
  36  -805.7585
  37  -1156.17
  38  -842.8987
  39  -571.4458
  40  -650.0949
  41  -538.8246
  42  -431.2847
  43  -446.868
  44  -128.9082
  45  93.06747
  46  -27.70473
  47  114.3006
  48  337.2414
  49  -72.61987
  50  -27.90038
  51  -88.73684
  52  -366.0853
  53  -9.693722
  54  196.699
  55  47.03646
  56  4.782799
  57  -40.6065
  58  191.1559
  59  45.14537
  60  105.1032
  61  183.2857
  62  110.0097
  63  -164.9662
  64  -92.00703
  65  -193.1852
  66  -158.0542
  67  205.6142
  68  757.053
  69  862.7518
  70  884.7358
  71  684.788
  72  280.3553
  73  456.8837
  74  246.9233
  75  -141.5943
  76  5.412004
  77  186.697
  78  123.5992
  79  -142.3013
  80  -56.81128
  81  193.0606
  82  101.6298
  83  222.2788
  84  79.25381
  85  235.3629
  86  273.6339
  87  70.58668
  88  309.9504
  89  671.023
  90  236.8627
  91  13.57182
  92  161.4776
  93  -106.5951
  94  89.27198
  95  347.0709
  96  -19.12245
  97  -219.9978
  98  -192.5745
  99  -305.1243
 100  -414.1495
 101  -122.7501
 102  -85.8258
 103  -179.9749
 104  -23.64964
 105  5.780941
 106  186.0932
 107  642.569
 108  673.9102
 109  336.7791
 110  462.8967
 111  568.4442
 112  -153.2428
 113  237.7993
 114  311.4452
 115  20.26764
 116  -227.5293
 117  -265.5968
 118  -74.75083
 119  59.38987
 120  197.8131
 121  243.9701
 122  234.4679
 123  -341.2455
 124  -363.3214
 125  -539.9637
 126  -240.4199
 127  316.6983
 128  187.4058
 129  76.72616
 130  1.542334
 131  -314.8676
 132  -266.5308
 133  -302.6715
 134  -118.4175
 135  -296.3172
 136  138.8393
 137  654.5068
 138  533.3033
 139  -202.8733
 140  217.4674
 141  514.1275
 142  311.4002
 143  710.1351
 144  625.2643
 145  397.7616
 146  -40.35831
 147  167.2908
 148  401.197
 149  392.7665
 150  277.4712
 151  36.8295
 152  36.24084
 153  -253.3341
 154  81.27932
 155  -150.86
 156  42.92923
 157  125.8588
 158  12.69367
 159  -141.3091
 160  -446.2139
 161  -115.6122
 162  216.7385
 163  -572.9603
 164  -248.4882
 165  -96.99848
 166  -373.658
 167  -278.0091
 168  113.3197
 169  329.7951
 170  279.2963
 171  -16.9325
 172  -501.827
 173  -352.4852
 174  -237.614
 175  -97.38712
 176  -253.8248
 177  -164.2611
 178  -168.8881
 179  -521.0283
 180  -255.7093
 181  -337.7234
 182  -849.9818
 183  -595.7322
 184  -722.7987
 185  -634.4323
 186  -682.9293
 187  -523.4857
 188  -199.5067
 189  -4.607389
 190  -18.59019
 191  -35.56006
 192  -109.2146
 193  -143.3094
 194  -6.077702
 195  -318.7966
 196  6.543954
 197  -92.52827
 198  -330.016
 199  -120.4767
 200  -153.3732
 201  -53.65053
 202  146.0036
 203  111.2955
 204  117.2656
 205  311.9875
 206  221.8106
 207  9.773952
 208  373.5273
 209  667.8355
 210  606.7726
 211  385.1256
 212  634.9679
 213  751.9798
 214  501.6508
 215  759.126
 216  610.58
 217  733.8224
 218  1028.579
 219  1043.346
 220  1168.221
 221  1307.366
 222  980.3286
 223  1071.713
 224  1269.369
 225  1008.883
 226  915.8394
 227  1046.07
 228  950.8118
 229  688.5349
 230  516.6519
 231  608.3679
 232  497.7236
 233  17.75606
 234  271.8109
 235  122.4858
 236  280.5796
 237  74.13015
 238  607.7729
 239  562.4362
 240  379.2232
 241  788.5482
 242  670.0696
 243  539.7666
 244  454.3678
 245  608.3135
 246  570.6537
 247  501.2689
 248  423.9979
 249  337.262
 250  575.7949
 251  826.645
 252  638.974
 253  698.0608
 254  693.7566
 255  344.8809
 256  103.5052
 257  460.2769
 258  871.1761
 259  1123.653
 260  1024.783
 261  496.5266
 262  400.6334
 263  216.0787
 264  329.3415
 265  519.3101
 266  304.4755
 267  426.17
 268  581.9513
 269  428.4834
 270  242.7211
 271  295.2794
 272  391.1665
 273  548.0867
 274  911.1727
 275  851.0987
 276  704.8627
 277  635.4597
 278  809.6547
 279  895.9066
 280  837.2804
 281  1235.992
 282  1389.895
 283  617.1603
 284  986.5687
 285  1222.903
 286  665.7171
 287  285.8023
 288  292.4803
 289  -89.64449
 290  -240.6723
 291  93.30169
 292  453.3249
 293  63.03523
 294  -76.96316
 295  155.4062
 296  -90.23035
 297  -31.10678
 298  319.8598
 299  37.01844
 300  -41.65712
 301  -226.5172
 302  -208.7199
 303  42.21154
 304  21.68225
 305  -12.83378
 306  370.3116
 307  637.9274
 308  269.1451
 309  183.2536
 310  506.2792
 311  636.4875
 312  583.0568
 313  339.0805
 314  412.9449
 315  224.7205
 316  396.7889
 317  173.2429
 318  181.876
 319  -83.68559
 320  -182.5425
 321  -322.3582
 322  -218.9277
 323  -431.945
 324  -510.0562
 325  -17.73094
 326  -145.7594
 327  -168.6526
 328  -308.1439
 329  -808.5615
 330  -866.3866
 331  -446.1861
 332  -391.1487
 333  -402.2113
 334  23.39017
 335  -14.22113
 336  -315.946
 337  -401.8678
 338  -543.1248
 339  -749.6161
 340  -461.6993
 341  -351.2452
 342  -628.8201
 343  -616.4769
 344  -778.4393
 345  -1009.322
 346  -797.3251
 347  -888.0948
 348  -625.3359
 349  -482.6036
 350  -576.879
 351  -730.2208
 352  -676.0547
 353  -691.066
 354  -320.8562
 355  -484.3295
 356  -424.8249
 357  -191.1674
 358  -131.3357
 359  -151.8931
 360  238.3206
 361  365.8368
 362  19.37522
 363  -323.6193
 364  -66.16182
 365  -338.1844
 366  -340.2231
 367  -65.09302
 368  -127.1558
 369  -94.13628
 370  -168.2664
 371  -5.761366
 372  -164.3691
 373  -61.26065
 374  -72.94673
 375  204.1441
 376  53.86943
 377  -130.6334
 378  63.3335
 379  127.2438
 380  368.3346
 381  -5.684844
 382  307.1193
 383  131.7388
 384  -83.50783
 385  -180.0417
 386  -384.5529
 387  -232.9673
 388  -468.4932
 389  -509.8354
 390  -579.1252
 391  -921.7045
 392  -811.8867
 393  -780.1371
 394  -488.67
 395  -685.6382
 396  -512.9598
 397  -598.3456
 398  -544.1212
 399  -687.9965
 400  -528.5784
 401  -327.7955
 402  -261.3889
 403  -201.9197
 404  -539.7651
 405  -738.9475
 406  -697.8878
 407  -655.1572
 408  -417.3813
 409  -115.508
 410  -331.6848
 411  -637.0953
 412  -869.1592
 413  -1039.46
 414  -1305.223
 415  -845.4294
 416  -498.5724
 417  -612.3884
 418  -570.9847
 419  -698.8746
 420  -1020.757
 421  -855.094
 422  -582.8732
 423  -767.9142
 424  -448.9669
 425  -510.8819
 426  -291.3474
 427  63.49537
 428  217.4952
 429  63.89978
 430  364.6989
 431  180.022
 432  -159.8799
 433  199.1218
 434  231.6623
 435  239.2039
 436  216.6003
 437  -57.07351
 438  -191.1836
 439  84.61662
 440  65.07999
 441  -142.3912
 442  -247.2927
 443  129.1214
 444  -176.2928
 445  -329.238
 446  -89.04865
 447  -206.8523
 448  -357.0177
 449  88.68618
 450  -39.4908
 451  103.0528
 452  15.41871
 453  -556.6783
 454  -841.4725
 455  -701.3142
 456  -325.1294
 457  -231.357
 458  -588.0156
 459  -198.285
 460  -90.47561
 461  -319.3877
 462  -289.8035
 463  -180.2572
 464  -117.4631
 465  113.4469
 466  -126.4149
 467  -205.7022
 468  -359.3609
 469  -585.4463
 470  -433.4707
 471  -386.4401
 472  -371.8296
 473  -341.2127
 474  -845.6334
 475  -1199.745
 476  -701.3884
 477  -464.6007
 478  -387.1732
 479  -190.7755
 480  -204.5349
 481  -70.82277
 482  -127.8887
 483  -275.05
 484  -223.5374
 485  -262.9586
 486  -220.0646
 487  -764.5267
 488  -806.9379
 489  -530.1445
 490  -304.116
 491  -185.2259
 492  -194.6459
 493  -337.0344
 494  -94.45515
 495  -389.0984
 496  -280.5897
 497  -47.66248
 498  6.472592
 499  -94.14815
 500  -317.1713
 501  -168.5274
 502  109.1476
 503  176.7545
 504  461.8261
 505  449.85
 506  835.1016
 507  1193.245
 508  1675.134
 509  1856.831
 510  1310.729
 511  698.9047
