# Input file       =  1209733729.112785_cleaned.dat
# Candidate        =  PSR_0332+5434
# Telescope        =  AR
# Epoch_topo       =  58245.548010564642
# Epoch_bary       =  N/A
# T_sample         =  0.002
# Data Folded      =  7340032
# Data Avg         =  0.161727935276368
# Data StdDev      =  3.67638350371864 
# Profile Bins     =  512
# Profile Avg      =  2318.40393153815 
# Profile StdDev   =  440.184559785686 
# Reduced chi-sqr  =  0.902
# Prob(Noise)      <  0.946   (~0.0 sigma)
# P_topo (ms)      =  714.541057272615  +/- 0.000442
# P'_topo (s/s)    =  -0                +/- 2.33e-10
# P''_topo (s/s^2) =  0                 +/- 1.03e-13
# P_bary (ms)      =  N/A
# P'_bary (s/s)    =  N/A
# P''_bary (s/s^2) =  N/A
# P_orb (s)        =  N/A
# asin(i)/c (s)    =  N/A
# eccentricity     =  N/A
# w (rad)          =  N/A
# T_peri           =  N/A
######################################################
   0  2361.968
   1  2225.24
   2  2444.762
   3  2342.802
   4  2435.842
   5  2068.55
   6  2138.3
   7  2161.128
   8  2113.122
   9  2198.144
  10  2367.486
  11  2507.124
  12  2340.111
  13  2172.39
  14  2207.539
  15  2248.612
  16  2295.232
  17  1900.749
  18  2208.883
  19  2449.47
  20  2530.919
  21  2235.271
  22  2219.958
  23  2430.222
  24  2529.129
  25  2038.858
  26  2293.445
  27  2370.789
  28  2391.948
  29  2296.584
  30  2147.552
  31  2457.812
  32  2346.755
  33  2475.011
  34  2456.961
  35  2314.521
  36  2179.097
  37  2354.073
  38  2325.863
  39  1992.618
  40  1964.953
  41  2001.379
  42  2381.451
  43  2207.16
  44  2398.987
  45  2459.079
  46  2386.651
  47  2433.933
  48  2299.708
  49  2064.491
  50  2006.969
  51  2270.026
  52  2340.49
  53  2407.179
  54  2707.563
  55  3005.029
  56  2864.818
  57  2485.202
  58  2436.99
  59  2333.405
  60  2307.765
  61  2057.217
  62  1974.361
  63  1966.015
  64  1836.239
  65  2125.299
  66  2134.032
  67  2391.961
  68  2033.601
  69  1550.51
  70  1698.138
  71  1982.13
  72  1819.378
  73  1925.274
  74  1794.479
  75  1822.723
  76  2075.809
  77  1787.881
  78  1702.6
  79  1688.588
  80  1951.369
  81  2161.75
  82  1947.021
  83  2038.996
  84  2029.649
  85  2122.631
  86  1854.3
  87  1550.799
  88  1591.523
  89  2068.774
  90  1694.789
  91  1966.309
  92  2269.69
  93  1928.957
  94  1679.4
  95  1968.269
  96  2191.472
  97  2190.154
  98  2026.797
  99  2058.635
 100  1969.218
 101  2323.353
 102  2124.711
 103  2188.319
 104  2418.093
 105  2158.587
 106  1862.051
 107  1867.976
 108  2169.672
 109  2446.773
 110  2166.309
 111  2061.339
 112  1791.041
 113  1809.522
 114  2032.829
 115  2259.172
 116  2208.531
 117  1971.006
 118  2062.905
 119  2188.352
 120  2400.288
 121  2305.444
 122  2528.929
 123  2399.841
 124  2332.175
 125  2453.719
 126  2577.337
 127  2755.749
 128  2225.435
 129  2170.572
 130  2206.424
 131  2261.947
 132  2183.508
 133  1864.079
 134  1908.833
 135  1944.181
 136  1847.731
 137  2115.235
 138  2106.6
 139  2104.732
 140  2385.6
 141  2348.445
 142  2184.525
 143  1772.149
 144  2046.47
 145  2094.585
 146  2163.754
 147  2274.551
 148  2567.587
 149  2466.858
 150  2793.924
 151  2794.833
 152  2581.71
 153  2483.347
 154  2204.229
 155  2125.885
 156  2308.856
 157  2574.952
 158  2725.167
 159  2194.629
 160  2282.594
 161  2304.824
 162  2131.322
 163  2221.802
 164  2337.181
 165  2439.141
 166  2169.558
 167  2192.766
 168  2338.556
 169  2054.04
 170  1841.951
 171  2140.739
 172  2199.421
 173  2046.986
 174  2122.2
 175  2047.747
 176  2088.159
 177  1981.769
 178  2364.708
 179  2253.831
 180  2411.621
 181  2193.751
 182  2216.292
 183  2192.768
 184  2399.741
 185  2343.122
 186  2267.942
 187  2005.132
 188  2031.938
 189  2053.646
 190  2176.221
 191  2377.784
 192  2266.707
 193  2345.7
 194  2207.704
 195  2153.628
 196  2132.175
 197  2284.228
 198  2546.55
 199  2384.757
 200  2091.982
 201  2287.882
 202  2628.815
 203  2455.969
 204  2240.863
 205  2177.583
 206  2342.526
 207  2417.156
 208  2180.241
 209  2363.932
 210  2590.871
 211  2677.717
 212  2363.861
 213  2548.578
 214  2343.388
 215  2525.699
 216  2773.189
 217  2441.074
 218  2591.475
 219  2738.073
 220  2755.731
 221  2747.007
 222  2814.285
 223  2607.434
 224  2660.165
 225  2687.753
 226  2558.177
 227  2670.218
 228  2782.747
 229  2546.563
 230  2467.416
 231  2316.042
 232  2267.555
 233  2048.188
 234  2317.744
 235  2463.437
 236  2432.296
 237  2466.707
 238  2597.983
 239  2787.141
 240  2844.046
 241  2867.384
 242  2482.441
 243  2093.641
 244  2366.977
 245  2246.812
 246  2351.548
 247  2840.544
 248  2556.053
 249  2396.585
 250  2282.53
 251  2558.948
 252  2482.101
 253  2385.06
 254  2252.277
 255  2598.338
 256  2293.184
 257  2416.111
 258  2242.5
 259  2304.686
 260  2461.77
 261  2716.56
 262  2744.758
 263  2908.528
 264  2927.012
 265  2744.146
 266  2783.529
 267  2388.725
 268  2352.427
 269  2074.331
 270  2399.159
 271  2637.786
 272  2597.59
 273  2406.933
 274  1991.488
 275  1992.37
 276  2264.875
 277  2317.82
 278  2608.688
 279  2809.292
 280  2546.233
 281  2301.364
 282  2194.118
 283  2613.618
 284  2958.055
 285  2555.465
 286  2137.826
 287  2407.644
 288  2298.065
 289  2476.472
 290  2186.564
 291  2227.349
 292  2327.493
 293  2505.403
 294  2528.786
 295  2777.228
 296  2943.921
 297  3150.938
 298  3826.034
 299  3774.818
 300  3728.897
 301  3743.886
 302  3773.338
 303  3113.586
 304  2744.108
 305  2743.978
 306  2511.393
 307  2229.567
 308  2076.765
 309  1653.993
 310  1813.15
 311  2392.13
 312  2438.992
 313  2105.49
 314  2175.549
 315  2312.144
 316  1975.5
 317  1940.201
 318  1965.545
 319  2006.678
 320  2108.569
 321  1990.303
 322  1873.735
 323  2145.946
 324  2040.226
 325  1717.685
 326  1979.957
 327  2185.159
 328  2064.816
 329  1950.812
 330  2089.665
 331  1976.217
 332  2055.2
 333  2307.138
 334  2288.631
 335  2188.355
 336  2479.904
 337  2519.734
 338  2477.125
 339  2591.198
 340  2721.46
 341  2435.579
 342  2254.283
 343  2477.181
 344  2625.586
 345  2815.724
 346  2737.989
 347  2263.344
 348  2492.674
 349  2445.243
 350  2485.634
 351  2512.071
 352  2540.977
 353  2877.755
 354  2737.187
 355  2079.193
 356  2158.217
 357  2402.608
 358  2323.296
 359  2217.257
 360  2109.654
 361  2676.015
 362  2562.266
 363  2245.651
 364  2262.686
 365  2306.866
 366  2233.539
 367  2343.925
 368  2584.901
 369  2333.634
 370  2094.981
 371  2276.901
 372  2490.872
 373  2457.977
 374  2067.595
 375  1730.122
 376  1655.747
 377  2282.657
 378  2059.475
 379  1960.145
 380  2203.212
 381  2162.289
 382  2375.368
 383  2250.89
 384  2308.473
 385  2096.827
 386  2482.727
 387  2668.751
 388  2719.01
 389  2549.737
 390  2460.515
 391  2227.635
 392  2213.853
 393  2441.448
 394  2250.029
 395  2026.081
 396  2254.124
 397  2185.471
 398  2397.213
 399  2531.206
 400  2575.416
 401  2200.348
 402  2408.309
 403  2444.103
 404  2488.484
 405  2598.704
 406  2665.58
 407  2758.628
 408  2341.942
 409  2297.237
 410  2042.018
 411  1856.964
 412  2318.829
 413  2155.339
 414  2358.796
 415  2445.226
 416  2436.981
 417  2214.202
 418  2078.166
 419  2431.45
 420  2182.26
 421  2213.404
 422  2505.955
 423  2377.615
 424  2252.918
 425  2437.876
 426  2505.97
 427  2414.394
 428  2262.211
 429  1682.41
 430  1892.873
 431  2204.39
 432  2499.858
 433  2472.658
 434  2573.51
 435  2327.203
 436  2132.757
 437  2407.374
 438  2623.685
 439  2595.778
 440  2612.345
 441  2806.72
 442  2483.486
 443  2257.169
 444  2527.284
 445  2758.931
 446  2843.381
 447  2550.996
 448  2298.095
 449  2325.287
 450  2374.043
 451  2321.827
 452  2286.136
 453  2375.217
 454  2354.379
 455  2481.72
 456  2466.545
 457  2493.96
 458  2446.626
 459  2285.388
 460  2673.48
 461  2540.804
 462  2413.76
 463  2554.637
 464  2587.661
 465  2347.974
 466  2384.048
 467  2176.135
 468  2333.813
 469  2270.743
 470  2292.892
 471  2196.209
 472  2250.542
 473  2233.706
 474  2534.458
 475  2407.716
 476  2143.553
 477  1892.131
 478  2190.446
 479  2422.405
 480  2592.136
 481  2593.048
 482  2523.775
 483  2235.082
 484  2231.212
 485  2465.182
 486  2498.574
 487  2436.927
 488  2503.065
 489  2583.653
 490  2716.802
 491  2440.187
 492  2015.002
 493  1780.192
 494  1914.238
 495  2046.599
 496  2355.427
 497  2492.152
 498  2540.986
 499  2271.947
 500  1920.029
 501  1996.977
 502  1785.572
 503  1970.625
 504  2071.002
 505  2059.143
 506  1981.348
 507  2126.876
 508  2348.96
 509  2337.447
 510  2394.605
 511  2383.313
