# Input file       =  1209130620.106693_cleaned.dat
# Candidate        =  PSR_0332+5434
# Telescope        =  AR
# Epoch_topo       =  58238.567582253389
# Epoch_bary       =  N/A
# T_sample         =  0.002
# Data Folded      =  7340032
# Data Avg         =  0.258969148051359
# Data StdDev      =  5.81458080311327 
# Profile Bins     =  512
# Profile Avg      =  3712.52900985293 
# Profile StdDev   =  696.197414814807 
# Reduced chi-sqr  =  1.018
# Prob(Noise)      <  0.38   (~0.3 sigma)
# P_topo (ms)      =  714.547455504126  +/- 0.000187
# P'_topo (s/s)    =  -0                +/- 9.88e-11
# P''_topo (s/s^2) =  0                 +/- 4.36e-14
# P_bary (ms)      =  N/A
# P'_bary (s/s)    =  N/A
# P''_bary (s/s^2) =  N/A
# P_orb (s)        =  N/A
# asin(i)/c (s)    =  N/A
# eccentricity     =  N/A
# w (rad)          =  N/A
# T_peri           =  N/A
######################################################
   0  4554.798
   1  4415.016
   2  4381.747
   3  4243.703
   4  4114.904
   5  4398.055
   6  4267.488
   7  4036.947
   8  3644.771
   9  3639.576
  10  3992.209
  11  3678.121
  12  3657.707
  13  3793.247
  14  3770.678
  15  3846.143
  16  3494.727
  17  3355.018
  18  3580.384
  19  3408.865
  20  3449.999
  21  3483.535
  22  3619.204
  23  3845.593
  24  3668.46
  25  3557.445
  26  3619.075
  27  4121.501
  28  4049.942
  29  3867.42
  30  3510.977
  31  3622.158
  32  3573.909
  33  3705.102
  34  4081.693
  35  4015.281
  36  4351.094
  37  4269.875
  38  4277.153
  39  4195.265
  40  4160.665
  41  4123.517
  42  4065.651
  43  3844.305
  44  3914.582
  45  4034.374
  46  4220.312
  47  3952.131
  48  3778.285
  49  3890.187
  50  3998.403
  51  3864.796
  52  3785.24
  53  3980.345
  54  3814.117
  55  3872.533
  56  4017.443
  57  3963.928
  58  3640.986
  59  3375.863
  60  3343.997
  61  3657.036
  62  3475.854
  63  3730.132
  64  3521.024
  65  3615.717
  66  3523.692
  67  3624.294
  68  3804.519
  69  3534.744
  70  3708.79
  71  4099.169
  72  3907.362
  73  3700.345
  74  3879.853
  75  3838.166
  76  3693.112
  77  3458.319
  78  3686.981
  79  4530.637
  80  4760.312
  81  4215.469
  82  3508.573
  83  3241.36
  84  3075.017
  85  3349.756
  86  3665.819
  87  3640.52
  88  3134.601
  89  2839.405
  90  3163.484
  91  2820.205
  92  2863.689
  93  2580.844
  94  2479.261
  95  3016.141
  96  3290.509
  97  3287.557
  98  3439.896
  99  3837.571
 100  3954.766
 101  4193.476
 102  4380.477
 103  4654.061
 104  4576.395
 105  4435.151
 106  4537.58
 107  4297.136
 108  4117.64
 109  4099.962
 110  4190.819
 111  4308.007
 112  4483.905
 113  4295.177
 114  4190.362
 115  3955.413
 116  3844.364
 117  3657.138
 118  3778.726
 119  3739.218
 120  3383.976
 121  3619.794
 122  3867.893
 123  3919.056
 124  3811.644
 125  3295.594
 126  2895.714
 127  3157.326
 128  3317.39
 129  3658.191
 130  3603.279
 131  3895.624
 132  3241.224
 133  3234.1
 134  3331.113
 135  3337.449
 136  3489.242
 137  3734.245
 138  3922.232
 139  3694.123
 140  3643.007
 141  3864.234
 142  3727.027
 143  3431.27
 144  3372.863
 145  3490.731
 146  3714.304
 147  4015.278
 148  3908.025
 149  4035.729
 150  3867.866
 151  3223.68
 152  3259.374
 153  3449.772
 154  3550.309
 155  3905.79
 156  3882.787
 157  3540.658
 158  3059.293
 159  3228.083
 160  2750.094
 161  2843.717
 162  2805.263
 163  2807.74
 164  2831.42
 165  3078.557
 166  3266.385
 167  3449.206
 168  3514.581
 169  3661.996
 170  4068.353
 171  4341.978
 172  3784.509
 173  3613.414
 174  3585.216
 175  4041.197
 176  4046.486
 177  4284.097
 178  4179.154
 179  4431.136
 180  4505.396
 181  4305.961
 182  4407.284
 183  4191.661
 184  3929.986
 185  4323.832
 186  4285.891
 187  4064.752
 188  3964.071
 189  3774.579
 190  3409.493
 191  3395.573
 192  3524.113
 193  3432.177
 194  3390.616
 195  3545.905
 196  3595.219
 197  3469.178
 198  3638.905
 199  3404.734
 200  3195.661
 201  3100.154
 202  2765.7
 203  3239.538
 204  3132.215
 205  3318.29
 206  3309.738
 207  3234.021
 208  3083.646
 209  3416.944
 210  3637.991
 211  3411.22
 212  3139.046
 213  3443.677
 214  3470.951
 215  3122.572
 216  3006.504
 217  3262.908
 218  3529.778
 219  2872.074
 220  3014.133
 221  2970.022
 222  3393.629
 223  3669.294
 224  3469.823
 225  3154.038
 226  3282.998
 227  3247.477
 228  3178.447
 229  3536.346
 230  3749.076
 231  3772.946
 232  3389.649
 233  2938.133
 234  2560.146
 235  2830.666
 236  2917.063
 237  2677.033
 238  2572.467
 239  2811.647
 240  2582.754
 241  2741.728
 242  2445.365
 243  2466.448
 244  2965.657
 245  3116.854
 246  3117.088
 247  3126.877
 248  3225.851
 249  3178.001
 250  3334.731
 251  3840.922
 252  3676.309
 253  3327.085
 254  3322.209
 255  3401.195
 256  3548.084
 257  3394.555
 258  3625.615
 259  3493.387
 260  3163.106
 261  3030.392
 262  3330.438
 263  3383.801
 264  3637.267
 265  3940.397
 266  3764.637
 267  3355.642
 268  3109.259
 269  3280.125
 270  3244.559
 271  3592.837
 272  3667.678
 273  3670.204
 274  3414.92
 275  2857.871
 276  2891.987
 277  3373.033
 278  3227.984
 279  3343.007
 280  3441.27
 281  3448.497
 282  3118.559
 283  3356.039
 284  3790.054
 285  4011.848
 286  3753.316
 287  4000.599
 288  3984.568
 289  4336.93
 290  4389.559
 291  4170.65
 292  4295.833
 293  4535.254
 294  4467.98
 295  4731.52
 296  4577.754
 297  4580.842
 298  5025.911
 299  5607.031
 300  5423.768
 301  5750.422
 302  5814.729
 303  5237.223
 304  3963.739
 305  3535.467
 306  3274.835
 307  3439.582
 308  3154.724
 309  2897.443
 310  2964.23
 311  3010.039
 312  2916.627
 313  3397.884
 314  3474.611
 315  3610.845
 316  3554.556
 317  3586.972
 318  3309.085
 319  3298.978
 320  3758.193
 321  3654.938
 322  3800.489
 323  3997.45
 324  3865.964
 325  3295.84
 326  3443.54
 327  3975.178
 328  4249.147
 329  4132.006
 330  4496.966
 331  4276.252
 332  3833.892
 333  4080.097
 334  4131.927
 335  4244.443
 336  4062.311
 337  3749.31
 338  3543.333
 339  3680.884
 340  3786.76
 341  3436.583
 342  3494.356
 343  3542.17
 344  3499.263
 345  3308.442
 346  3371.082
 347  3629.304
 348  3764.356
 349  3897.086
 350  3905.064
 351  3705.511
 352  3607.509
 353  3426.639
 354  3446.511
 355  3773.219
 356  3759.472
 357  3495.184
 358  3646.338
 359  4295.324
 360  4112.049
 361  3647.813
 362  3506.474
 363  3701.356
 364  3756.396
 365  4073.859
 366  3850.837
 367  4098.658
 368  4130.433
 369  4048.584
 370  3722.969
 371  4116.61
 372  4496.874
 373  4053.196
 374  3671.252
 375  3910.86
 376  3963.017
 377  4279.744
 378  4146.468
 379  4088.995
 380  3557.081
 381  3722.424
 382  3878.309
 383  3650.451
 384  3541.376
 385  3397.554
 386  2951.469
 387  2992.43
 388  3454.5
 389  3270.538
 390  3353.46
 391  3562.995
 392  3932.656
 393  3905.082
 394  3820.977
 395  3769.135
 396  3636.706
 397  3614.65
 398  3698.223
 399  3502.609
 400  3412.642
 401  3344.914
 402  3479.82
 403  3409.706
 404  3486.08
 405  3950.726
 406  3857.716
 407  3307.883
 408  3202.124
 409  3086.676
 410  3635.273
 411  3598.48
 412  2976.22
 413  3248.928
 414  3451.189
 415  3433.396
 416  3382.42
 417  3101.94
 418  3311.12
 419  3446.554
 420  3522.039
 421  3328.708
 422  3381.866
 423  2872.268
 424  3371.246
 425  3089.765
 426  3437.055
 427  3432.577
 428  3014.813
 429  3049.517
 430  3781.139
 431  3902.922
 432  3595.622
 433  3539.642
 434  3410.064
 435  3756.408
 436  4410.386
 437  4697.895
 438  4778.341
 439  4542.879
 440  4411.983
 441  4410.086
 442  4375.45
 443  4948.962
 444  4882.652
 445  4760.453
 446  5215.979
 447  4958.111
 448  4863.715
 449  4638.218
 450  4712.864
 451  4063.682
 452  4185.231
 453  3866.822
 454  3655.12
 455  3897.626
 456  3715.289
 457  3677.579
 458  3530.93
 459  3826.656
 460  3817.842
 461  3295.385
 462  3262.27
 463  3882.483
 464  3871.073
 465  3758.383
 466  3495.619
 467  3839.137
 468  4117.236
 469  4044.616
 470  4108.285
 471  4106.072
 472  4421.913
 473  4584.823
 474  4277.456
 475  4482.227
 476  4453.956
 477  4511.834
 478  4575.165
 479  4757.638
 480  4374.448
 481  4327.709
 482  4332.566
 483  4244.24
 484  4043.14
 485  3542.96
 486  3532.494
 487  3991.492
 488  3844.799
 489  3568.058
 490  3416.804
 491  3680.188
 492  3815.565
 493  3904.231
 494  4118.445
 495  3712.937
 496  3490.881
 497  3419.089
 498  3353.132
 499  3207.824
 500  3293.397
 501  3387.989
 502  3700.95
 503  3854.701
 504  4051.725
 505  4254.721
 506  3731.399
 507  3636.756
 508  4263.004
 509  4465.076
 510  4323.767
 511  4488.809
