# Input file       =  1209445701.104754_cleaned.dat
# Candidate        =  PSR_0332+5434
# Telescope        =  AR
# Epoch_topo       =  58242.214353064279
# Epoch_bary       =  N/A
# T_sample         =  0.002
# Data Folded      =  7143424
# Data Avg         =  0.0353163272912718
# Data StdDev      =  1.00005334481457 
# Profile Bins     =  512
# Profile Avg      =  492.741493322577 
# Profile StdDev   =  118.124885495854 
# Reduced chi-sqr  =  1.664
# Prob(Noise)      <  2.56e-19   (~8.9 sigma)
# P_topo (ms)      =  714.543803753648  +/- 8.42e-05
# P'_topo (s/s)    =  -0                +/- 4.57e-11
# P''_topo (s/s^2) =  0                 +/- 2.07e-14
# P_bary (ms)      =  N/A
# P'_bary (s/s)    =  N/A
# P''_bary (s/s^2) =  N/A
# P_orb (s)        =  N/A
# asin(i)/c (s)    =  N/A
# eccentricity     =  N/A
# w (rad)          =  N/A
# T_peri           =  N/A
######################################################
   0  1337.45
   1  1172.989
   2  962.1489
   3  669.5179
   4  484.8296
   5  399.3288
   6  477.6117
   7  552.0921
   8  563.5786
   9  603.735
  10  497.3507
  11  513.2708
  12  491.7345
  13  526.1221
  14  622.747
  15  635.2879
  16  618.8358
  17  381.4367
  18  352.0355
  19  422.8026
  20  447.6931
  21  466.195
  22  419.8476
  23  477.7922
  24  505.0887
  25  418.3095
  26  394.2794
  27  489.6114
  28  500.5005
  29  317.3182
  30  412.2286
  31  671.4846
  32  652.157
  33  592.4727
  34  546.4491
  35  508.5541
  36  512.2629
  37  338.0875
  38  368.9765
  39  415.4318
  40  532.0498
  41  597.9879
  42  472.813
  43  596.2364
  44  528.976
  45  561.7282
  46  544.2818
  47  532.1212
  48  437.1433
  49  569.5436
  50  544.8539
  51  516.0381
  52  496.0082
  53  483.5085
  54  453.2159
  55  457.0861
  56  494.1412
  57  490.3696
  58  547.462
  59  552.8043
  60  418.835
  61  419.1099
  62  405.4117
  63  484.8551
  64  596.6017
  65  673.1279
  66  704.1327
  67  574.8994
  68  442.4888
  69  493.981
  70  512.7114
  71  387.3797
  72  498.3398
  73  514.9642
  74  489.5861
  75  436.8653
  76  509.15
  77  534.7777
  78  471.7938
  79  503.5764
  80  520.0687
  81  506.9293
  82  421.2012
  83  393.7472
  84  493.9716
  85  431.1946
  86  495.5897
  87  366.8283
  88  405.0873
  89  412.5322
  90  391.7357
  91  436.043
  92  394.5864
  93  505.8575
  94  532.8079
  95  527.3594
  96  521.3673
  97  439.6768
  98  476.4954
  99  526.579
 100  594.4393
 101  576.4636
 102  556.5115
 103  420.8858
 104  277.6022
 105  367.8619
 106  449.7742
 107  487.9077
 108  436.3252
 109  491.7746
 110  705.3415
 111  622.6565
 112  545.2325
 113  591.1353
 114  675.1497
 115  564.0731
 116  422.6923
 117  403.9935
 118  537.2275
 119  572.4118
 120  526.5103
 121  425.8004
 122  494.2967
 123  441.2699
 124  401.053
 125  460.4127
 126  502.8227
 127  580.1086
 128  608.8766
 129  437.3423
 130  397.5821
 131  495.0113
 132  437.2051
 133  395.7623
 134  430.9969
 135  546.2526
 136  462.1068
 137  427.8598
 138  418.4655
 139  433.5587
 140  508.9415
 141  565.1895
 142  534.7426
 143  518.821
 144  530.8643
 145  393.9586
 146  528.1581
 147  531.2881
 148  540.3206
 149  413.3335
 150  473.2914
 151  390.5769
 152  315.326
 153  447.095
 154  482.056
 155  465.6901
 156  579.3745
 157  539.4225
 158  432.8532
 159  466.7674
 160  458.3723
 161  501.3954
 162  470.8835
 163  555.3254
 164  616.7003
 165  515.9108
 166  458.8239
 167  546.3634
 168  470.4982
 169  439.331
 170  329.6658
 171  415.4966
 172  358.8517
 173  490.0349
 174  471.4847
 175  510.9262
 176  388.6663
 177  400.4417
 178  391.3519
 179  519.0836
 180  587.6027
 181  607.693
 182  659.5413
 183  479.7294
 184  432.502
 185  475.5522
 186  518.5056
 187  557.5898
 188  502.1231
 189  421.9199
 190  456.6277
 191  438.7113
 192  383.0267
 193  718.6253
 194  657.2648
 195  585.785
 196  530.3548
 197  527.7029
 198  524.4791
 199  437.3218
 200  515.2705
 201  502.3036
 202  504.8851
 203  571.8376
 204  570.5116
 205  656.4033
 206  622.5762
 207  474.3465
 208  440.7935
 209  508.9226
 210  543.2095
 211  542.3132
 212  586.3556
 213  596.0891
 214  570.4091
 215  640.5128
 216  614.6199
 217  561.7202
 218  535.6923
 219  421.8524
 220  418.7446
 221  446.148
 222  450.8405
 223  427.9272
 224  543.3736
 225  529.1817
 226  492.041
 227  528.3407
 228  548.6328
 229  648.821
 230  646.9912
 231  615.3864
 232  502.9441
 233  409.4018
 234  375.6267
 235  446.9468
 236  384.7983
 237  369.3458
 238  440.1384
 239  527.9553
 240  518.9375
 241  584.8815
 242  584.0085
 243  614.2703
 244  443.0078
 245  382.3199
 246  548.5898
 247  657.1914
 248  454.3127
 249  406.6542
 250  563.764
 251  526.3027
 252  448.9548
 253  479.4005
 254  429.7328
 255  442.597
 256  603.2137
 257  615.6047
 258  607.4941
 259  572.9061
 260  467.6062
 261  467.9232
 262  504.6952
 263  660.98
 264  615.4741
 265  525.9723
 266  465.7083
 267  424.862
 268  499.1656
 269  403.1865
 270  431.4284
 271  434.372
 272  488.1065
 273  407.7466
 274  490.0993
 275  568.512
 276  574.4881
 277  537.8893
 278  555.1163
 279  671.1797
 280  743.4087
 281  617.67
 282  483.5202
 283  570.2415
 284  504.8238
 285  448.3356
 286  464.131
 287  484.0946
 288  465.7682
 289  522.0429
 290  571.6173
 291  516.7315
 292  447.0328
 293  407.9482
 294  375.4248
 295  482.9555
 296  553.6609
 297  496.1437
 298  528.9089
 299  548.2188
 300  561.8129
 301  479.8177
 302  478.656
 303  418.0678
 304  462.0117
 305  510.2065
 306  449.4122
 307  462.2054
 308  456.4223
 309  473.3481
 310  547.8949
 311  540.3404
 312  634.6718
 313  529.1559
 314  453.6006
 315  500.1492
 316  510.2769
 317  493.9754
 318  399.5457
 319  392.4828
 320  445.6891
 321  512.2932
 322  433.4903
 323  488.4458
 324  577.3083
 325  695.7822
 326  596.8542
 327  550.1786
 328  511.9937
 329  549.213
 330  524.4468
 331  399.3995
 332  526.3021
 333  592.338
 334  506.0037
 335  344.9294
 336  283.8823
 337  416.1829
 338  455.3766
 339  421.8922
 340  452.1799
 341  431.8734
 342  435.0185
 343  452.2759
 344  449.2227
 345  459.6631
 346  605.9719
 347  449.5072
 348  410.8195
 349  533.4789
 350  529.0488
 351  536.709
 352  558.5436
 353  529.6475
 354  458.4524
 355  435.8637
 356  519.5679
 357  563.7777
 358  484.3874
 359  518.8179
 360  409.2362
 361  355.9283
 362  558.3398
 363  525.3889
 364  397.3398
 365  436.222
 366  527.9733
 367  471.3227
 368  460.1495
 369  482.3994
 370  474.4802
 371  614.3436
 372  510.1323
 373  465.4646
 374  539.4673
 375  611.3435
 376  456.6319
 377  648.3874
 378  544.8936
 379  342.3293
 380  373.3119
 381  338.2506
 382  402.1362
 383  286.287
 384  328.8167
 385  207.5641
 386  250.3811
 387  427.8146
 388  501.924
 389  388.1017
 390  435.7146
 391  513.754
 392  431.0328
 393  426.311
 394  385.5289
 395  564.726
 396  631.1163
 397  570.8533
 398  536.6432
 399  513.3611
 400  432.1058
 401  316.5484
 402  311.2682
 403  367.1345
 404  392.7997
 405  333.6376
 406  534.5592
 407  565.5233
 408  493.7632
 409  455.3047
 410  395.1591
 411  516.2988
 412  543.1705
 413  452.7893
 414  400.5726
 415  357.604
 416  382.5399
 417  396.6806
 418  372.0758
 419  372.5387
 420  436.6572
 421  496.052
 422  623.4003
 423  413.9686
 424  470.2724
 425  533.6594
 426  452.5403
 427  379.6838
 428  545.4045
 429  565.9262
 430  515.2114
 431  405.8585
 432  471.7818
 433  402.1264
 434  382.4955
 435  306.2864
 436  407.5847
 437  452.509
 438  421.4854
 439  415.168
 440  551.819
 441  495.0527
 442  451.3251
 443  308.4307
 444  412.9659
 445  540.6907
 446  583.3538
 447  518.2239
 448  459.9561
 449  419.948
 450  434.5303
 451  307.821
 452  309.6732
 453  373.4126
 454  468.225
 455  460.2043
 456  450.9616
 457  460.6158
 458  374.176
 459  363.8015
 460  440.7126
 461  478.7064
 462  440.8682
 463  466.6561
 464  383.3001
 465  365.3147
 466  310.3161
 467  376.483
 468  370.495
 469  426.9744
 470  460.6216
 471  352.3072
 472  350.2319
 473  344.6164
 474  390.8471
 475  404.6017
 476  387.8805
 477  322.5484
 478  470.4218
 479  570.6049
 480  372.4917
 481  421.62
 482  455.5296
 483  369.9794
 484  411.8291
 485  474.3182
 486  468.9372
 487  553.8104
 488  609.293
 489  584.3334
 490  596.8354
 491  541.3496
 492  419.9526
 493  576.9836
 494  634.9769
 495  441.0267
 496  384.1971
 497  372.9596
 498  456.192
 499  498.4748
 500  492.8614
 501  504.6888
 502  524.3195
 503  520.0071
 504  464.5427
 505  637.1118
 506  631.1329
 507  750.3557
 508  645.6158
 509  797.1425
 510  1080.407
 511  1335.345
