# Input file       =  1209044432.11521_cleaned.dat
# Candidate        =  PSR_0332+5434
# Telescope        =  AR
# Epoch_topo       =  58237.570036055673
# Epoch_bary       =  N/A
# T_sample         =  0.002
# Data Folded      =  7340032
# Data Avg         =  0.0330978555025357
# Data StdDev      =  1.0000805095325  
# Profile Bins     =  512
# Profile Avg      =  474.537985182699 
# Profile StdDev   =  119.74267602755  
# Reduced chi-sqr  =  1.354
# Prob(Noise)      <  1.5e-07   (~5.1 sigma)
# P_topo (ms)      =  714.548343836992  +/- 0.000213
# P'_topo (s/s)    =  -0                +/- 1.12e-10
# P''_topo (s/s^2) =  0                 +/- 4.95e-14
# P_bary (ms)      =  N/A
# P'_bary (s/s)    =  N/A
# P''_bary (s/s^2) =  N/A
# P_orb (s)        =  N/A
# asin(i)/c (s)    =  N/A
# eccentricity     =  N/A
# w (rad)          =  N/A
# T_peri           =  N/A
######################################################
   0  370.7912
   1  333.1255
   2  401.9294
   3  586.9587
   4  568.0829
   5  524.2881
   6  617.2385
   7  795.3828
   8  1032.719
   9  1158.562
  10  1204.956
  11  1175.043
  12  886.7502
  13  582.4296
  14  328.6158
  15  299.2875
  16  408.446
  17  413.6879
  18  386.3069
  19  400.8848
  20  395.8876
  21  446.6031
  22  480.1072
  23  345.9419
  24  442.7249
  25  530.8018
  26  602.0009
  27  582.1392
  28  488.6637
  29  423.3256
  30  354.4571
  31  370.7034
  32  391.4042
  33  392.2359
  34  379.5236
  35  449.6884
  36  453.7142
  37  415.1027
  38  399.802
  39  358.3681
  40  393.3803
  41  515.3132
  42  425.7658
  43  353.0493
  44  423.9123
  45  498.7835
  46  591.5165
  47  534.338
  48  534.7794
  49  465.0852
  50  455.2422
  51  519.8031
  52  568.9606
  53  628.1253
  54  506.9326
  55  472.8771
  56  431.1579
  57  346.5036
  58  377.3326
  59  517.0275
  60  556.3052
  61  466.7914
  62  503.3684
  63  573.8516
  64  709.9813
  65  664.0695
  66  535.1767
  67  478.7794
  68  544.9947
  69  593.1807
  70  643.2123
  71  549.6022
  72  541.0893
  73  579.9302
  74  547.5026
  75  509.0648
  76  473.4436
  77  557.4549
  78  586.4608
  79  644.2925
  80  545.86
  81  434.0374
  82  520.6174
  83  547.0758
  84  511.7867
  85  497.116
  86  548.3459
  87  536.3276
  88  389.4891
  89  337.2779
  90  424.3377
  91  500.3895
  92  599.2916
  93  544.3953
  94  516.327
  95  470.5807
  96  383.7027
  97  409.3629
  98  471.505
  99  327.6276
 100  348.0595
 101  501.3742
 102  394.4045
 103  355.6861
 104  459.0382
 105  419.3116
 106  354.0103
 107  449.2514
 108  424.5333
 109  286.9164
 110  454.4691
 111  516.3783
 112  554.6995
 113  480.0569
 114  548.9824
 115  573.9784
 116  434.7693
 117  486.8413
 118  559.4971
 119  480.5183
 120  498.1413
 121  457.8137
 122  464.3002
 123  512.0949
 124  412.9474
 125  548.441
 126  458.5401
 127  368.096
 128  513.4409
 129  479.8881
 130  426.2747
 131  495.9811
 132  575.93
 133  607.0173
 134  413.0166
 135  459.2467
 136  389.5518
 137  520.3429
 138  571.639
 139  577.1077
 140  580.5629
 141  530.9302
 142  597.3837
 143  582.2706
 144  518.2186
 145  526.345
 146  532.9081
 147  618.3685
 148  608.6413
 149  622.5049
 150  457.2299
 151  484.33
 152  543.0446
 153  575.1843
 154  517.3788
 155  469.604
 156  485.909
 157  494.1075
 158  461.5172
 159  567.5475
 160  435.1649
 161  409.9175
 162  419.2272
 163  386.6131
 164  513.0829
 165  488.097
 166  533.0243
 167  545.6774
 168  600.5433
 169  404.1277
 170  350.1202
 171  436.1934
 172  501.542
 173  366.2333
 174  439.992
 175  522.066
 176  520.2339
 177  516.5743
 178  462.3884
 179  420.6135
 180  417.0287
 181  405.2689
 182  449.6738
 183  432.9615
 184  340.5397
 185  506.7389
 186  535.2191
 187  537.3495
 188  432.4796
 189  451.9387
 190  350.4071
 191  411.9449
 192  545.4424
 193  386.457
 194  429.1772
 195  451.0359
 196  371.2388
 197  398.4827
 198  486.5898
 199  427.2057
 200  409.6041
 201  424.7101
 202  459.8152
 203  511.478
 204  623.3469
 205  498.4499
 206  489.5883
 207  509.2908
 208  537.3966
 209  489.9263
 210  510.9959
 211  509.53
 212  397.8675
 213  454.0248
 214  444.971
 215  505.5689
 216  549.3427
 217  386.3701
 218  409.6263
 219  371.0182
 220  385.3541
 221  402.9518
 222  478.0562
 223  486.5736
 224  577.6157
 225  617.682
 226  460.3692
 227  300.5579
 228  445.4167
 229  630.7772
 230  612.4986
 231  623.9245
 232  482.2719
 233  382.9794
 234  477.4458
 235  512.2503
 236  449.3916
 237  448.4246
 238  465.5665
 239  521.0464
 240  531.7794
 241  434.3618
 242  321.9215
 243  416.458
 244  480.3666
 245  399.1255
 246  331.8684
 247  369.7363
 248  457.2877
 249  377.9136
 250  442.0215
 251  429.0963
 252  337.5406
 253  420.5375
 254  421.2525
 255  420.8993
 256  438.1551
 257  423.9467
 258  402.2754
 259  327.9254
 260  427.5029
 261  419.4546
 262  406.1051
 263  512.6468
 264  430.1602
 265  509.0665
 266  418.2039
 267  449.9615
 268  584.5717
 269  515.9203
 270  533.6147
 271  594.1315
 272  590.3568
 273  587.9719
 274  556.8827
 275  500.6269
 276  601.3715
 277  563.787
 278  491.2805
 279  565.1862
 280  547.0997
 281  496.6823
 282  488.0084
 283  556.5649
 284  592.5673
 285  587.5947
 286  530.6083
 287  433.9189
 288  426.7205
 289  601.9352
 290  531.2118
 291  445.7807
 292  473.959
 293  494.7429
 294  657.55
 295  595.2796
 296  444.4444
 297  526.6265
 298  540.723
 299  535.1308
 300  442.566
 301  375.5836
 302  433.4531
 303  450.8232
 304  420.6758
 305  535.2769
 306  617.0004
 307  538.6794
 308  509.4529
 309  446.1149
 310  361.5994
 311  463.9213
 312  445.2823
 313  434.7797
 314  523.2488
 315  481.4669
 316  512.3833
 317  526.1029
 318  546.5197
 319  557.962
 320  468.3877
 321  509.3424
 322  429.8293
 323  336.4583
 324  420.8247
 325  440.3022
 326  340.3833
 327  439.8951
 328  452.8846
 329  402.6635
 330  448.2164
 331  414.1785
 332  412.5108
 333  462.8
 334  478.1234
 335  515.8456
 336  442.9029
 337  470.7959
 338  464.3863
 339  447.6326
 340  556.4727
 341  526.0039
 342  449.6055
 343  464.6679
 344  490.5531
 345  358.3287
 346  448.5778
 347  563.1058
 348  596.332
 349  483.1558
 350  488.9896
 351  533.8856
 352  693.9915
 353  606.0092
 354  501.5203
 355  552.9575
 356  615.0427
 357  500.3994
 358  451.1365
 359  508.4465
 360  521.7729
 361  428.1229
 362  498.2026
 363  455.2011
 364  449.291
 365  496.7841
 366  566.0441
 367  427.4449
 368  433.0368
 369  433.3025
 370  379.9527
 371  413.7812
 372  410.229
 373  402.0404
 374  402.2475
 375  433.81
 376  408.1891
 377  438.1165
 378  504.7914
 379  553.1392
 380  436.0463
 381  459.746
 382  558.2946
 383  585.4807
 384  442.924
 385  469.053
 386  544.0569
 387  372.7774
 388  364.4897
 389  400.5266
 390  478.1644
 391  507.6705
 392  474.2886
 393  517.7111
 394  588.6409
 395  484.5577
 396  422.7768
 397  366.3722
 398  290.0214
 399  342.0138
 400  504.056
 401  490.7243
 402  471.2545
 403  425.5269
 404  440.4958
 405  256.6473
 406  391.9044
 407  442.5654
 408  374.085
 409  403.0808
 410  524.3616
 411  511.1766
 412  492.9362
 413  381.5406
 414  429.2565
 415  470.6792
 416  389.0858
 417  363.4095
 418  383.1453
 419  419.0477
 420  331.8091
 421  440.1804
 422  498.2299
 423  398.2829
 424  313.6637
 425  327.6437
 426  420.8593
 427  540.8743
 428  568.6208
 429  520.9549
 430  461.3395
 431  412.7264
 432  508.7061
 433  381.4057
 434  393.563
 435  445.0836
 436  553.2569
 437  578.6957
 438  544.0502
 439  554.3605
 440  505.8918
 441  491.4258
 442  457.2538
 443  465.985
 444  442.5579
 445  490.5819
 446  464.6053
 447  513.0693
 448  466.4791
 449  320.003
 450  319.2323
 451  453.5223
 452  469.4758
 453  368.3084
 454  289.316
 455  368.7783
 456  456.3292
 457  317.7758
 458  265.6265
 459  303.6259
 460  260.8095
 461  287.1022
 462  312.3618
 463  399.9247
 464  369.9231
 465  296.4852
 466  381.9946
 467  298.0831
 468  298.2638
 469  411.9194
 470  510.2504
 471  443.2993
 472  416.1666
 473  462.3899
 474  478.8717
 475  555.3345
 476  441.9168
 477  423.7325
 478  410.5226
 479  416.5407
 480  422.1717
 481  440.0408
 482  443.8287
 483  511.4683
 484  439.087
 485  402.4616
 486  551.9038
 487  506.0808
 488  461.2705
 489  406.6309
 490  420.7357
 491  384.3165
 492  450.8929
 493  454.6621
 494  483.8226
 495  532.9017
 496  486.8854
 497  470.5322
 498  464.2433
 499  409.4556
 500  470.1398
 501  466.6134
 502  474.1554
 503  572.6066
 504  535.7794
 505  526.3419
 506  465.9029
 507  431.5085
 508  426.4684
 509  438.9128
 510  423.2426
 511  389.5539
