# Input file       =  1209101040.113664_cleaned.dat
# Candidate        =  PSR_0332+5434
# Telescope        =  AR
# Epoch_topo       =  58238.225221222965
# Epoch_bary       =  N/A
# T_sample         =  0.002
# Data Folded      =  7208960
# Data Avg         =  0.2195326387152  
# Data StdDev      =  5.79423638186304 
# Profile Bins     =  512
# Profile Avg      =  3090.95949424097 
# Profile StdDev   =  687.539313424757 
# Reduced chi-sqr  =  1.653
# Prob(Noise)      <  7.65e-19   (~8.8 sigma)
# P_topo (ms)      =  714.547414357547  +/- 2.32e-05
# P'_topo (s/s)    =  -0                +/- 1.24e-11
# P''_topo (s/s^2) =  0                 +/- 5.6e-15
# P_bary (ms)      =  N/A
# P'_bary (s/s)    =  N/A
# P''_bary (s/s^2) =  N/A
# P_orb (s)        =  N/A
# asin(i)/c (s)    =  N/A
# eccentricity     =  N/A
# w (rad)          =  N/A
# T_peri           =  N/A
######################################################
   0  2946.129
   1  3961.622
   2  3468.599
   3  4049.771
   4  3657.659
   5  3577.341
   6  3060.921
   7  2607.295
   8  2433.221
   9  2514.561
  10  3761.283
  11  4011.748
  12  3605.827
  13  3456.412
  14  2780.854
  15  2245.212
  16  2704.849
  17  3264.239
  18  3344.075
  19  3621.722
  20  3470.005
  21  3135.434
  22  2863.003
  23  2245.453
  24  2204.852
  25  2211.806
  26  3072.858
  27  3941.233
  28  3468.032
  29  3619.942
  30  2864.864
  31  2796.721
  32  2686.686
  33  3105.381
  34  3332.354
  35  3304.821
  36  3788.182
  37  3172.305
  38  2652.22
  39  2160.033
  40  2317.474
  41  2196.908
  42  2930.734
  43  3268.647
  44  3319.553
  45  3492.73
  46  3135.164
  47  3572.104
  48  3275.67
  49  3607.193
  50  3820.351
  51  3730.767
  52  3977.844
  53  3152.675
  54  2856.984
  55  2333.126
  56  2706.009
  57  2340.767
  58  2808.268
  59  3331.536
  60  3786.237
  61  3704.865
  62  3059.662
  63  3689.85
  64  3079.982
  65  2896.955
  66  3121.697
  67  3387.451
  68  4044.201
  69  3819.519
  70  3824.35
  71  3232.705
  72  3296.102
  73  2868.801
  74  2555.877
  75  3039.899
  76  3690.985
  77  3858.945
  78  3407.378
  79  4152.159
  80  3494.694
  81  3165.27
  82  2953.306
  83  3321.227
  84  3833.887
  85  3368.14
  86  4102.118
  87  3971.013
  88  3432.878
  89  2284.735
  90  1920.911
  91  2265.094
  92  3225.017
  93  3621.248
  94  3406.398
  95  3354.69
  96  3004.825
  97  2375.476
  98  2182.764
  99  2907.914
 100  3408.76
 101  3457.597
 102  3561.946
 103  3666.186
 104  2882.889
 105  2487.396
 106  2120.943
 107  2475.684
 108  2372.886
 109  3446.718
 110  3529.506
 111  2764.829
 112  2818.251
 113  2696.873
 114  2936.196
 115  3137.702
 116  3560.649
 117  3867.362
 118  3523.715
 119  3471.437
 120  3117.121
 121  3185.824
 122  2626.426
 123  2613.02
 124  2437.96
 125  3340.215
 126  3905.154
 127  3771.331
 128  3785.485
 129  3201.653
 130  3772.452
 131  2936.763
 132  3249.449
 133  3978.106
 134  3773.425
 135  4409.297
 136  3816.877
 137  3587.055
 138  3355.762
 139  3478.218
 140  3061.663
 141  3389.471
 142  4424.499
 143  4537.719
 144  4291.937
 145  3406.665
 146  3908.472
 147  3179.478
 148  3623.633
 149  4487.313
 150  4030.751
 151  4783.8
 152  4201.695
 153  3827.399
 154  3230.417
 155  2964.258
 156  2609.76
 157  2588.704
 158  3616.662
 159  4007.755
 160  4600.637
 161  4087.687
 162  3717.326
 163  3282.894
 164  3020.424
 165  3331.203
 166  3445.532
 167  4563.973
 168  4054.909
 169  4203.688
 170  3236.486
 171  2519.506
 172  2342.716
 173  2124.929
 174  2627.121
 175  3759.834
 176  4074.918
 177  3838.311
 178  3579.357
 179  3326.278
 180  2763.12
 181  2974.765
 182  3083.102
 183  3539.441
 184  3605.458
 185  3521.197
 186  2821.583
 187  2280.741
 188  2327.916
 189  1950.569
 190  2438.341
 191  2716.989
 192  3322.581
 193  3295.583
 194  2755.82
 195  2940.943
 196  2372.273
 197  2824.222
 198  3156.75
 199  3256.319
 200  3302.037
 201  2967.695
 202  3223.323
 203  2764.401
 204  2719.845
 205  2172.334
 206  2062.786
 207  2236.198
 208  2843.743
 209  3228.886
 210  3004.072
 211  3990.167
 212  3168.17
 213  3109.205
 214  2715.552
 215  2737.044
 216  3308.354
 217  3422.018
 218  3735.617
 219  2789.44
 220  2975.45
 221  2389.535
 222  2308.089
 223  2301.785
 224  3264.266
 225  3812.146
 226  3323.273
 227  3984.17
 228  3245.749
 229  3095.691
 230  2384.195
 231  2767.133
 232  3630.701
 233  3649.925
 234  4401.925
 235  3279.428
 236  2933.848
 237  2455.665
 238  1910.221
 239  2064.935
 240  2628.098
 241  3272.325
 242  3723.84
 243  4097.001
 244  3607.978
 245  3142.325
 246  1924.78
 247  1936.922
 248  2735.463
 249  3097.348
 250  3462.254
 251  3236.534
 252  3239.82
 253  2305.801
 254  1623.145
 255  1786.911
 256  1172.535
 257  2681.598
 258  3186.337
 259  3332.489
 260  2933.009
 261  2940.186
 262  2345.419
 263  2150.902
 264  2601.115
 265  2711.565
 266  3324.056
 267  3140.656
 268  3101.65
 269  2361.017
 270  2120.116
 271  2140.945
 272  1481.423
 273  1817.934
 274  2436.804
 275  3048.606
 276  3363.588
 277  3291.123
 278  3474.292
 279  2799.353
 280  2605.225
 281  2689.229
 282  2891.7
 283  3346.854
 284  3386.361
 285  3415.633
 286  2760.935
 287  2248.229
 288  1756.994
 289  2078.933
 290  2172.485
 291  3005.917
 292  3304.517
 293  3326.425
 294  3694.762
 295  2575.319
 296  2758.834
 297  2802.774
 298  2595.189
 299  3393.909
 300  3619.179
 301  3520.076
 302  2983.6
 303  2928.637
 304  2132.847
 305  1824.173
 306  2078.414
 307  3191.675
 308  3786.43
 309  3332.771
 310  3985.619
 311  3157.211
 312  3197.904
 313  2710.754
 314  3197.531
 315  4076.37
 316  3453.021
 317  3885.432
 318  3255.511
 319  2841.333
 320  2168.958
 321  2145.403
 322  2099.533
 323  3152.619
 324  4104.237
 325  4181.457
 326  4285.622
 327  3094.131
 328  3167.019
 329  1921.364
 330  2736.25
 331  3990.727
 332  3622.123
 333  4305.128
 334  3483.793
 335  3015.942
 336  2445.426
 337  2157.699
 338  2039.386
 339  2264.803
 340  3200.232
 341  3380.156
 342  3468.527
 343  2946.367
 344  2565.624
 345  2159.808
 346  2239.565
 347  2863.075
 348  2554.358
 349  2884.196
 350  3038.498
 351  3365.47
 352  2845.797
 353  1988.256
 354  2159.527
 355  1614.052
 356  2480.647
 357  3075.794
 358  3050.402
 359  3214.176
 360  3132.477
 361  3227.827
 362  2703.217
 363  2729.93
 364  2941.323
 365  2941.206
 366  3252.229
 367  3404.175
 368  3232.047
 369  2681.27
 370  2407.009
 371  1807.415
 372  2289.448
 373  2744.662
 374  3228.51
 375  3827.21
 376  3098.334
 377  3116.396
 378  2001.634
 379  1942.946
 380  2683.311
 381  2873.266
 382  3572.04
 383  3199.388
 384  3163.232
 385  2340.758
 386  2558.422
 387  1993.998
 388  2011.369
 389  2692.159
 390  3489.944
 391  3658.534
 392  3127.585
 393  3735.892
 394  2585.686
 395  2456.862
 396  2595.137
 397  2809.806
 398  3726.5
 399  3277.085
 400  3700.897
 401  2762.312
 402  2281.378
 403  1651.276
 404  2456.552
 405  2700.084
 406  3492.099
 407  4235.807
 408  3756.583
 409  3246.913
 410  2589.221
 411  3216.047
 412  2741.555
 413  3167.086
 414  4146.996
 415  3493.449
 416  3757.297
 417  3163.443
 418  3065.366
 419  2329.624
 420  1926.762
 421  1845.463
 422  2783.328
 423  3616.061
 424  3702.32
 425  3764.754
 426  3474.157
 427  3441.551
 428  2579.317
 429  2661.403
 430  3371.519
 431  3349.136
 432  3747.721
 433  3632.331
 434  3418.658
 435  2685.089
 436  2227.396
 437  2323.381
 438  2114.152
 439  2948.063
 440  3735.759
 441  3832.584
 442  3619.263
 443  2938.563
 444  2516.261
 445  2438.121
 446  2553.48
 447  2870.688
 448  3522.314
 449  3438.258
 450  3220.914
 451  2877.106
 452  2268.049
 453  1990.355
 454  1535.303
 455  2359.06
 456  3184.011
 457  3566.618
 458  3928.159
 459  3037.984
 460  2549.648
 461  2087.283
 462  2335.714
 463  3197.307
 464  3200.14
 465  3438.022
 466  3447.68
 467  3268.281
 468  2352.624
 469  2427.431
 470  2235.609
 471  2874.954
 472  3661.303
 473  4294.111
 474  4834.094
 475  4834.708
 476  5301.941
 477  4274.595
 478  3892.159
 479  3429.929
 480  3360.577
 481  3737.014
 482  2975.565
 483  3201.948
 484  2839.497
 485  2665.682
 486  2204.258
 487  2459.498
 488  2758.703
 489  3614.641
 490  4050.565
 491  3087.889
 492  3546.412
 493  2730.433
 494  2812.604
 495  2961.42
 496  3577.171
 497  4227.614
 498  3449.046
 499  3865.946
 500  3093.629
 501  2716.158
 502  2540.988
 503  2806.999
 504  3073.428
 505  3687.209
 506  3952.091
 507  3426.675
 508  3762.232
 509  3199.71
 510  3672.929
 511  2974.561
