# Input file       =  1209733729.112785_cleaned.dat
# Candidate        =  PSR_0332+5434
# Telescope        =  AR
# Epoch_topo       =  58245.548010564642
# Epoch_bary       =  N/A
# T_sample         =  0.002
# Data Folded      =  7340032
# Data Avg         =  0.161727935276368
# Data StdDev      =  3.67638350371864 
# Profile Bins     =  512
# Profile Avg      =  2318.40393138891 
# Profile StdDev   =  440.184559785686 
# Reduced chi-sqr  =  0.905
# Prob(Noise)      <  0.939   (~0.0 sigma)
# P_topo (ms)      =  714.541057276598  +/- 0.000437
# P'_topo (s/s)    =  -0                +/- 2.31e-10
# P''_topo (s/s^2) =  0                 +/- 1.02e-13
# P_bary (ms)      =  N/A
# P'_bary (s/s)    =  N/A
# P''_bary (s/s^2) =  N/A
# P_orb (s)        =  N/A
# asin(i)/c (s)    =  N/A
# eccentricity     =  N/A
# w (rad)          =  N/A
# T_peri           =  N/A
######################################################
   0  3463.017
   1  2751.639
   2  2772.954
   3  2592.219
   4  2304.45
   5  2209.193
   6  1754.132
   7  1683.575
   8  2156.572
   9  2542.148
  10  2207.897
  11  2147.886
  12  2244.489
  13  2157.647
  14  1886.022
  15  2006.153
  16  1956.088
  17  2091.698
  18  2077.973
  19  1858.886
  20  2065.19
  21  2109.677
  22  1810.85
  23  1809.3
  24  2167.76
  25  2124.294
  26  1962.883
  27  2008.281
  28  2036.115
  29  2019.961
  30  2222.114
  31  2351.951
  32  2143.71
  33  2341.156
  34  2592.322
  35  2440.963
  36  2576.867
  37  2665.952
  38  2589.971
  39  2264.772
  40  2408.471
  41  2568.765
  42  2744.427
  43  2831.041
  44  2411.296
  45  2325.868
  46  2583.658
  47  2359.648
  48  2595.023
  49  2436.453
  50  2776.728
  51  2899.564
  52  2265.624
  53  2018.534
  54  2387.452
  55  2316.742
  56  2348.354
  57  2053.635
  58  2463.809
  59  2672.573
  60  2342.775
  61  2240.541
  62  2285.124
  63  2282.349
  64  2254.349
  65  2535.239
  66  2463.968
  67  2135.36
  68  2176.016
  69  2425.754
  70  2549.242
  71  2185.537
  72  1904.099
  73  1557.321
  74  2108.994
  75  2217.221
  76  1881.265
  77  2125.165
  78  2178.433
  79  2288.181
  80  2350.832
  81  2259.17
  82  2204.986
  83  2198.314
  84  2728.24
  85  2675.646
  86  2686.253
  87  2441.335
  88  2347.926
  89  2124.348
  90  2411.66
  91  2402.861
  92  2006.255
  93  2228.02
  94  2156.517
  95  2334.844
  96  2439.591
  97  2629.845
  98  2336.406
  99  2282.28
 100  2492.333
 101  2428.595
 102  2606.758
 103  2569.042
 104  2824.893
 105  2476.418
 106  2251.89
 107  2253.384
 108  1775.918
 109  2192.618
 110  2242.219
 111  2217.842
 112  2462.651
 113  2406.304
 114  2332.408
 115  2059.37
 116  2364.998
 117  2282.813
 118  2166.859
 119  2377.439
 120  2523.548
 121  2228.382
 122  2343.548
 123  2495.442
 124  2437.073
 125  2405.426
 126  1853.027
 127  1714.071
 128  2146.531
 129  2405.645
 130  2551.242
 131  2499.444
 132  2454.343
 133  2154.275
 134  2234.131
 135  2621.031
 136  2582.159
 137  2608.253
 138  2715.011
 139  2723.938
 140  2218.824
 141  2475.598
 142  2609.968
 143  2908.231
 144  2602.941
 145  2433.902
 146  2243.451
 147  2423.771
 148  2300.957
 149  2299.302
 150  2359.16
 151  2360.191
 152  2442.412
 153  2504.776
 154  2452.798
 155  2513.617
 156  2278.714
 157  2533.751
 158  2645
 159  2407.101
 160  2511.145
 161  2628.085
 162  2400.333
 163  2377.393
 164  2215.839
 165  2299.172
 166  2252.986
 167  2338.283
 168  2142.551
 169  2303.223
 170  2181.38
 171  2505.231
 172  2449.346
 173  2309.881
 174  1840.475
 175  2122.112
 176  2305.915
 177  2562.903
 178  2611.664
 179  2548.389
 180  2399.494
 181  2130.629
 182  2427.486
 183  2453.355
 184  2486.037
 185  2440.956
 186  2564.151
 187  2685.531
 188  2584.67
 189  2155.676
 190  1855.898
 191  1802.807
 192  2075.864
 193  2139.236
 194  2511.681
 195  2507.435
 196  2439.466
 197  2021.871
 198  1965.862
 199  1866.012
 200  1857.08
 201  2064.14
 202  2054.224
 203  1991.237
 204  2027.293
 205  2301.715
 206  2336.966
 207  2375.992
 208  2405.719
 209  2388.306
 210  2240.669
 211  2390.751
 212  2402.142
 213  2427.295
 214  2204.088
 215  2074.796
 216  2147.455
 217  2173.386
 218  2049.714
 219  2394.77
 220  2419.964
 221  2457.678
 222  2195.092
 223  2170.972
 224  2269.849
 225  2314.164
 226  2049.66
 227  1986.455
 228  2408.291
 229  2510.305
 230  2375.967
 231  2194.28
 232  2346.788
 233  2579.26
 234  2175.039
 235  2131.553
 236  2393.511
 237  2376.441
 238  2377.596
 239  2091.753
 240  2356.405
 241  2380.247
 242  2443.676
 243  2516.667
 244  2390.894
 245  2183.753
 246  2293.016
 247  2366.805
 248  2106.472
 249  1949.5
 250  1956.978
 251  2259.993
 252  2310.602
 253  2266.656
 254  2494.208
 255  2414.639
 256  2382.333
 257  2376.153
 258  2143.25
 259  2011.05
 260  2167.628
 261  2379.531
 262  2318.719
 263  2567.177
 264  2947.781
 265  2933.77
 266  2646.792
 267  2394.293
 268  2432.543
 269  2298.462
 270  2184.863
 271  1913.746
 272  2021.688
 273  1814.309
 274  2028.362
 275  2141.059
 276  2307.221
 277  2240.289
 278  1698.586
 279  1526.01
 280  1968.305
 281  1860.482
 282  1889.286
 283  1875.283
 284  1767.51
 285  1999.892
 286  1965.636
 287  1661.995
 288  1739.209
 289  1755.372
 290  2169.714
 291  1969.652
 292  2026.525
 293  2025.872
 294  2110.372
 295  2023.904
 296  1625.659
 297  1482.914
 298  1950.011
 299  1861.808
 300  1786.901
 301  2192.246
 302  2145.283
 303  1669.485
 304  1853.849
 305  2128.725
 306  2267.868
 307  2060.169
 308  2011.63
 309  2010.607
 310  2165.323
 311  2288.561
 312  2020.77
 313  2430.253
 314  2284.64
 315  1973.031
 316  1802.725
 317  2066.085
 318  2346.427
 319  2286.368
 320  2076.239
 321  1892.21
 322  1783.486
 323  1947.075
 324  2158.51
 325  2322.085
 326  2008.587
 327  2071.92
 328  2042.221
 329  2399.297
 330  2312.611
 331  2456.758
 332  2507.904
 333  2247.148
 334  2477.08
 335  2445.62
 336  2832.991
 337  2379.646
 338  2131.581
 339  2209.838
 340  2242.222
 341  2239.502
 342  2014.168
 343  1809.475
 344  1992.13
 345  1820.893
 346  2040.889
 347  2101.967
 348  2102.811
 349  2249.541
 350  2452.968
 351  2263.762
 352  1851.713
 353  1895.198
 354  2139.506
 355  2134.015
 356  2202.255
 357  2482.616
 358  2474.121
 359  2672.82
 360  2897.646
 361  2631.378
 362  2511.903
 363  2287.667
 364  2139.169
 365  2216.035
 366  2498.154
 367  2719.315
 368  2406.298
 369  2144.076
 370  2369.734
 371  2172.708
 372  2208.398
 373  2262.697
 374  2408.322
 375  2321.319
 376  2104.771
 377  2329.213
 378  2199.01
 379  1863.317
 380  2011.238
 381  2241.191
 382  2078.872
 383  2107.837
 384  2047.895
 385  2143.276
 386  1956.893
 387  2236.851
 388  2265.174
 389  2357.329
 390  2294.128
 391  2218.339
 392  2191.993
 393  2306.358
 394  2380.812
 395  2311.58
 396  2126.267
 397  1940.084
 398  2063.982
 399  2063.58
 400  2387.973
 401  2246.024
 402  2386.626
 403  2237.366
 404  2236.231
 405  2081.168
 406  2205.033
 407  2455.948
 408  2497.994
 409  2194.999
 410  2096.43
 411  2601.876
 412  2531.062
 413  2298.151
 414  2212.103
 415  2243.606
 416  2470.191
 417  2193.627
 418  2291.795
 419  2481.866
 420  2737.033
 421  2451.319
 422  2471.312
 423  2480.45
 424  2336.521
 425  2822.357
 426  2487.635
 427  2530.804
 428  2651.272
 429  2829.683
 430  2647.333
 431  2896.884
 432  2592.808
 433  2687.085
 434  2647.759
 435  2648.109
 436  2550.065
 437  2812.333
 438  2609.286
 439  2493.847
 440  2377.2
 441  2298.861
 442  2138.892
 443  2193.593
 444  2436.11
 445  2436.491
 446  2425.319
 447  2561.711
 448  2716.099
 449  2829.855
 450  2849.111
 451  2692.278
 452  2146.689
 453  2276.086
 454  2335.887
 455  2234.023
 456  2676.263
 457  2763.334
 458  2394.542
 459  2344.633
 460  2427.161
 461  2532.703
 462  2443
 463  2243.76
 464  2483.603
 465  2413.346
 466  2325.892
 467  2373.981
 468  2257.553
 469  2399.423
 470  2609.321
 471  2729.794
 472  2854.092
 473  2968.202
 474  2813.848
 475  2771.1
 476  2544.831
 477  2335.078
 478  2202.354
 479  2185.514
 480  2623.626
 481  2616.929
 482  2494.199
 483  2142.041
 484  1883.884
 485  2270.281
 486  2253.302
 487  2481.643
 488  2784.755
 489  2668.656
 490  2380.925
 491  2170.72
 492  2427.024
 493  2904.148
 494  2780.715
 495  2206.507
 496  2286.344
 497  2342.548
 498  2419.705
 499  2325.026
 500  2176.621
 501  2272.661
 502  2463.784
 503  2518.681
 504  2605.512
 505  2979.532
 506  2967.265
 507  3664.267
 508  3814.254
 509  3728.14
 510  3727.298
 511  3792.488
