# Input file       =  1209187230.109958_cleaned.dat
# Candidate        =  PSR_0332+5434
# Telescope        =  AR
# Epoch_topo       =  58239.222790624510
# Epoch_bary       =  N/A
# T_sample         =  0.002
# Data Folded      =  7208960
# Data Avg         =  0.205901248191103
# Data StdDev      =  5.82556207351856 
# Profile Bins     =  512
# Profile Avg      =  2899.06243076731 
# Profile StdDev   =  691.256394177763 
# Reduced chi-sqr  =  1.733
# Prob(Noise)      <  1.65e-22   (~9.7 sigma)
# P_topo (ms)      =  714.546520884392  +/- 2.96e-05
# P'_topo (s/s)    =  -0                +/- 1.59e-11
# P''_topo (s/s^2) =  0                 +/- 7.15e-15
# P_bary (ms)      =  N/A
# P'_bary (s/s)    =  N/A
# P''_bary (s/s^2) =  N/A
# P_orb (s)        =  N/A
# asin(i)/c (s)    =  N/A
# eccentricity     =  N/A
# w (rad)          =  N/A
# T_peri           =  N/A
######################################################
   0  3606.458
   1  2487.824
   2  2987.424
   3  2580.917
   4  2704.557
   5  2737.118
   6  2942.433
   7  3442.435
   8  2726.907
   9  2736.948
  10  2193.533
  11  2128.882
  12  1768.866
  13  1623.244
  14  2394.224
  15  2678.987
  16  3310.109
  17  2861.53
  18  3433.8
  19  3214.257
  20  3007.038
  21  2528.429
  22  2885.943
  23  3457.202
  24  2883.743
  25  2957.468
  26  2507.9
  27  2619.262
  28  1830.912
  29  1996.829
  30  2436.631
  31  3223.869
  32  3030.796
  33  2854.456
  34  2990.698
  35  2797.603
  36  2889.844
  37  2870.74
  38  3227.759
  39  3687.088
  40  3483.499
  41  2377.021
  42  2108.51
  43  2245.553
  44  2023.019
  45  2104.324
  46  2332.248
  47  3360.495
  48  3600.389
  49  3284.478
  50  2955.4
  51  2630.394
  52  2577.031
  53  2792.545
  54  3227.005
  55  3402.489
  56  3633.823
  57  3297.419
  58  2737.345
  59  2122.851
  60  1856.047
  61  2145.732
  62  2030.314
  63  3075.593
  64  3407.089
  65  3934.389
  66  3338.967
  67  2866.98
  68  2508.354
  69  2685.973
  70  2461.314
  71  3150.516
  72  4265.55
  73  3468.95
  74  3151.411
  75  2476.414
  76  2169.627
  77  1451.415
  78  1293.692
  79  1891.723
  80  2419.444
  81  3499.9
  82  3408.544
  83  3459.967
  84  2620.512
  85  2658.576
  86  2347.572
  87  2567.387
  88  2802.072
  89  2955.146
  90  3303.179
  91  2897.9
  92  2695.382
  93  1939.858
  94  2059.435
  95  1848.832
  96  2154.961
  97  3102.78
  98  3253.237
  99  3516.443
 100  2974.233
 101  3089.663
 102  2315.198
 103  2441.968
 104  2889.059
 105  3206.037
 106  3390.656
 107  2922.503
 108  2599.867
 109  2003.566
 110  2244.765
 111  1908.804
 112  2473.774
 113  3293.476
 114  3437.305
 115  3683.768
 116  3156.368
 117  3286.651
 118  2743.172
 119  3453.207
 120  3643.181
 121  4233.759
 122  4125.576
 123  3485.122
 124  2941.015
 125  2651.761
 126  3037.262
 127  2603.327
 128  2832.322
 129  3569.221
 130  3764.846
 131  3494.249
 132  2928.545
 133  3303.399
 134  3835.083
 135  3681.977
 136  3955.991
 137  4155.904
 138  3965.919
 139  3694.316
 140  3023.342
 141  3079.143
 142  2864.752
 143  2532.402
 144  2680.581
 145  2876.808
 146  3576.005
 147  3963.618
 148  4663.731
 149  3752.555
 150  3219.049
 151  2895.108
 152  3071.392
 153  3566.72
 154  4206.229
 155  4881.896
 156  3977.506
 157  3428.41
 158  2574.009
 159  2786.492
 160  2415.014
 161  2259.23
 162  3080.486
 163  3867.753
 164  4159.812
 165  3500.145
 166  3703.641
 167  3075.695
 168  3011.524
 169  2887.806
 170  3307.693
 171  4242.277
 172  3653.831
 173  3637.421
 174  3100.263
 175  2887.068
 176  2188.182
 177  1826.163
 178  2119.923
 179  2707.375
 180  3741.22
 181  3852.984
 182  3745.582
 183  2951.9
 184  2876.248
 185  2614.987
 186  2786.527
 187  3297.423
 188  3453.953
 189  3921.99
 190  3108.88
 191  2494.338
 192  2070.008
 193  2164.766
 194  1991.95
 195  2346.07
 196  3246.426
 197  3155.872
 198  3032.614
 199  2835.827
 200  2994.321
 201  2848.812
 202  2643.304
 203  3037.703
 204  3483.842
 205  3484.505
 206  2916.556
 207  2324.016
 208  2166.11
 209  2533.735
 210  2301.159
 211  2774.567
 212  3409.63
 213  4087.383
 214  3666.929
 215  3165.497
 216  3001.075
 217  3130.241
 218  3662.343
 219  3562.294
 220  4145.891
 221  4129.481
 222  3571.938
 223  2718.141
 224  2375.548
 225  2400.526
 226  2371.139
 227  2366.25
 228  3065.641
 229  4097.959
 230  4268.795
 231  4478.952
 232  3538.955
 233  3228.08
 234  2840.976
 235  2836.849
 236  3664.882
 237  3905.08
 238  4323.459
 239  3355.419
 240  2962.596
 241  1997.152
 242  2072.887
 243  2170.341
 244  2510.141
 245  3548.448
 246  3585.621
 247  4286.565
 248  3694.901
 249  3376.396
 250  2929.683
 251  2824.271
 252  2902.968
 253  3070.497
 254  3553.624
 255  3226.139
 256  3114.276
 257  2479.367
 258  2272.092
 259  2029.074
 260  2012.196
 261  2358.104
 262  2764.077
 263  3744.223
 264  3286.744
 265  3405.289
 266  2823.83
 267  2606.448
 268  2573.081
 269  2881.467
 270  3805.888
 271  3158.224
 272  3069.096
 273  2539.566
 274  2345.516
 275  1804.953
 276  2002.024
 277  2084.726
 278  2924.633
 279  3650.259
 280  3686.951
 281  3563.445
 282  3074.263
 283  2957.381
 284  2883.813
 285  3264.072
 286  3678.016
 287  3805.989
 288  3247.392
 289  2672.703
 290  2259.178
 291  1770.424
 292  2040.735
 293  2475.128
 294  3062.922
 295  3933.565
 296  4066.005
 297  4381.243
 298  4223.724
 299  4552.707
 300  4612.383
 301  4737.199
 302  4797.555
 303  4385.755
 304  4044.69
 305  3347.584
 306  2366.644
 307  2336.216
 308  2116.714
 309  1818.354
 310  2351.646
 311  3160.899
 312  3961.294
 313  3516.595
 314  3313.385
 315  3074.07
 316  3000.024
 317  2720.652
 318  2835.896
 319  3635.828
 320  3448.618
 321  3107.882
 322  2569.188
 323  2210.427
 324  1810.422
 325  1431.743
 326  1589.206
 327  1769.609
 328  2946.035
 329  3733.642
 330  4103.103
 331  2904.515
 332  2682.742
 333  2426.658
 334  2413.075
 335  2665.062
 336  3055.449
 337  3641.203
 338  2873.159
 339  2675.198
 340  1888.921
 341  2115.175
 342  1546.406
 343  1356.473
 344  2284.11
 345  2953.545
 346  3420.223
 347  2810.626
 348  3141.231
 349  2972.462
 350  2811.219
 351  2705.559
 352  2887.234
 353  3339.758
 354  2680.88
 355  2741.503
 356  2382.69
 357  2443.266
 358  2211.865
 359  2002.93
 360  2358.61
 361  2870.352
 362  3064.161
 363  2968.211
 364  2610.905
 365  2308.594
 366  2657.153
 367  2627.987
 368  2932.565
 369  3265.802
 370  3273.423
 371  3231.809
 372  2553.28
 373  3041.874
 374  2672.966
 375  2335.434
 376  2049.646
 377  2849.022
 378  3321.398
 379  3510.778
 380  3688.996
 381  3024.717
 382  3047.805
 383  2526.357
 384  2998.712
 385  3180.475
 386  3454.764
 387  3372.256
 388  2977.59
 389  2351.185
 390  1770.337
 391  1415.771
 392  1398.834
 393  2543.6
 394  3327.877
 395  3920.134
 396  3057.965
 397  2986.917
 398  3164.426
 399  2580.976
 400  2763.877
 401  2908.127
 402  3209.707
 403  2963.653
 404  2754.578
 405  2259.425
 406  2406.075
 407  2352.939
 408  1778.997
 409  1918.788
 410  2152.98
 411  3168.441
 412  3535.359
 413  3765.673
 414  2751.371
 415  2560.554
 416  2236.546
 417  2356.242
 418  3221.338
 419  2920.185
 420  3301.548
 421  2721.807
 422  2432.572
 423  1763.526
 424  1865.185
 425  1765.705
 426  1999.406
 427  2975.525
 428  3333.603
 429  3511.997
 430  2600.177
 431  3092.344
 432  2407.67
 433  2421.596
 434  2708.705
 435  3475.009
 436  3479.966
 437  2912.047
 438  2773.135
 439  2505.769
 440  2411.501
 441  1535.316
 442  1760.777
 443  2480.779
 444  2987.881
 445  3506.361
 446  3184.8
 447  3451.576
 448  3018.303
 449  3264.41
 450  2943.155
 451  2549.967
 452  2884.732
 453  2699.125
 454  2720.462
 455  2256
 456  2637.771
 457  2085.977
 458  1704.094
 459  2063.717
 460  3016.558
 461  2679.55
 462  2740.521
 463  2954.948
 464  2685.522
 465  2477.138
 466  2503.225
 467  3403.858
 468  3360.83
 469  3450.219
 470  2762.592
 471  1895.918
 472  1677.406
 473  1657.147
 474  1526.817
 475  1655.244
 476  2871.916
 477  3528.594
 478  3440.183
 479  2402.998
 480  2401.591
 481  2701.38
 482  2810.388
 483  2734.435
 484  3249.44
 485  3909.478
 486  2993.122
 487  2354.095
 488  2406.036
 489  2314.482
 490  2290.986
 491  1685.745
 492  2599.68
 493  2899.257
 494  3440.625
 495  3046.56
 496  3125.627
 497  2464.336
 498  2305.13
 499  2077.223
 500  2485.388
 501  3189.913
 502  3133.375
 503  3624.778
 504  2610.468
 505  2432.135
 506  1832.992
 507  1578.064
 508  1663.422
 509  2126.092
 510  3234.492
 511  3585.008
