# Input file       =  1209704165.112302_cleaned.dat
# Candidate        =  PSR_0332+5434
# Telescope        =  AR
# Epoch_topo       =  58245.205834633125
# Epoch_bary       =  N/A
# T_sample         =  0.002
# Data Folded      =  7208960
# Data Avg         =  0.211990160629449
# Data StdDev      =  5.2590771120289  
# Profile Bins     =  256
# Profile Avg      =  5969.52752627634 
# Profile StdDev   =  882.522657328805 
# Reduced chi-sqr  =  3.766
# Prob(Noise)      <  2.39e-82   (~19.2 sigma)
# P_topo (ms)      =  714.541032216007  +/- 1.95e-05
# P'_topo (s/s)    =  -0                +/- 1.05e-11
# P''_topo (s/s^2) =  0                 +/- 4.71e-15
# P_bary (ms)      =  N/A
# P'_bary (s/s)    =  N/A
# P''_bary (s/s^2) =  N/A
# P_orb (s)        =  N/A
# asin(i)/c (s)    =  N/A
# eccentricity     =  N/A
# w (rad)          =  N/A
# T_peri           =  N/A
######################################################
   0  8101.488
   1  5103.731
   2  3363.04
   3  5511.621
   4  5413.269
   5  4098.661
   6  4227.306
   7  7603.521
   8  7206.135
   9  6154.397
  10  3872.15
  11  5160.122
  12  5914.99
  13  4781.832
  14  4400.854
  15  6469.956
  16  8366.354
  17  7094.291
  18  5650.384
  19  4939.599
  20  5883.289
  21  4450.398
  22  4817.509
  23  6007.913
  24  8556.701
  25  7185.262
  26  5123.702
  27  5214.176
  28  7307.696
  29  5201.662
  30  3966.611
  31  4872.833
  32  7585.024
  33  8870.94
  34  5742.264
  35  4428.818
  36  6523.278
  37  6670.631
  38  5032.088
  39  4744.207
  40  7583.373
  41  9114.985
  42  6708.866
  43  4208.693
  44  5235.538
  45  7481.301
  46  5738.388
  47  4226.826
  48  6722.014
  49  8553.297
  50  7172.43
  51  5508.227
  52  5014.725
  53  6196.02
  54  4868.891
  55  4443.084
  56  5268.905
  57  7774.321
  58  7190.05
  59  5610.051
  60  4450.01
  61  6306.81
  62  5762.056
  63  4399.972
  64  5159.357
  65  8907.566
  66  8112.513
  67  5819.306
  68  5244.406
  69  6458.844
  70  6358.493
  71  3988.198
  72  4079.306
  73  6895.65
  74  8210.477
  75  6101.394
  76  4369.266
  77  5366.407
  78  6854.218
  79  5440.683
  80  4191.15
  81  7089.753
  82  9165.687
  83  7431.262
  84  5134.845
  85  5524.496
  86  7560.789
  87  6030.482
  88  4879.223
  89  5918.52
  90  8682.371
  91  7051.269
  92  5781.028
  93  4891.857
  94  6741.017
  95  6159.278
  96  5368.811
  97  4679.489
  98  8127.773
  99  8347.615
 100  5714.471
 101  4180.249
 102  6033.646
 103  6376.522
 104  4526.004
 105  5327.761
 106  6932.594
 107  8466.723
 108  7031.867
 109  5266.932
 110  4764.858
 111  6038.521
 112  5393.07
 113  4601.837
 114  6199.549
 115  8837.618
 116  6877.525
 117  4320.833
 118  4209.145
 119  6167.878
 120  5357.833
 121  3773.815
 122  5564.209
 123  8153.141
 124  7672.401
 125  4989.986
 126  4037.372
 127  5741.564
 128  5680.48
 129  4243.632
 130  5317.402
 131  7957.162
 132  8368.139
 133  6899.292
 134  4962.271
 135  5210.381
 136  6564.1
 137  5441.018
 138  4692.599
 139  7201.788
 140  8981.739
 141  7016.816
 142  5249.69
 143  5084.948
 144  6659.43
 145  5383.406
 146  4748.655
 147  6935.345
 148  9446.977
 149  10613.17
 150  8837.128
 151  7819.847
 152  6495.975
 153  5515.901
 154  3869.217
 155  5363.9
 156  9096.939
 157  7824.552
 158  5725.62
 159  5153.867
 160  6427.75
 161  5459.116
 162  3673
 163  5183.46
 164  7356.891
 165  8483.899
 166  5497.721
 167  4347.109
 168  5731.38
 169  6322.916
 170  5006.55
 171  4430.402
 172  7387.833
 173  9096.67
 174  7182.628
 175  5832.453
 176  5662.791
 177  6655.401
 178  5585.084
 179  4905.064
 180  7087.163
 181  9636.544
 182  7954.847
 183  5664.224
 184  5212.517
 185  6157.786
 186  6111.269
 187  4706.787
 188  5881.239
 189  8524.214
 190  7002.445
 191  5144.775
 192  4551.483
 193  5997.258
 194  5798.337
 195  3674.353
 196  4492.388
 197  7878.621
 198  7909.54
 199  4757.863
 200  3931.292
 201  5087.885
 202  4855.674
 203  3629.214
 204  4300.198
 205  6092.436
 206  7320.788
 207  5609.324
 208  2977.54
 209  2795.551
 210  5449.451
 211  4456.025
 212  3168.825
 213  4756.916
 214  7441.665
 215  6501.71
 216  4012.913
 217  3268.228
 218  5663.937
 219  5244.097
 220  3780.895
 221  4731.873
 222  7467.258
 223  7626.699
 224  5621.892
 225  3620.262
 226  5090.85
 227  6144.831
 228  4438.146
 229  5355.361
 230  8747.076
 231  7940.879
 232  5878.463
 233  5759.777
 234  5093.477
 235  5272.797
 236  4946.175
 237  5223.853
 238  7133.031
 239  8031.18
 240  6547.953
 241  5576.879
 242  5241.307
 243  6553.708
 244  4499.833
 245  4704.574
 246  6392.461
 247  8522.093
 248  7569.173
 249  5388.067
 250  4345.753
 251  7079.703
 252  6219.689
 253  4158.396
 254  4434.322
 255  7925.272
