# Input file       =  1209704165.112302-PSRB0329-2ms-sampling-dd.dat
# Candidate        =  PSR_0332+5434
# Telescope        =  AR
# Epoch_topo       =  58245.205834633125
# Epoch_bary       =  N/A
# T_sample         =  0.002
# Data Folded      =  7208960
# Data Avg         =  -7.12389619500077e-10
# Data StdDev      =  6.6987984348133  
# Profile Bins     =  512
# Profile Avg      =  -0.12446000524692
# Profile StdDev   =  794.87390108194  
# Reduced chi-sqr  =  2.192
# Prob(Noise)      <  1.42e-47   (~14.4 sigma)
# P_topo (ms)      =  714.54103219282   +/- 2.19e-05
# P'_topo (s/s)    =  -0                +/- 1.17e-11
# P''_topo (s/s^2) =  0                 +/- 5.28e-15
# P_bary (ms)      =  N/A
# P'_bary (s/s)    =  N/A
# P''_bary (s/s^2) =  N/A
# P_orb (s)        =  N/A
# asin(i)/c (s)    =  N/A
# eccentricity     =  N/A
# w (rad)          =  N/A
# T_peri           =  N/A
######################################################
   0  1127.767
   1  80.51196
   2  -857.7084
   3  -1602.733
   4  -1568.977
   5  -1287.381
   6  -754.8403
   7  -307.9081
   8  -619.5424
   9  -1046.928
  10  -1448.122
  11  -1170.383
  12  -1168.939
  13  -477.1157
  14  -178.8215
  15  696.0358
  16  585.9541
  17  699.0807
  18  113.3296
  19  -1056.949
  20  -1391.13
  21  -2447.038
  22  -2120.236
  23  -1102.498
  24  -267.8372
  25  -574.1752
  26  -898.7428
  27  -1219.023
  28  -1556.313
  29  -1448.379
  30  -1180.481
  31  148.9409
  32  663.4249
  33  650.55
  34  319.8464
  35  -344.828
  36  -983.2523
  37  -1495.775
  38  -1604.686
  39  -1398.404
  40  -67.35217
  41  20.16466
  42  -379.1589
  43  -925.6902
  44  -1224.737
  45  -1135.514
  46  -905.9437
  47  311.3729
  48  578.5035
  49  671.6725
  50  865.8391
  51  201.6297
  52  -31.72649
  53  -612.9901
  54  -1343.585
  55  -1793.753
  56  -709.204
  57  36.5257
  58  88.87959
  59  -438.9984
  60  -963.9697
  61  -779.3124
  62  -694.5273
  63  253.3401
  64  1350.729
  65  1279.699
  66  875.8152
  67  212.8714
  68  -406.6494
  69  -402.7759
  70  -207.2583
  71  -464.0256
  72  -710.8882
  73  6.670547
  74  -605.4332
  75  -748.6106
  76  -451.8567
  77  -825.1525
  78  -261.0598
  79  -549.1597
  80  572.4839
  81  862.5013
  82  1231.818
  83  931.8465
  84  255.7864
  85  -241.0181
  86  -384.2834
  87  -607.4933
  88  -873.7177
  89  -511.8701
  90  217.5393
  91  83.89053
  92  -864.6644
  93  -833.6729
  94  -436.1135
  95  -857.8153
  96  256.5523
  97  441.3067
  98  1572.56
  99  851.6368
 100  585.4335
 101  140.8456
 102  -467.1412
 103  -757.6769
 104  -1138.263
 105  -160.0376
 106  405.8463
 107  374.8103
 108  -175.6409
 109  -788.5759
 110  -941.4283
 111  -1236.693
 112  -421.5319
 113  -126.612
 114  975.3289
 115  1463.664
 116  1435.491
 117  862.1036
 118  -548.4755
 119  -975.7725
 120  -1517.291
 121  -1098.619
 122  -183.0856
 123  615.2714
 124  -175.908
 125  -630.9119
 126  -814.3021
 127  -1194.923
 128  -1003.548
 129  -332.9424
 130  975.8517
 131  988.5254
 132  628.9919
 133  407.7881
 134  -37.5283
 135  -463.157
 136  -1544.836
 137  -1152.657
 138  -694.3091
 139  -447.1392
 140  29.64652
 141  -137.179
 142  -592.2703
 143  -725.7944
 144  -659.0071
 145  -584.9075
 146  356.0807
 147  1586.219
 148  1229.755
 149  1560.01
 150  745.0593
 151  -289.2123
 152  -14.15698
 153  -270.8395
 154  -676.2289
 155  -279.6237
 156  32.86517
 157  -233.5562
 158  -874.4551
 159  -866.6743
 160  -404.1215
 161  -172.0469
 162  -78.61046
 163  1048.488
 164  1686.009
 165  1323.521
 166  752.5206
 167  271.2234
 168  -409.6403
 169  -852.1505
 170  -382.2626
 171  231.945
 172  844.7638
 173  345.0565
 174  -306.3995
 175  -889.2556
 176  -959.0782
 177  -668.512
 178  -585.2351
 179  361.2122
 180  670.9532
 181  1915.875
 182  1531.117
 183  662.14
 184  224.1097
 185  -576.7226
 186  -503.8955
 187  -594.0361
 188  279.1258
 189  668.2598
 190  531.7444
 191  -2.292769
 192  -346.5331
 193  -323.7771
 194  -674.1527
 195  68.01462
 196  649.3795
 197  1790.486
 198  1708.486
 199  1160.819
 200  486.3378
 201  -828.2365
 202  -782.9683
 203  -1458.873
 204  -594.9639
 205  513.9299
 206  937.9543
 207  415.8211
 208  -207.2158
 209  -253.5331
 210  -1026.768
 211  -315.1501
 212  315.3072
 213  1202.109
 214  1386.75
 215  990.5132
 216  571.3605
 217  -18.91674
 218  -149.0649
 219  -750.9672
 220  -271.9241
 221  29.50798
 222  108.301
 223  -136.701
 224  -800.3505
 225  -428.9644
 226  -636.6102
 227  -773.7844
 228  -329.8058
 229  377.3339
 230  1176.929
 231  975.2433
 232  582.16
 233  -184.9508
 234  -375.8701
 235  -885.7183
 236  -1152.84
 237  -667.6307
 238  60.77889
 239  553.7491
 240  62.096
 241  -729.304
 242  -794.6245
 243  -688.1125
 244  -483.2189
 245  392.236
 246  2029.255
 247  1925.236
 248  1364.211
 249  477.575
 250  -123.9075
 251  -175.2612
 252  -436.736
 253  -122.8774
 254  203.705
 255  1045.975
 256  223.1721
 257  -436.4286
 258  -985.5703
 259  -1425.32
 260  -626.7328
 261  -675.0634
 262  512.9152
 263  1103.108
 264  1274.125
 265  1150.914
 266  -103.7565
 267  4.224675
 268  -1066.797
 269  -1063.118
 270  -686.822
 271  -16.89372
 272  610.0846
 273  357.1203
 274  120.0068
 275  -536.6248
 276  -541.7302
 277  -642.3873
 278  809.6036
 279  1758.454
 280  2206.756
 281  1624.27
 282  887.2711
 283  450.6081
 284  -531.4733
 285  -278.8475
 286  -331.2981
 287  561.2331
 288  1112.711
 289  583.6749
 290  45.22608
 291  -678.3979
 292  -602.7733
 293  -850.6801
 294  -48.7429
 295  936.8039
 296  1597.559
 297  1316.223
 298  265.8459
 299  237.003
 300  -459.0328
 301  -533.0203
 302  -815.3077
 303  -538.7255
 304  481.2429
 305  332.5943
 306  214.8687
 307  -47.8799
 308  74.70642
 309  -429.1672
 310  -685.4453
 311  180.0145
 312  1691.829
 313  2058.207
 314  1665.202
 315  1069.923
 316  -56.66643
 317  -542.65
 318  -1019.888
 319  -642.8563
 320  32.70107
 321  696.9752
 322  421.4875
 323  -508.5604
 324  -796.3533
 325  -585.5634
 326  -406.2762
 327  244.8805
 328  390.8073
 329  1465.356
 330  1306.131
 331  1299.606
 332  642.7578
 333  -226.5316
 334  106.8881
 335  -705.2157
 336  -861.6913
 337  -21.84722
 338  125.5282
 339  -47.7723
 340  -156.3542
 341  -91.92171
 342  -621.8394
 343  -438.3691
 344  60.28387
 345  1675.734
 346  1971.953
 347  1588.033
 348  1092.424
 349  263.7902
 350  -591.1812
 351  -1270.684
 352  -659.2535
 353  -297.8727
 354  408.9002
 355  889.8882
 356  85.8277
 357  -1002.69
 358  -1149.017
 359  -616.467
 360  -338.8113
 361  763.0185
 362  1192.648
 363  1532.925
 364  967.0198
 365  -258.6895
 366  -502.2111
 367  -1099.282
 368  -949.179
 369  -778.0126
 370  -35.64376
 371  256.614
 372  -422.2501
 373  -572.2892
 374  -888.6066
 375  -867.0828
 376  -384.8163
 377  453.69
 378  1123.069
 379  1368.975
 380  977.2885
 381  509.8549
 382  407.0584
 383  -432.4785
 384  -749.9603
 385  -853.0095
 386  -543.3493
 387  103.6462
 388  514.5652
 389  39.90483
 390  -373.8523
 391  -608.2195
 392  -919.9538
 393  -301.8502
 394  523.1795
 395  1500.245
 396  1588.345
 397  1039.175
 398  469.3835
 399  -180.3829
 400  -221.1834
 401  -711.4532
 402  -567.2247
 403  -182.425
 404  127.2505
 405  -64.74951
 406  -591.0109
 407  -589.4822
 408  -436.1983
 409  -541.178
 410  494.5829
 411  1367.027
 412  2033.09
 413  2007.564
 414  2315.618
 415  2021.934
 416  1441.294
 417  1077.985
 418  919.5655
 419  349.4092
 420  354.3217
 421  135.4207
 422  -5.531922
 423  -599.4521
 424  -1052.891
 425  -1202.988
 426  -514.3058
 427  316.4552
 428  1937.544
 429  1722.849
 430  1084.142
 431  642.3956
 432  -157.2831
 433  -343.1188
 434  -762.7123
 435  -47.15613
 436  340.5113
 437  524.8232
 438  -57.03955
 439  -870.3613
 440  -1045.592
 441  -747.9157
 442  -66.62822
 443  218.8851
 444  980.2783
 445  1437.257
 446  1630.82
 447  719.7457
 448  -477.4003
 449  -588.5115
 450  -1016.99
 451  -595.6565
 452  -89.01604
 453  385.7274
 454  235.4365
 455  -186.5107
 456  -383.1167
 457  -593.9897
 458  -722.131
 459  -607.6592
 460  911.2615
 461  1740.439
 462  1680.105
 463  1165.969
 464  511.6483
 465  42.15963
 466  -301.2868
 467  -176.9297
 468  -401.6706
 469  151.3315
 470  382.2093
 471  195.4248
 472  -336.6678
 473  -478.3737
 474  -496.2968
 475  -521.8883
 476  732.2147
 477  1587.038
 478  2140.659
 479  1784.105
 480  1028.875
 481  414.1641
 482  -177.8475
 483  -537.0085
 484  -692.8805
 485  -534.6021
 486  -44.76852
 487  347.0635
 488  63.53656
 489  -460.9026
 490  -503.7896
 491  -662.9678
 492  -196.2926
 493  462.7703
 494  1507.027
 495  1245.716
 496  615.0784
 497  298.3923
 498  -305.2271
 499  -501.8925
 500  -775.9395
 501  -991.3282
 502  -94.36134
 503  434.2858
 504  -11.36294
 505  -533.8577
 506  -1152.415
 507  -1217.007
 508  -1149.703
 509  -27.34515
 510  970.2924
 511  1973.805
