# Input file       =  1209445701.104754_cleaned.dat
# Candidate        =  PSR_0332+5434
# Telescope        =  AR
# Epoch_topo       =  58242.214353064279
# Epoch_bary       =  N/A
# T_sample         =  0.002
# Data Folded      =  7143424
# Data Avg         =  0.0353163272912718
# Data StdDev      =  1.00005334481457 
# Profile Bins     =  512
# Profile Avg      =  492.741478530467 
# Profile StdDev   =  118.124885495854 
# Reduced chi-sqr  =  1.665
# Prob(Noise)      <  2.28e-19   (~8.9 sigma)
# P_topo (ms)      =  714.543804123609  +/- 8.29e-05
# P'_topo (s/s)    =  -0                +/- 4.49e-11
# P''_topo (s/s^2) =  0                 +/- 2.04e-14
# P_bary (ms)      =  N/A
# P'_bary (s/s)    =  N/A
# P''_bary (s/s^2) =  N/A
# P_orb (s)        =  N/A
# asin(i)/c (s)    =  N/A
# eccentricity     =  N/A
# w (rad)          =  N/A
# T_peri           =  N/A
######################################################
   0  503.2416
   1  664.0953
   2  442.5375
   3  341.8753
   4  366.5483
   5  362.1744
   6  351.4477
   7  301.7455
   8  282.291
   9  209.8945
  10  308.7683
  11  496.232
  12  435.8414
  13  407.2268
  14  463.5724
  15  504.4471
  16  399.6957
  17  412.2956
  18  444.321
  19  615.539
  20  623.328
  21  532.1815
  22  544.1788
  23  479.6973
  24  385.9104
  25  307.3747
  26  316.7658
  27  415.3828
  28  338.9005
  29  407.514
  30  580.7995
  31  535.9925
  32  469.0738
  33  434.543
  34  422.9619
  35  543.3521
  36  518.4946
  37  404.3449
  38  401.073
  39  345.8048
  40  414.2017
  41  380.9883
  42  363.4095
  43  404.8621
  44  442.1692
  45  564.3654
  46  539.5389
  47  407.5585
  48  520.2224
  49  539.0855
  50  378.0645
  51  433.4939
  52  588.293
  53  538.5895
  54  485.6914
  55  395.5341
  56  481.1288
  57  369.7078
  58  363.9485
  59  326.1259
  60  439.3232
  61  448.5758
  62  391.0252
  63  495.1837
  64  529.2014
  65  488.4702
  66  384.6087
  67  317.9424
  68  467.7382
  69  577.7505
  70  546.7971
  71  511.2724
  72  421.4606
  73  454.6611
  74  389.1197
  75  280.9385
  76  331.9877
  77  421.556
  78  475.4834
  79  460.8708
  80  448.9808
  81  442.6727
  82  337.9038
  83  407.0138
  84  443.3109
  85  475.0681
  86  443.5374
  87  446.5396
  88  372.0129
  89  332.244
  90  342.105
  91  365.4885
  92  400.4404
  93  457.5457
  94  426.7844
  95  312.9876
  96  368.9628
  97  348.0869
  98  416.7384
  99  384.5961
 100  366.5892
 101  350.5768
 102  559.9734
 103  488.8531
 104  352.2102
 105  455.8216
 106  424.9428
 107  367.1729
 108  457.4326
 109  449.0021
 110  512.566
 111  569.5618
 112  638.1464
 113  554.1252
 114  615.1574
 115  454.8969
 116  462.8096
 117  653.835
 118  560.4954
 119  400.5481
 120  353.9984
 121  410.1403
 122  480.8772
 123  493.8696
 124  512.2621
 125  490.7725
 126  564.3626
 127  447.0197
 128  559.7885
 129  614.3839
 130  696.139
 131  712.2272
 132  667.3577
 133  914.3427
 134  1188.851
 135  1387.005
 136  1259.235
 137  1103.76
 138  827.3531
 139  619.6414
 140  412.1014
 141  427.4075
 142  505.3177
 143  559.8213
 144  595.945
 145  551.6838
 146  500.1068
 147  505.3808
 148  491.6125
 149  567.618
 150  637.5304
 151  646.5051
 152  537.5586
 153  334.9868
 154  366.3106
 155  446.2297
 156  459.6526
 157  454.6996
 158  427.5591
 159  499.8614
 160  474.2921
 161  396.8368
 162  416.8585
 163  523.2703
 164  438.2191
 165  302.6779
 166  543.4995
 167  679.8303
 168  616.1262
 169  587.8613
 170  509.922
 171  537.9015
 172  429.06
 173  329.5473
 174  386.7292
 175  461.4631
 176  594.2676
 177  546.4787
 178  485.3284
 179  604.5753
 180  523.3076
 181  557.1904
 182  562.5516
 183  438.8197
 184  518.7555
 185  550.9388
 186  570.2738
 187  487.0275
 188  498.4896
 189  464.6109
 190  445.0711
 191  482.9319
 192  484.6622
 193  506.5082
 194  571.7288
 195  498.9903
 196  406.6685
 197  405.6991
 198  418.924
 199  538.2136
 200  637.4615
 201  697.1996
 202  670.5758
 203  498.7348
 204  445.0331
 205  541.2369
 206  452.9997
 207  408.4839
 208  517.8759
 209  511.2382
 210  469.1564
 211  464.15
 212  522.8858
 213  503.0119
 214  473.8756
 215  519.5287
 216  529.4643
 217  471.0422
 218  378.1814
 219  443.1001
 220  484.9786
 221  463.7321
 222  456.755
 223  346.6042
 224  418.841
 225  392.2522
 226  419.1334
 227  418.1343
 228  418.4643
 229  546.1146
 230  526.3021
 231  521.6285
 232  480.3692
 233  440.5149
 234  509.9207
 235  558.7396
 236  595.1041
 237  561.2691
 238  520.8632
 239  351.2128
 240  287.9955
 241  416.7778
 242  466.7368
 243  473.822
 244  427.357
 245  591.9081
 246  712.4166
 247  567.545
 248  556.7374
 249  626.6562
 250  655.8287
 251  499.5652
 252  399.6733
 253  435.2321
 254  588.8714
 255  536.0587
 256  508.0253
 257  414.1313
 258  513.3531
 259  393.0128
 260  446.8515
 261  470.4962
 262  525.0381
 263  599.5644
 264  552.0054
 265  399.3296
 266  433.8346
 267  491.7383
 268  403.429
 269  412.4697
 270  484.5235
 271  541.2056
 272  421.5015
 273  426.1569
 274  415.3541
 275  466.4069
 276  545.9389
 277  541.0135
 278  521.0563
 279  539.8401
 280  474.6298
 281  434.2946
 282  528.7065
 283  559.4708
 284  476.6889
 285  442.9178
 286  455.2786
 287  322.5941
 288  359.1736
 289  486.4477
 290  488.14
 291  471.4868
 292  610.3215
 293  460.1977
 294  471.965
 295  455.5748
 296  468.7804
 297  487.7299
 298  498.757
 299  585.9136
 300  595.0778
 301  450.3872
 302  514.8776
 303  542.8671
 304  447.046
 305  394.3222
 306  356.8512
 307  383.7882
 308  416.3683
 309  480.2001
 310  511.15
 311  438.0653
 312  398.9772
 313  376.0715
 314  453.6757
 315  545.8595
 316  596.46
 317  639.0487
 318  611.7305
 319  441.574
 320  442.6756
 321  490.6258
 322  532.5322
 323  553.3645
 324  484.5759
 325  390.7492
 326  492.8799
 327  355.4876
 328  532.4855
 329  731.2856
 330  606.903
 331  564.9753
 332  524.4874
 333  551.6747
 334  473.6096
 335  472.9686
 336  494.9885
 337  513.8156
 338  508.4597
 339  601.0793
 340  572.6912
 341  688.104
 342  550.8792
 343  460.2224
 344  454.8878
 345  530.2877
 346  534.7714
 347  548.4089
 348  612.403
 349  572.2841
 350  614.9128
 351  630.7639
 352  600.7016
 353  560.3541
 354  477.0419
 355  426.3712
 356  385.7826
 357  498.1571
 358  399.5297
 359  495.5539
 360  536.3893
 361  501.419
 362  513.9714
 363  520.838
 364  607.4966
 365  637.7691
 366  652.8528
 367  565.2483
 368  480.5952
 369  374.1968
 370  406.3223
 371  439.3994
 372  340.5374
 373  424.278
 374  456.9947
 375  547.3411
 376  522.5916
 377  596.8416
 378  605.6464
 379  559.403
 380  393.9425
 381  413.9814
 382  653.4207
 383  569.7621
 384  420.0146
 385  446.7019
 386  575.7318
 387  484.3281
 388  446.1908
 389  499.6125
 390  384.5383
 391  538.3996
 392  616.1708
 393  621.4785
 394  590.5273
 395  520.91
 396  449.7925
 397  490.8362
 398  551.5059
 399  694.8716
 400  553.2584
 401  514.0882
 402  431.3434
 403  455.735
 404  459.3693
 405  401.3567
 406  439.2195
 407  476.9031
 408  450.9961
 409  427.0556
 410  525.0767
 411  578.8398
 412  555.2775
 413  525.2803
 414  589.4404
 415  716.442
 416  720.5889
 417  542.5256
 418  509.2757
 419  574.4244
 420  463.1118
 421  445.2573
 422  483.4713
 423  486.2807
 424  460.8595
 425  559.4761
 426  558.9032
 427  485.8828
 428  439.4711
 429  356.1058
 430  404.0118
 431  550.5526
 432  525.7332
 433  517.05
 434  515.5814
 435  580.6755
 436  533.4514
 437  473.8528
 438  469.06
 439  387.4913
 440  522.1498
 441  472.2618
 442  469.1773
 443  442.4741
 444  459.9489
 445  502.6665
 446  545.8719
 447  586.4946
 448  597.9193
 449  500.4099
 450  447.2437
 451  532.1802
 452  495.7003
 453  468.6049
 454  387.0044
 455  390.372
 456  497.2195
 457  477.2981
 458  437.6802
 459  518.6015
 460  625.2208
 461  693.8182
 462  560.2547
 463  549.0975
 464  490.3012
 465  582.0948
 466  438.8215
 467  432.7405
 468  571.1222
 469  582.9478
 470  447.4227
 471  295.4867
 472  328.6691
 473  449.2729
 474  450.7537
 475  403.386
 476  479.3462
 477  400.6254
 478  467.1904
 479  431.1686
 480  453.1697
 481  522.1795
 482  582.6379
 483  398.6207
 484  454.7222
 485  563.7719
 486  502.3101
 487  568.2776
 488  547.4877
 489  485.2625
 490  444.1755
 491  454.0963
 492  568.1509
 493  511.7285
 494  496.5624
 495  512.809
 496  359.4239
 497  425.6085
 498  584.9841
 499  462.3017
 500  372.9066
 501  490.5446
 502  506.9673
 503  456.9452
 504  484.2669
 505  460.014
 506  551.0952
 507  597.3375
 508  466.9231
 509  489.0994
 510  589.4348
 511  542.8198
