# Input file       =  1209992232.116470-PSRB0329-2ms-sampling-dd.dat
# Candidate        =  PSR_0332+5434
# Telescope        =  AR
# Epoch_topo       =  58248.539943477663
# Epoch_bary       =  N/A
# T_sample         =  0.002
# Data Folded      =  7340032
# Data Avg         =  1.11453098885679e-09
# Data StdDev      =  5.27881565361691 
# Profile Bins     =  512
# Profile Avg      =  0.123121342011881
# Profile StdDev   =  632.048626680756 
# Reduced chi-sqr  =  1.051
# Prob(Noise)      <  0.207   (~0.8 sigma)
# P_topo (ms)      =  714.53822745609   +/- 0.000148
# P'_topo (s/s)    =  -0                +/- 7.81e-11
# P''_topo (s/s^2) =  0                 +/- 3.45e-14
# P_bary (ms)      =  N/A
# P'_bary (s/s)    =  N/A
# P''_bary (s/s^2) =  N/A
# P_orb (s)        =  N/A
# asin(i)/c (s)    =  N/A
# eccentricity     =  N/A
# w (rad)          =  N/A
# T_peri           =  N/A
######################################################
   0  -476.4463
   1  -809.1813
   2  -418.2956
   3  -462.2388
   4  -599.867
   5  -969.0043
   6  -947.6027
   7  -657.0455
   8  -657.7145
   9  -1036.017
  10  -910.8125
  11  -1085.008
  12  -708.2401
  13  -268.7665
  14  -426.5959
  15  -241.2353
  16  -717.9068
  17  -726.5215
  18  -783.6448
  19  -522.5488
  20  -259.6366
  21  -326.6021
  22  -201.5477
  23  -386.3449
  24  -532.624
  25  -814.0933
  26  -936.16
  27  -854.8481
  28  -776.4512
  29  -738.6305
  30  -162.203
  31  -133.3221
  32  -458.153
  33  -558.0149
  34  -167.787
  35  -270.2899
  36  -420.6437
  37  -120.7461
  38  -399.0795
  39  -437.6123
  40  -598.7802
  41  -93.52084
  42  51.36579
  43  -37.54595
  44  14.06705
  45  -59.04718
  46  -239.7702
  47  -461.0666
  48  -432.8407
  49  -266.3497
  50  -150.3426
  51  -45.21358
  52  -54.06074
  53  57.9091
  54  149.8907
  55  259.4301
  56  158.5667
  57  192.112
  58  181.295
  59  185.1963
  60  111.2148
  61  346.9314
  62  611.4147
  63  576.6008
  64  365.4134
  65  161.8041
  66  184.5093
  67  -360.8337
  68  -170.2041
  69  322.9734
  70  478.9261
  71  685.8873
  72  253.9446
  73  153.1181
  74  31.87457
  75  -211.9858
  76  -237.7267
  77  -316.5183
  78  -171.2506
  79  -404.0646
  80  -200.5929
  81  -53.16029
  82  -488.0802
  83  -560.1957
  84  -727.9282
  85  -555.712
  86  -145.9652
  87  73.40585
  88  109.1296
  89  177.2
  90  -131.6311
  91  -86.08875
  92  -201.9852
  93  113.9643
  94  343.8521
  95  541.3015
  96  840.9007
  97  61.39662
  98  34.56437
  99  -365.0724
 100  -258.6417
 101  180.3735
 102  232.809
 103  739.2947
 104  479.1582
 105  381.4856
 106  -125.2037
 107  -354.3822
 108  258.911
 109  -68.69703
 110  134.34
 111  336.8004
 112  240.3839
 113  113.3412
 114  -310.9898
 115  -253.4264
 116  -93.84716
 117  -82.31441
 118  -135.9312
 119  127.394
 120  164.5992
 121  -478.128
 122  -515.8671
 123  -210.5495
 124  -347.5099
 125  -315.7008
 126  -48.68271
 127  168.7762
 128  367.5782
 129  179.7057
 130  273.6236
 131  106.787
 132  44.77638
 133  42.43252
 134  -42.28562
 135  324.9825
 136  665.7062
 137  822.7537
 138  339.6781
 139  -3.905231
 140  400.2274
 141  233.3003
 142  -0.6632127
 143  -63.5386
 144  -47.41691
 145  302.131
 146  16.15228
 147  10.08377
 148  48.27956
 149  46.46688
 150  -159.9281
 151  -328.1901
 152  -192.2732
 153  145.725
 154  -3.994462
 155  -114.9237
 156  228.5356
 157  215.9389
 158  -466.6535
 159  -495.6943
 160  169.6787
 161  409.7264
 162  56.54994
 163  421.3282
 164  155.6225
 165  -39.83503
 166  -460.6436
 167  -322.0596
 168  -240.5449
 169  387.0955
 170  531.3103
 171  9.078669
 172  -372.787
 173  -513.5615
 174  -566.353
 175  -315.8778
 176  -86.59779
 177  -19.65083
 178  402.5833
 179  303.166
 180  307.1192
 181  270.5049
 182  104.9379
 183  -102.701
 184  -156.4486
 185  169.5565
 186  358.5758
 187  704.0511
 188  685.5812
 189  461.9379
 190  269.8837
 191  92.11935
 192  250.1203
 193  411.1837
 194  1107.853
 195  1493.954
 196  1479.84
 197  1919.817
 198  2321.01
 199  2305.841
 200  2058.115
 201  1633.82
 202  1260.964
 203  673.4222
 204  403.6508
 205  -323.1906
 206  -657.242
 207  -26.73759
 208  505.9619
 209  499.5873
 210  727.0419
 211  876.665
 212  424.7604
 213  -85.46122
 214  204.0087
 215  65.65164
 216  386.2818
 217  1035.566
 218  910.3631
 219  417.782
 220  -22.31986
 221  108.28
 222  -80.29214
 223  9.850783
 224  378.183
 225  527.0792
 226  501.5531
 227  42.63173
 228  221.2086
 229  177.1911
 230  101.1749
 231  456.2725
 232  183.985
 233  517.9717
 234  574.7934
 235  471.2302
 236  497.2172
 237  382.4538
 238  735.9454
 239  685.5253
 240  494.3372
 241  635.5522
 242  663.6635
 243  965.0087
 244  1283.356
 245  1018.048
 246  225.4636
 247  72.84869
 248  494.7971
 249  363.8306
 250  544.2659
 251  1036.896
 252  723.0833
 253  596.2477
 254  123.5797
 255  -92.09444
 256  326.4861
 257  350.0926
 258  683.4452
 259  801.6683
 260  615.8533
 261  807.203
 262  288.3125
 263  300.1577
 264  501.0938
 265  638.7363
 266  807.7002
 267  555.9792
 268  1175.154
 269  903.0841
 270  614.1163
 271  648.343
 272  416.0622
 273  150.7869
 274  428.5512
 275  630.1743
 276  538.851
 277  775.6604
 278  339.9352
 279  -76.57365
 280  -322.4407
 281  -108.9084
 282  -29.92561
 283  -336.6582
 284  -48.77298
 285  285.8433
 286  88.84837
 287  -343.4882
 288  74.51795
 289  -235.2578
 290  281.356
 291  518.2642
 292  551.4044
 293  489.1086
 294  -161.2062
 295  -210.1816
 296  -286.5475
 297  -409.4986
 298  213.6332
 299  130.6995
 300  445.5211
 301  482.4554
 302  265.3384
 303  -168.3049
 304  -270.7116
 305  -157.4308
 306  33.05755
 307  200.3535
 308  105.0446
 309  539.8486
 310  604.0684
 311  618.5259
 312  481.6855
 313  -8.450187
 314  42.11198
 315  181.1085
 316  -128.4708
 317  -231.964
 318  -132.4103
 319  179.9257
 320  -50.62891
 321  -576.8336
 322  -251.5278
 323  -329.7003
 324  -508.9253
 325  -253.0306
 326  105.8949
 327  -189.8438
 328  -629.3498
 329  -655.4849
 330  -308.293
 331  -709.0162
 332  -242.3479
 333  -57.34092
 334  317.1674
 335  464.7414
 336  81.64846
 337  111.3927
 338  -143.6546
 339  -380.6479
 340  -241.0491
 341  -112.4767
 342  68.07682
 343  17.70985
 344  -82.28405
 345  -255.2695
 346  -326.6198
 347  -499.1514
 348  -497.4129
 349  -135.5367
 350  -106.0304
 351  -62.23238
 352  298.0392
 353  -95.8829
 354  -387.0761
 355  -368.9466
 356  -94.0034
 357  -56.68309
 358  -365.6269
 359  -194.8945
 360  93.4946
 361  -88.37249
 362  -221.9643
 363  -167.052
 364  52.55667
 365  -120.4788
 366  -45.8176
 367  364.4534
 368  365.409
 369  -42.11217
 370  -527.0037
 371  -540.4228
 372  -452.3186
 373  -330.2379
 374  -203.1375
 375  -338.7672
 376  -544.5511
 377  -593.6816
 378  -1108.301
 379  -883.5956
 380  -904.9045
 381  -692.5776
 382  -377.5466
 383  -331.1572
 384  49.45424
 385  -7.2244
 386  83.39519
 387  -216.7127
 388  -601.7247
 389  -737.4886
 390  -381.9957
 391  -127.0549
 392  -115.3427
 393  -205.6983
 394  -37.60542
 395  107.9145
 396  237.1559
 397  157.25
 398  158.7021
 399  -252.4189
 400  161.3309
 401  286.4727
 402  -20.7431
 403  369.6576
 404  403.3761
 405  344.6208
 406  144.6581
 407  -187.886
 408  -156.52
 409  167.5047
 410  98.8431
 411  144.8138
 412  -102.9928
 413  -86.76718
 414  45.46497
 415  -501.8795
 416  -137.9666
 417  -173.5487
 418  -14.18894
 419  173.2629
 420  -242.2216
 421  -113.8732
 422  -319.3473
 423  -300.3395
 424  -310.8022
 425  -445.4879
 426  -420.6531
 427  -225.9597
 428  -238.9763
 429  -289.8466
 430  -146.8218
 431  -515.3817
 432  -568.7862
 433  -287.7384
 434  -453.8632
 435  -670.4974
 436  -796.7424
 437  -500.2408
 438  -840.789
 439  -655.9998
 440  -545.3742
 441  -463.9922
 442  -673.8512
 443  -360.3095
 444  -293.0087
 445  -497.4625
 446  -683.6494
 447  -962.7623
 448  -602.1668
 449  -394.9196
 450  -357.0457
 451  -507.8877
 452  -515.7514
 453  -335.3011
 454  -384.3647
 455  -301.2685
 456  -602.5594
 457  -291.4355
 458  -40.43248
 459  -380.3008
 460  -67.44426
 461  16.81054
 462  84.93949
 463  -96.20831
 464  235.5268
 465  415.1048
 466  110.1345
 467  165.5292
 468  156.8746
 469  194.3606
 470  283.8458
 471  36.27509
 472  270.2172
 473  -27.75654
 474  -166.2557
 475  -114.2083
 476  9.666022
 477  -23.38674
 478  -296.1357
 479  -183.4604
 480  -70.78977
 481  -84.82191
 482  59.00654
 483  188.3722
 484  -42.93861
 485  93.06129
 486  140.0652
 487  473.1235
 488  136.8658
 489  -568.5008
 490  -264.8916
 491  -164.0419
 492  54.40902
 493  282.7057
 494  162.7136
 495  115.2247
 496  -459.5328
 497  -311.1297
 498  -440.4581
 499  -433.8993
 500  -116.9816
 501  -283.0744
 502  -346.7279
 503  -320.4272
 504  -182.4339
 505  -382.0888
 506  -561.9005
 507  -380.8986
 508  -524.2576
 509  -399.1737
 510  -207.4576
 511  -181.2955
