# Input file       =  1209115697.107978_cleaned.dat
# Candidate        =  PSR_0332+5434
# Telescope        =  AR
# Epoch_topo       =  58238.394862360859
# Epoch_bary       =  N/A
# T_sample         =  0.002
# Data Folded      =  7340032
# Data Avg         =  0.233276704703582
# Data StdDev      =  6.28568795337405 
# Profile Bins     =  256
# Profile Avg      =  6687.36464561264 
# Profile StdDev   =  1064.34349718927 
# Reduced chi-sqr  =  1.182
# Prob(Noise)      <  0.0246   (~2.0 sigma)
# P_topo (ms)      =  714.547275107213  +/- 0.000412
# P'_topo (s/s)    =  -0                +/- 2.17e-10
# P''_topo (s/s^2) =  0                 +/- 9.59e-14
# P_bary (ms)      =  N/A
# P'_bary (s/s)    =  N/A
# P''_bary (s/s^2) =  N/A
# P_orb (s)        =  N/A
# asin(i)/c (s)    =  N/A
# eccentricity     =  N/A
# w (rad)          =  N/A
# T_peri           =  N/A
######################################################
   0  5262.837
   1  5290.203
   2  5315.123
   3  5917.436
   4  5904.227
   5  5309.537
   6  5450.726
   7  6058.658
   8  6290.039
   9  6152.57
  10  6129.549
  11  6900.304
  12  6853.937
  13  6857.1
  14  7085.732
  15  7046.559
  16  7072.266
  17  7052.209
  18  7396.765
  19  7824.46
  20  8122.78
  21  8528.592
  22  8144.592
  23  7194.528
  24  6492.816
  25  6968.621
  26  6177.473
  27  5241.685
  28  5814.622
  29  5522.676
  30  5520.352
  31  5025.417
  32  5660.593
  33  5776.664
  34  6337.849
  35  6355.241
  36  6250.961
  37  6939.324
  38  7314.086
  39  6903.861
  40  7395.544
  41  7488.948
  42  8047.831
  43  7180.331
  44  7595.871
  45  7569.033
  46  7436.04
  47  6771.92
  48  7213.058
  49  7111.03
  50  7272.228
  51  6854.921
  52  7667.907
  53  8413.141
  54  8041.936
  55  7828.318
  56  8320.021
  57  7928.644
  58  9427.57
  59  8733.165
  60  7435.783
  61  6619.554
  62  6924.27
  63  6411.18
  64  5398.258
  65  4779.665
  66  4822.573
  67  5269.278
  68  4935.757
  69  4981.599
  70  4569.84
  71  5596.562
  72  5693.019
  73  4949.102
  74  4972.024
  75  5600.346
  76  6517.761
  77  6820.428
  78  6749.411
  79  6747.25
  80  6818.42
  81  5973.119
  82  6735.846
  83  5941.949
  84  6456.635
  85  7014.868
  86  6044.422
  87  5345.731
  88  6287.272
  89  7370.486
  90  6707.645
  91  6358.581
  92  6774.736
  93  7643.553
  94  7594.795
  95  6807.251
  96  7298.808
  97  7426.417
  98  6950.748
  99  6697.745
 100  7134.176
 101  6395.094
 102  6608.44
 103  7009.792
 104  7062.928
 105  6489.907
 106  5864.532
 107  5772.892
 108  5806.463
 109  5729.606
 110  5711.354
 111  5448.492
 112  5557.48
 113  5316.897
 114  5626.636
 115  5488.672
 116  5284.586
 117  5305.161
 118  5295.068
 119  5401.582
 120  5938.899
 121  6507.175
 122  6036.274
 123  7076.225
 124  6729.297
 125  6791.279
 126  7288.791
 127  7141.24
 128  6861.29
 129  7225.46
 130  8210.207
 131  8239.453
 132  6633.24
 133  6321.963
 134  6708.673
 135  7052.198
 136  7129.883
 137  6874.777
 138  7580.456
 139  6399.126
 140  7211.028
 141  7692.143
 142  7128.642
 143  6794.349
 144  6575.67
 145  6331.839
 146  6454.024
 147  7214.062
 148  8544.366
 149  9631.826
 150  9999.79
 151  9529.043
 152  8208.442
 153  7504.657
 154  7076.189
 155  7313.649
 156  7273.388
 157  7521.114
 158  6775.65
 159  7309.238
 160  7512.787
 161  7740.152
 162  7679.207
 163  7603.893
 164  7872.356
 165  7454.763
 166  8466.169
 167  8486.105
 168  8078.665
 169  7525.881
 170  7048.374
 171  6211.694
 172  6618.99
 173  6343.215
 174  6137.447
 175  5309.042
 176  5663.085
 177  5919.723
 178  5414.225
 179  5581.03
 180  6331.504
 181  6239.156
 182  6679.394
 183  5741.665
 184  6249.422
 185  6549.391
 186  6652.639
 187  6908.098
 188  7194.697
 189  7244.284
 190  7347.364
 191  7170.792
 192  7077.84
 193  8357.229
 194  7617.704
 195  6793.729
 196  6937.972
 197  6688.625
 198  6356.986
 199  6428.65
 200  6604.489
 201  6398.468
 202  6213.116
 203  6494.876
 204  7676.447
 205  7694.915
 206  6699.319
 207  5944.41
 208  5861.753
 209  6668.263
 210  5837.586
 211  5805.45
 212  5690.057
 213  4863.734
 214  5436.217
 215  5079.023
 216  6289.062
 217  6416.896
 218  5521.844
 219  6592.006
 220  5802.051
 221  6100.893
 222  6274.019
 223  6827.054
 224  7231.195
 225  7176.702
 226  8689.497
 227  8664.413
 228  9147.027
 229  8642.389
 230  9014.625
 231  8107.676
 232  7616.146
 233  7166.233
 234  7593.211
 235  7096.118
 236  6403.906
 237  6318.683
 238  6470.272
 239  6498.451
 240  7007.603
 241  6766.96
 242  6780.987
 243  6704.026
 244  7052.86
 245  6401.689
 246  6485.416
 247  5412.439
 248  5628.869
 249  5093.297
 250  5698.771
 251  5173.024
 252  5031.333
 253  5393.633
 254  5187.638
 255  5336.475
