# Input file       =  1209962704.113044-PSRB0329-2ms-sampling-dd.dat
# Candidate        =  PSR_0332+5434
# Telescope        =  AR
# Epoch_topo       =  58248.198184178749
# Epoch_bary       =  N/A
# T_sample         =  0.002
# Data Folded      =  7208960
# Data Avg         =  -2.46326312204326e-10
# Data StdDev      =  7.24670814224476 
# Profile Bins     =  512
# Profile Avg      =  -0.00289130337448562
# Profile StdDev   =  859.88841537503  
# Reduced chi-sqr  =  1.031
# Prob(Noise)      <  0.304   (~0.5 sigma)
# P_topo (ms)      =  714.538206874184  +/- 5.83e-05
# P'_topo (s/s)    =  -0                +/- 3.13e-11
# P''_topo (s/s^2) =  0                 +/- 1.41e-14
# P_bary (ms)      =  N/A
# P'_bary (s/s)    =  N/A
# P''_bary (s/s^2) =  N/A
# P_orb (s)        =  N/A
# asin(i)/c (s)    =  N/A
# eccentricity     =  N/A
# w (rad)          =  N/A
# T_peri           =  N/A
######################################################
   0  164.9378
   1  -524.0307
   2  -214.0278
   3  -219.3007
   4  -155.282
   5  -374.3564
   6  -300.9274
   7  -176.8359
   8  -289.4317
   9  80.70808
  10  320.7766
  11  772.3479
  12  445.3893
  13  586.6038
  14  572.4679
  15  576.4503
  16  129.5508
  17  -301.4979
  18  57.43064
  19  -360.4232
  20  -621.3912
  21  -822.8412
  22  -315.2219
  23  327.3588
  24  850.0503
  25  692.6166
  26  536.4597
  27  440.9504
  28  132.7351
  29  136.4916
  30  -169.8896
  31  849.0159
  32  909.0085
  33  616.169
  34  -7.319263
  35  -703.1859
  36  -1171.334
  37  -1503.071
  38  -884.5676
  39  233.8617
  40  732.6456
  41  321.5047
  42  338.3102
  43  42.77374
  44  -29.47549
  45  -235.4985
  46  -36.52074
  47  777.8521
  48  1142.556
  49  838.8555
  50  59.71896
  51  -317.3786
  52  -955.346
  53  -695.603
  54  -1198.76
  55  -305.174
  56  409.0511
  57  529.3289
  58  881.0338
  59  331.0537
  60  363.1128
  61  -313.1726
  62  54.90746
  63  778.2717
  64  972.7712
  65  963.5958
  66  108.2778
  67  53.48592
  68  -587.7375
  69  -834.5893
  70  -1043.042
  71  -738.2568
  72  -370.102
  73  297.1185
  74  357.6712
  75  -446.5697
  76  -289.7782
  77  -307.4623
  78  568.5062
  79  355.7275
  80  552.1053
  81  669.1042
  82  158.3574
  83  346.1141
  84  221.12
  85  265.542
  86  -516.948
  87  -1013.032
  88  -752.274
  89  -352.0044
  90  79.38307
  91  573.9792
  92  950.0649
  93  708.2708
  94  914.1238
  95  31.18455
  96  276.5084
  97  624.9478
  98  -215.5932
  99  -332.0981
 100  -276.6646
 101  284.4468
 102  -38.84674
 103  -409.0784
 104  -373.7621
 105  -265.2737
 106  422.1442
 107  409.7355
 108  -228.2931
 109  -202.1217
 110  591.1943
 111  152.9562
 112  278.5482
 113  509.8816
 114  927.1246
 115  234.3224
 116  -649.6375
 117  -682.8434
 118  -957.1391
 119  -1307.279
 120  -666.0879
 121  289.7393
 122  652.2044
 123  270.6979
 124  99.52382
 125  289.3057
 126  333.7703
 127  38.44151
 128  -69.79034
 129  530.6241
 130  898.3187
 131  453.6171
 132  44.88461
 133  -616.0545
 134  -529.6691
 135  -799.7529
 136  -900.9464
 137  -1058.793
 138  -290.2835
 139  679.9842
 140  182.8393
 141  154.0421
 142  -344.156
 143  -154.0172
 144  -176.7421
 145  42.45682
 146  592.6831
 147  809.3489
 148  659.7555
 149  81.85227
 150  227.047
 151  20.37034
 152  -492.9945
 153  -1064.215
 154  -495.1443
 155  111.0061
 156  1247.302
 157  1049.199
 158  567.986
 159  1035.503
 160  522.6054
 161  695.076
 162  548.6879
 163  551.402
 164  688.623
 165  60.59533
 166  324.5544
 167  238.837
 168  368.0721
 169  -726.8559
 170  -834.3645
 171  -499.9122
 172  -365.3207
 173  -124.3689
 174  648.3033
 175  854.6086
 176  307.5956
 177  -118.9274
 178  -846.9026
 179  -47.93687
 180  713.8079
 181  334.7098
 182  74.55679
 183  -191.1163
 184  -103.2117
 185  -453.9956
 186  -325.1902
 187  2.503621
 188  249.1489
 189  191.2937
 190  18.62652
 191  -193.4985
 192  -82.08936
 193  447.6989
 194  691.0636
 195  1366.893
 196  1336.626
 197  471.485
 198  -305.8769
 199  -1074.327
 200  -967.124
 201  -940.7098
 202  -621.7744
 203  -174.2146
 204  166.4757
 205  407.5446
 206  107.7107
 207  -558.5997
 208  -60.41666
 209  151.8952
 210  144.3895
 211  534.5244
 212  469.6531
 213  487.6201
 214  -39.88871
 215  -320.3129
 216  -531.0745
 217  -607.9775
 218  -979.9329
 219  -874.8956
 220  -408.4878
 221  413.4352
 222  781.1448
 223  599.4039
 224  542.4757
 225  321.1165
 226  455.4809
 227  430.8988
 228  525.7867
 229  1333.219
 230  1442.332
 231  713.9833
 232  192.7559
 233  -88.90806
 234  -788.9931
 235  -1013.224
 236  -940.2595
 237  -210.905
 238  405.1173
 239  395.8761
 240  254.4898
 241  -77.53943
 242  299.4675
 243  75.28365
 244  -9.025659
 245  479.1203
 246  422.6714
 247  154.5857
 248  -330.6505
 249  -264.5663
 250  35.01967
 251  -216.4708
 252  -857.9967
 253  -558.9365
 254  -336.6704
 255  -85.88712
 256  350.4763
 257  455.1186
 258  983.9493
 259  409.8533
 260  502.7
 261  200.3176
 262  466.5483
 263  913.1671
 264  472.9535
 265  254.6655
 266  -419.9617
 267  -604.9708
 268  -1253.447
 269  -652.4873
 270  109.2719
 271  682.618
 272  183.3634
 273  -612.9737
 274  -246.3803
 275  -182.6644
 276  337.5043
 277  423.3482
 278  1046.607
 279  921.8835
 280  -99.68667
 281  -483.7973
 282  -701.3879
 283  -342.1436
 284  -190.6218
 285  -129.2721
 286  107.6385
 287  -227.4298
 288  -511.5329
 289  -737.6547
 290  -667.9431
 291  36.46514
 292  282.4943
 293  270.8277
 294  630.5261
 295  913.5002
 296  570.723
 297  114.3656
 298  -468.6411
 299  -711.6492
 300  -1237.492
 301  -1260.069
 302  -818.3892
 303  -35.97614
 304  894.3347
 305  351.2909
 306  -343.3177
 307  -223.2875
 308  -244.9263
 309  134.1893
 310  -39.39197
 311  371.7665
 312  965.3607
 313  462.2357
 314  19.51858
 315  -563.2678
 316  -656.3015
 317  -1114.517
 318  -1316.746
 319  -1049.074
 320  -120.5515
 321  -90.8906
 322  -347.1406
 323  23.11526
 324  -171.625
 325  102.2917
 326  -351.6103
 327  30.49613
 328  398.4312
 329  173.684
 330  -0.3235774
 331  -577.6528
 332  -631.4178
 333  -1023.677
 334  -1108.018
 335  -1522.65
 336  -958.6224
 337  -341.0652
 338  276.2278
 339  -17.57676
 340  -621.1372
 341  -122.4032
 342  -882.0754
 343  -268.6011
 344  228.3865
 345  897.4149
 346  247.0078
 347  -640.2703
 348  -688.4186
 349  -1308.998
 350  -901.4071
 351  -1204.815
 352  -565.7875
 353  -121.693
 354  338.9336
 355  -188.9948
 356  -366.6084
 357  184.3588
 358  146.0108
 359  248.5438
 360  217.4594
 361  761.5309
 362  619.5462
 363  9.583688
 364  -254.9411
 365  -532.7324
 366  -221.6429
 367  -510.375
 368  -544.8206
 369  172.5719
 370  211.1852
 371  299.9095
 372  112.1352
 373  237.6516
 374  405.1347
 375  916.6313
 376  666.914
 377  1055.36
 378  1087.363
 379  676.3885
 380  354.4086
 381  -489.1487
 382  -480.4001
 383  -693.0174
 384  -733.3893
 385  -620.967
 386  354.433
 387  1224.188
 388  653.7347
 389  -233.52
 390  105.2655
 391  58.06479
 392  781.8528
 393  751.9527
 394  1047.527
 395  1099.242
 396  173.8014
 397  -336.1851
 398  -492.447
 399  -52.94577
 400  -690.4661
 401  -404.0357
 402  -166.3264
 403  408.336
 404  273.44
 405  -336.1835
 406  180.6326
 407  -122.738
 408  338.6264
 409  4.115199
 410  362.8064
 411  510.2368
 412  388.4321
 413  284.9904
 414  -639
 415  -726.9502
 416  -1147.329
 417  -1142.689
 418  -1377.055
 419  -425.8103
 420  53.88446
 421  -49.6792
 422  63.65023
 423  -449.5801
 424  -47.79938
 425  -467.493
 426  115.8339
 427  702.5195
 428  629.4608
 429  137.4377
 430  -1016.993
 431  -667.2219
 432  -794.1671
 433  -498.5444
 434  -380.4036
 435  -309.8211
 436  406.1661
 437  -245.4862
 438  -399.5773
 439  -478.6863
 440  169.8974
 441  -196.4247
 442  -160.065
 443  31.64822
 444  522.1963
 445  526.4467
 446  18.50954
 447  -208.8214
 448  -588.2729
 449  -1095.35
 450  -1381.188
 451  -1172.971
 452  -221.1798
 453  -211.5962
 454  86.29796
 455  -138.0822
 456  -116.581
 457  -206.7035
 458  -329.4304
 459  -216.0339
 460  304.1694
 461  647.6734
 462  14.76959
 463  -616.6953
 464  -1233.156
 465  -1069.7
 466  -1415.912
 467  -1281.11
 468  -471.7135
 469  255.3049
 470  150.7504
 471  -16.91424
 472  -75.39796
 473  62.32442
 474  136.5287
 475  -82.48021
 476  157.3913
 477  449.9993
 478  803.8582
 479  207.7406
 480  -259.0154
 481  -941.8457
 482  -1367.211
 483  -1753.857
 484  -1049.791
 485  -97.22865
 486  478.5771
 487  687.5511
 488  -242.9223
 489  -229.2619
 490  -446.4003
 491  -453.4401
 492  60.66102
 493  515.4645
 494  801.1412
 495  69.92046
 496  -17.24202
 497  -412.2126
 498  -368.0593
 499  -761.9013
 500  -538.3962
 501  -136.9105
 502  574.7808
 503  925.325
 504  813.8195
 505  2013.877
 506  2197.507
 507  2876.975
 508  2405.855
 509  2211.184
 510  1628.428
 511  702.7851
