# Input file       =  1209992232.11647_cleaned.dat
# Candidate        =  PSR_0332+5434
# Telescope        =  AR
# Epoch_topo       =  58248.539943477663
# Epoch_bary       =  N/A
# T_sample         =  0.002
# Data Folded      =  7340032
# Data Avg         =  0.0319532944798131
# Data StdDev      =  0.999827855625638
# Profile Bins     =  512
# Profile Avg      =  458.086405393016 
# Profile StdDev   =  119.712425008129 
# Reduced chi-sqr  =  1.925
# Prob(Noise)      <  2.95e-32   (~11.8 sigma)
# P_topo (ms)      =  714.538226782596  +/- 0.000272
# P'_topo (s/s)    =  -0                +/- 1.44e-10
# P''_topo (s/s^2) =  0                 +/- 6.35e-14
# P_bary (ms)      =  N/A
# P'_bary (s/s)    =  N/A
# P''_bary (s/s^2) =  N/A
# P_orb (s)        =  N/A
# asin(i)/c (s)    =  N/A
# eccentricity     =  N/A
# w (rad)          =  N/A
# T_peri           =  N/A
######################################################
   0  1373.181
   1  1266.036
   2  1051.524
   3  778.4062
   4  605.162
   5  555.2106
   6  422.3317
   7  351.5248
   8  470.0291
   9  554.0089
  10  479.0045
  11  560.8043
  12  632.9817
  13  586.3915
  14  531.41
  15  583.4999
  16  450.0221
  17  474.3001
  18  645.1762
  19  504.8725
  20  388.0904
  21  420.7837
  22  465.4535
  23  354.9458
  24  384.6229
  25  404.7849
  26  495.3091
  27  450.2144
  28  386.5685
  29  415.8043
  30  387.7035
  31  369.202
  32  468.2086
  33  370.239
  34  455.8249
  35  494.2726
  36  514.6748
  37  472.2567
  38  454.0329
  39  584.4504
  40  607.7854
  41  558.1967
  42  615.397
  43  618.7845
  44  630.9642
  45  660.4834
  46  571.8809
  47  460.3731
  48  490.6547
  49  579.2645
  50  553.8823
  51  546.3388
  52  624.6216
  53  435.9349
  54  477.6869
  55  494.9447
  56  516.9509
  57  568.6782
  58  553.7257
  59  570.9757
  60  486.6399
  61  447.7786
  62  548.925
  63  503.5684
  64  498.9494
  65  536.3641
  66  548.4465
  67  507.7058
  68  476.9412
  69  599.739
  70  523.399
  71  423.488
  72  577.2662
  73  582.1993
  74  455.9311
  75  524.5439
  76  547.018
  77  487.8825
  78  486.2977
  79  373.1198
  80  420.006
  81  353.4665
  82  393.2768
  83  464.7512
  84  339.8886
  85  403.4569
  86  517.9107
  87  473.4281
  88  435.9499
  89  581.0208
  90  406.2914
  91  492.2674
  92  534.1573
  93  481.84
  94  447.494
  95  373.0899
  96  447.9139
  97  410.8012
  98  346.9012
  99  484.5299
 100  439.5666
 101  477.5969
 102  597.8541
 103  567.4234
 104  429.9793
 105  389.1428
 106  380.537
 107  497.0555
 108  416.8006
 109  395.7202
 110  492.3179
 111  536.0286
 112  589.9185
 113  581.0735
 114  505.8273
 115  570.6766
 116  576.4084
 117  511.8204
 118  417.1121
 119  402.1509
 120  501.2669
 121  465.9116
 122  389.6742
 123  527.1746
 124  458.6883
 125  434.5503
 126  459.2672
 127  504.4307
 128  354.8631
 129  257.4897
 130  407.285
 131  538.1108
 132  410.4198
 133  532.4476
 134  561.5996
 135  597.9437
 136  589.0364
 137  551.537
 138  541.6007
 139  469.1717
 140  396.319
 141  472.8258
 142  460.6034
 143  420.0049
 144  484.3651
 145  457.0852
 146  427.2838
 147  449.1337
 148  356.9863
 149  419.1122
 150  428.6838
 151  423.698
 152  477.3116
 153  514.1251
 154  423.1124
 155  407.6708
 156  452.1852
 157  496.1837
 158  416.5222
 159  358.0086
 160  347.8767
 161  475.7943
 162  524.8358
 163  509.694
 164  454.384
 165  501.6775
 166  484.1497
 167  476.4853
 168  483.0427
 169  584.6542
 170  547.3647
 171  382.6492
 172  384.4384
 173  456.209
 174  490.3342
 175  450.4495
 176  457.7431
 177  362.9417
 178  354.4746
 179  337.1425
 180  362.7382
 181  438.9209
 182  401.0061
 183  459.8841
 184  420.0365
 185  454.761
 186  483.1887
 187  489.2065
 188  473.6846
 189  383.041
 190  246.5363
 191  401.2229
 192  441.0944
 193  393.1205
 194  324.9501
 195  387.3764
 196  495.6292
 197  536.1996
 198  491.9641
 199  421.4313
 200  284.9934
 201  430.8926
 202  449.2138
 203  321.6212
 204  465.5554
 205  423.5721
 206  469.6499
 207  440.1291
 208  361.598
 209  450.1564
 210  477.6937
 211  475.0644
 212  439.1121
 213  405.1728
 214  446.2648
 215  534.9182
 216  371.0738
 217  454.7388
 218  413.1464
 219  368.4838
 220  455.6809
 221  378.583
 222  413.8575
 223  407.8623
 224  429.6219
 225  438.1756
 226  345.2211
 227  279.2167
 228  393.1711
 229  395.317
 230  391.4729
 231  408.8796
 232  339.6958
 233  297.8474
 234  340.5053
 235  362.0013
 236  292.1334
 237  258.1002
 238  329.2898
 239  186.6939
 240  252.9836
 241  224.3173
 242  295.5372
 243  267.7862
 244  381.9123
 245  453.5466
 246  405.818
 247  330.1066
 248  324.3474
 249  400.7358
 250  457.9494
 251  414.688
 252  292.0643
 253  280.2604
 254  352.1291
 255  409.2482
 256  452.7452
 257  288.4774
 258  366.4521
 259  404.5454
 260  297.377
 261  339.8905
 262  403.0835
 263  470.5521
 264  354.5455
 265  496.1667
 266  505.0847
 267  421.1586
 268  470.2347
 269  432.0357
 270  454.2307
 271  500.1505
 272  446.0625
 273  505.7928
 274  404.5007
 275  385.8342
 276  381.99
 277  426.3288
 278  409.8611
 279  322.7314
 280  373.0365
 281  417.03
 282  467.9613
 283  566.7906
 284  524.172
 285  388.6583
 286  406.7161
 287  446.0328
 288  540.1384
 289  448.8914
 290  366.277
 291  424.9377
 292  393.2529
 293  344.0344
 294  433.5965
 295  490.6074
 296  407.506
 297  336.0406
 298  462.5139
 299  427.4923
 300  345.6025
 301  427.6071
 302  463.4346
 303  393.7965
 304  394.0078
 305  484.7585
 306  430.4191
 307  446.2815
 308  479.9685
 309  469.7111
 310  467.1963
 311  449.2151
 312  425.8934
 313  412.2641
 314  365.2921
 315  479.3015
 316  507.2011
 317  413.5951
 318  263.2372
 319  299.7126
 320  409.3063
 321  389.729
 322  281.4696
 323  356.23
 324  343.4116
 325  320.0725
 326  430.4559
 327  518.2491
 328  501.424
 329  381.416
 330  371.7408
 331  379.1035
 332  394.9878
 333  411.6411
 334  374.6097
 335  390.3017
 336  385.6942
 337  306.2901
 338  329.2192
 339  316.82
 340  326.1282
 341  346.4591
 342  282.1993
 343  449.4452
 344  518.5274
 345  409.7247
 346  445.6636
 347  491.2686
 348  510.0414
 349  400.44
 350  452.9135
 351  351.5843
 352  306.3835
 353  291.8862
 354  455.4857
 355  516.2844
 356  509.0898
 357  506.6813
 358  486.3163
 359  382.7667
 360  314.5536
 361  247.3449
 362  373.9788
 363  441.2921
 364  450.4315
 365  338.6297
 366  362.7487
 367  374.1182
 368  433.7007
 369  435.6342
 370  489.4172
 371  507.3068
 372  563.6469
 373  593.2834
 374  571.6864
 375  572.7621
 376  567.308
 377  502.9929
 378  410.9536
 379  386.736
 380  337.7646
 381  488.3713
 382  595.3005
 383  651.9007
 384  568.2214
 385  455.1117
 386  495.2822
 387  463.9918
 388  433.1364
 389  430.9636
 390  545.2343
 391  424.3343
 392  305.1976
 393  359.4507
 394  422.3878
 395  310.2873
 396  371.6904
 397  374.6474
 398  332.4589
 399  407.1529
 400  465.657
 401  488.7937
 402  442.7832
 403  434.8214
 404  394.0956
 405  396.1051
 406  428.1327
 407  436.2521
 408  423.064
 409  477.4595
 410  430.5129
 411  449.7381
 412  351.2139
 413  355.9453
 414  545.7792
 415  533.1823
 416  570.1689
 417  499.8077
 418  532.3405
 419  379.7739
 420  310.1728
 421  517.1506
 422  467.6356
 423  457.1217
 424  501.8369
 425  432.585
 426  381.0784
 427  344.8623
 428  391.1482
 429  460.9345
 430  517.2711
 431  499.6242
 432  524.7392
 433  427.5166
 434  239.1975
 435  284.5391
 436  443.1706
 437  431.5202
 438  455.0893
 439  520.548
 440  567.0769
 441  514.1693
 442  536.5256
 443  529.6034
 444  525.5884
 445  539.999
 446  489.6632
 447  449.3107
 448  423.8558
 449  586.8306
 450  623.9482
 451  494.6799
 452  454.1324
 453  639.1484
 454  555.7705
 455  440.4065
 456  408.536
 457  324.2316
 458  373.0762
 459  406.8843
 460  405.418
 461  421.0281
 462  425.8814
 463  445.6685
 464  477.4693
 465  380.3942
 466  490.8932
 467  455.3194
 468  456.7195
 469  594.1248
 470  591.9813
 471  475.8218
 472  417.4334
 473  556.8595
 474  611.4533
 475  422.4518
 476  633.4695
 477  622.7162
 478  560.2971
 479  504.1373
 480  463.223
 481  425.5194
 482  492.8878
 483  533.625
 484  386.0641
 485  249.9927
 486  395.6404
 487  346.9092
 488  390.8155
 489  442.7367
 490  393.8782
 491  501.349
 492  422.7507
 493  482.3172
 494  521.4726
 495  433.9285
 496  422.08
 497  428.5642
 498  465.6618
 499  496.6969
 500  586.3071
 501  628.5689
 502  572.9547
 503  554.6522
 504  508.6525
 505  562.9525
 506  558.3522
 507  684.8053
 508  887.8601
 509  974.2975
 510  1181.027
 511  1394.136
