# Input file       =  1210322039.121345_cleaned.dat
# Candidate        =  PSR_0332+5434
# Telescope        =  AR
# Epoch_topo       =  58252.357154182231
# Epoch_bary       =  N/A
# T_sample         =  0.002
# Data Folded      =  7340032
# Data Avg         =  0.0215254493994191
# Data StdDev      =  1.00018505979531 
# Profile Bins     =  512
# Profile Avg      =  308.576405735567 
# Profile StdDev   =  119.75519414797  
# Reduced chi-sqr  =  1.893
# Prob(Noise)      <  1.4e-30   (~11.4 sigma)
# P_topo (ms)      =  714.534217626712  +/- 0.000499
# P'_topo (s/s)    =  -0                +/- 2.63e-10
# P''_topo (s/s^2) =  0                 +/- 1.16e-13
# P_bary (ms)      =  N/A
# P'_bary (s/s)    =  N/A
# P''_bary (s/s^2) =  N/A
# P_orb (s)        =  N/A
# asin(i)/c (s)    =  N/A
# eccentricity     =  N/A
# w (rad)          =  N/A
# T_peri           =  N/A
######################################################
   0  358.8965
   1  371.3211
   2  322.8109
   3  229.9758
   4  217.7171
   5  259.3589
   6  281.5216
   7  278.3438
   8  213.4957
   9  301.7144
  10  343.9627
  11  225.0694
  12  288.3434
  13  398.1653
  14  454.3196
  15  443.0914
  16  308.5568
  17  241.9999
  18  298.7139
  19  292.2916
  20  224.9529
  21  314.8992
  22  356.6623
  23  280.1789
  24  241.7708
  25  242.4785
  26  305.7229
  27  323.19
  28  340.9847
  29  246.0319
  30  211.8221
  31  292.0167
  32  346.9781
  33  390.1923
  34  386.2967
  35  326.5851
  36  255.8483
  37  231.9951
  38  241.4766
  39  254.549
  40  268.8368
  41  364.1122
  42  346.8384
  43  233.9872
  44  246.004
  45  321.5728
  46  245.1865
  47  344.2599
  48  399.1739
  49  339.43
  50  291.7866
  51  254.0189
  52  300.6905
  53  302.9605
  54  335.9754
  55  354.1838
  56  344.3949
  57  382.0245
  58  340.7313
  59  261.5601
  60  232.4726
  61  278.2903
  62  258.9684
  63  340.8964
  64  353.1206
  65  343.0965
  66  323.1836
  67  235.8383
  68  177.6285
  69  198.1981
  70  267.0289
  71  287.8974
  72  302.5299
  73  264.9828
  74  174.8891
  75  77.92265
  76  102.4068
  77  116.4805
  78  191.7085
  79  214.5575
  80  247.8199
  81  298.1353
  82  204.9858
  83  216.8905
  84  139.9242
  85  212.5921
  86  142.5455
  87  180.2511
  88  192.8641
  89  197.2979
  90  207.3946
  91  264.9557
  92  97.75687
  93  101.1433
  94  114.454
  95  97.52538
  96  194.2696
  97  387.5438
  98  328.2912
  99  187.8577
 100  194.2625
 101  199.3962
 102  223.1788
 103  218.4288
 104  173.1182
 105  244.1462
 106  271.8611
 107  250.1086
 108  317.88
 109  309.0256
 110  259.8749
 111  254.988
 112  253.4739
 113  364.5773
 114  397.396
 115  360.5833
 116  230.8105
 117  150.7402
 118  108.3265
 119  137.0198
 120  217.8731
 121  309.3499
 122  267.5653
 123  259.332
 124  224.9968
 125  230.8472
 126  171.9478
 127  176.5757
 128  217.7336
 129  230.5732
 130  251.327
 131  247.2853
 132  231.0201
 133  310.6614
 134  276.2153
 135  192.0318
 136  172.8646
 137  209.5563
 138  330.2285
 139  283.5002
 140  387.4088
 141  358.2847
 142  255.7778
 143  239.2175
 144  325.2374
 145  398.431
 146  406.0303
 147  353.2076
 148  255.4767
 149  328.741
 150  321.0186
 151  307.8695
 152  309.8719
 153  281.7245
 154  310.5119
 155  342.275
 156  336.0858
 157  253.0551
 158  282.2846
 159  244.2277
 160  187.4916
 161  187.9818
 162  201.3609
 163  182.8058
 164  184.3762
 165  226.1804
 166  183.0543
 167  119.3584
 168  120.5328
 169  58.56681
 170  196.3139
 171  240.0741
 172  170.1156
 173  90.25349
 174  131.1911
 175  148.2054
 176  147.9496
 177  243.4909
 178  213.7122
 179  217.4787
 180  175.4344
 181  165.9248
 182  247.1242
 183  284.7847
 184  195.3876
 185  187.1175
 186  151.652
 187  181.0248
 188  171.7652
 189  229.2021
 190  187.9377
 191  180.4176
 192  130.0069
 193  156.2549
 194  215.019
 195  202.0863
 196  227.1424
 197  192.1864
 198  185.0737
 199  242.6396
 200  244.6996
 201  265.2681
 202  210.361
 203  210.26
 204  178.627
 205  187.1788
 206  194.2775
 207  180.1291
 208  224.2795
 209  165.0037
 210  181.8975
 211  90.29383
 212  102.4041
 213  123.1498
 214  153.2827
 215  111.338
 216  138.1448
 217  133.9344
 218  115.3483
 219  168.2113
 220  155.1843
 221  127.9483
 222  159.2654
 223  68.36703
 224  156.5202
 225  87.04859
 226  85.49699
 227  114.1673
 228  203.1511
 229  232.0296
 230  162.7731
 231  150.1575
 232  195.7613
 233  198.4993
 234  287.0032
 235  238.4395
 236  259.955
 237  256.6293
 238  263.7267
 239  214.6769
 240  213.3661
 241  217.0584
 242  129.6893
 243  136.1506
 244  149.267
 245  232.0373
 246  225.6423
 247  287.2119
 248  332.921
 249  257.9898
 250  205.0022
 251  302.8661
 252  316.8681
 253  295.4077
 254  237.1338
 255  278.2499
 256  282.7746
 257  250.2262
 258  254.2563
 259  244.0794
 260  350.5136
 261  327.3704
 262  407.0627
 263  330.6039
 264  231.6269
 265  214.4567
 266  257.3277
 267  312.67
 268  378.6026
 269  339.2091
 270  326.0681
 271  384.485
 272  339.9705
 273  326.1948
 274  374.5622
 275  420.7209
 276  399.6039
 277  420.8543
 278  429.9497
 279  451.3876
 280  428.1061
 281  647.4134
 282  892.6335
 283  999.1462
 284  972.4416
 285  884.6381
 286  679.8444
 287  549.7077
 288  376.1805
 289  328.9061
 290  280.6758
 291  299.9454
 292  299.4919
 293  392.9404
 294  399.8529
 295  377.0352
 296  347.1287
 297  414.953
 298  465.5714
 299  411.8478
 300  354.8963
 301  330.9376
 302  229.7313
 303  276.6625
 304  318.4485
 305  270.6988
 306  221.7286
 307  226.7456
 308  306.9406
 309  294.6651
 310  256.6064
 311  302.8697
 312  317.3967
 313  294.598
 314  368.3864
 315  325.2391
 316  307.501
 317  373.6722
 318  364.6768
 319  362.2507
 320  332.9031
 321  296.4896
 322  283.8302
 323  258.2907
 324  282.2758
 325  337.8199
 326  347.8385
 327  360.5154
 328  255.6527
 329  237.4035
 330  360.9968
 331  330.2553
 332  260.7039
 333  299.5765
 334  227.3536
 335  191.6466
 336  200.3776
 337  280.3852
 338  311.0512
 339  221.8896
 340  212.9434
 341  282.0999
 342  299.8847
 343  292.9139
 344  294.062
 345  273.4358
 346  305.5819
 347  239.5666
 348  203.3606
 349  244.0519
 350  279.5934
 351  346.5303
 352  320.8465
 353  255.8306
 354  332.7594
 355  322.6514
 356  337.9205
 357  340.0989
 358  240.815
 359  306.9597
 360  311.2303
 361  374.1572
 362  366.4438
 363  291.0723
 364  341.8393
 365  324.1096
 366  387.4279
 367  370.0416
 368  370.0653
 369  343.756
 370  325.8377
 371  290.5369
 372  275.954
 373  285.9874
 374  338.2867
 375  343.2813
 376  403.2473
 377  432.1628
 378  351.8017
 379  282.6084
 380  325.0884
 381  386.7823
 382  309.7574
 383  340.0684
 384  405.41
 385  413.2779
 386  402.5761
 387  443.5494
 388  407.192
 389  416.7635
 390  408.9806
 391  381.4363
 392  404.9721
 393  416.6337
 394  534.834
 395  537.9434
 396  452.6425
 397  415.2221
 398  458.7083
 399  480.7648
 400  506.6116
 401  531.7855
 402  489.8133
 403  491.5544
 404  507.5409
 405  496.7829
 406  534.004
 407  545.9008
 408  536.4588
 409  513.6604
 410  451.3876
 411  540.2808
 412  557.947
 413  624.7302
 414  604.2924
 415  512.7609
 416  487.4716
 417  448.0388
 418  485.7236
 419  515.2829
 420  440.6956
 421  461.0622
 422  457.1122
 423  459.6658
 424  461.5017
 425  498.6136
 426  530.6149
 427  434.619
 428  349.8694
 429  387.6102
 430  413.1637
 431  436.4513
 432  440.5158
 433  405.0788
 434  366.9216
 435  441.0614
 436  472.3275
 437  513.7222
 438  449.0537
 439  379.7184
 440  356.9741
 441  453.3908
 442  516.6784
 443  486.2776
 444  490.178
 445  478.367
 446  459.2814
 447  466.2734
 448  435.9677
 449  408.8611
 450  485.0606
 451  484.5731
 452  426.2591
 453  356.6238
 454  424.1606
 455  447.3709
 456  385.0372
 457  364.4226
 458  372.9811
 459  396.2933
 460  401.2509
 461  414.5882
 462  353.4033
 463  333.1632
 464  334.5587
 465  424.5423
 466  388.215
 467  372.7763
 468  308.0106
 469  245.3649
 470  287.247
 471  355.8131
 472  338.3802
 473  299.619
 474  333.4826
 475  328.0261
 476  300.6698
 477  277.3212
 478  254.0183
 479  280.7209
 480  386.2568
 481  316.0939
 482  371.5102
 483  343.4427
 484  353.2971
 485  308.9799
 486  376.7471
 487  361.003
 488  312.0641
 489  400.5892
 490  372.4288
 491  360.7534
 492  370.552
 493  455.7074
 494  460.0321
 495  454.4715
 496  434.1566
 497  353.146
 498  359.4717
 499  412.6706
 500  367.8636
 501  420.9372
 502  339.1511
 503  324.8487
 504  310.6092
 505  305.9503
 506  301.6401
 507  260.2535
 508  255.8166
 509  195.2753
 510  243.9212
 511  248.0933
