# Input file       =  1210595454.117564-PSRB0329-2ms-sampling-dd.dat
# Candidate        =  PSR_0332+5434
# Telescope        =  AR
# Epoch_topo       =  58255.521679601436
# Epoch_bary       =  N/A
# T_sample         =  0.002
# Data Folded      =  7340032
# Data Avg         =  -5.27057220890308e-10
# Data StdDev      =  10.6917144337484 
# Profile Bins     =  512
# Profile Avg      =  0.0222718324246862
# Profile StdDev   =  1280.15143322599 
# Reduced chi-sqr  =  0.878
# Prob(Noise)      <  0.978   (~0.0 sigma)
# P_topo (ms)      =  714.531462543888  +/- 0.0001
# P'_topo (s/s)    =  -0                +/- 5.29e-11
# P''_topo (s/s^2) =  0                 +/- 2.34e-14
# P_bary (ms)      =  N/A
# P'_bary (s/s)    =  N/A
# P''_bary (s/s^2) =  N/A
# P_orb (s)        =  N/A
# asin(i)/c (s)    =  N/A
# eccentricity     =  N/A
# w (rad)          =  N/A
# T_peri           =  N/A
######################################################
   0  -63.86435
   1  -75.05766
   2  -152.9852
   3  -630.5967
   4  -662.0112
   5  -209.4919
   6  168.6725
   7  963.0098
   8  1300.765
   9  1003.378
  10  129.3608
  11  -653.0418
  12  -753.1772
  13  -647.92
  14  -521.0357
  15  -230.9974
  16  -341.1081
  17  -1203.956
  18  -1730.221
  19  -1701.416
  20  -961.6907
  21  -68.6594
  22  26.74372
  23  455.9619
  24  -389.9865
  25  -1380.602
  26  -1256.177
  27  -1025.788
  28  -722.5974
  29  -609.1163
  30  -265.5147
  31  -490.2178
  32  -938.9298
  33  -884.6695
  34  -836.9125
  35  -277.8108
  36  -384.2966
  37  -451.1242
  38  -127.2525
  39  177.4023
  40  389.2944
  41  104.2845
  42  -125.2042
  43  -241.7619
  44  -387.2004
  45  28.77891
  46  83.10601
  47  65.83658
  48  -278.1163
  49  -1082.853
  50  -1229.358
  51  -509.0686
  52  -317.8315
  53  -283.1627
  54  -183.3169
  55  -753.7088
  56  -1185.091
  57  -1352.465
  58  -1260.461
  59  -713.8661
  60  40.57469
  61  -165.52
  62  -773.3286
  63  -609.0817
  64  -638.4462
  65  -835.1887
  66  -773.584
  67  -897.8153
  68  -1014.278
  69  -683.3265
  70  -974.6729
  71  -1150.484
  72  -1439.165
  73  -1623.377
  74  -1506.533
  75  -747.8065
  76  -411.043
  77  -992.458
  78  -892.378
  79  -932.8305
  80  -1165.966
  81  -1023.417
  82  -1071.997
  83  -540.6722
  84  -640.9025
  85  -527.8182
  86  -466.333
  87  -445.351
  88  -600.6855
  89  -662.3256
  90  -880.0622
  91  -712.8961
  92  -573.3934
  93  -269.4197
  94  248.4953
  95  333.2089
  96  285.7534
  97  596.9425
  98  265.6971
  99  350.5645
 100  674.0526
 101  1426.57
 102  729.1086
 103  695.4494
 104  656.5071
 105  -93.54401
 106  281.2507
 107  420.0683
 108  795.0288
 109  50.8291
 110  3.280872
 111  -672.9133
 112  -382.3653
 113  -71.01559
 114  139.7568
 115  543.8642
 116  222.0641
 117  -421.2291
 118  -665.3742
 119  -908.0139
 120  -867.0013
 121  -1200.94
 122  -951.2811
 123  -787.1086
 124  -449.6311
 125  -866.6934
 126  -1227.459
 127  -844.4511
 128  -488.0106
 129  -66.7674
 130  267.2258
 131  438.3277
 132  -149.9157
 133  -436.3119
 134  -2.913802
 135  -421.9459
 136  -549.9343
 137  -223.3179
 138  -308.584
 139  -433.522
 140  -668.5816
 141  -377.5732
 142  -633.3365
 143  -977.2171
 144  -301.9155
 145  -20.46678
 146  21.23513
 147  -59.26304
 148  -393.8707
 149  -470.2433
 150  174.5251
 151  -216.0766
 152  -808.0452
 153  -553.2083
 154  -582.2144
 155  -541.9793
 156  -873.6548
 157  -968.3698
 158  -491.3043
 159  -114.6452
 160  733.8018
 161  308.8195
 162  107.9256
 163  -240.7109
 164  -946.1385
 165  -660.1556
 166  -488.4397
 167  194.0592
 168  296.094
 169  524.2637
 170  768.0344
 171  -295.2434
 172  144.3423
 173  -368.9839
 174  -176.4372
 175  218.9794
 176  651.6383
 177  1631.571
 178  1612.708
 179  1393.945
 180  -92.79295
 181  549.681
 182  558.3518
 183  1060.551
 184  1378.872
 185  1371.386
 186  1762.132
 187  1055.957
 188  655.1047
 189  189.0611
 190  -528.7878
 191  94.91872
 192  862.5095
 193  1658.171
 194  1513.739
 195  1381.283
 196  439.6632
 197  -393.6351
 198  -26.48759
 199  728.8526
 200  777.7962
 201  1065.299
 202  1320.564
 203  768.3801
 204  841.2167
 205  110.8172
 206  -247.4977
 207  618.4589
 208  1080.544
 209  1892.799
 210  731.2446
 211  -106.1578
 212  -490.9776
 213  647.782
 214  751.4163
 215  993.3265
 216  1771.675
 217  857.6927
 218  5.302962
 219  -328.8208
 220  195.0312
 221  179.2298
 222  714.1038
 223  916.5608
 224  442.3651
 225  -48.626
 226  -448.4719
 227  -106.3128
 228  148.741
 229  437.3283
 230  804.3961
 231  215.0411
 232  -274.2352
 233  -490.6137
 234  716.0258
 235  1569.462
 236  1431.534
 237  1454.479
 238  483.3789
 239  -819.7911
 240  -395.0098
 241  140.7585
 242  1042.736
 243  1170.865
 244  1081.738
 245  820.6064
 246  27.244
 247  6.395868
 248  27.44381
 249  1388.232
 250  2396.147
 251  2790.677
 252  3368.97
 253  1555.399
 254  851.3015
 255  1447.775
 256  3329.535
 257  4434.287
 258  4175.935
 259  3203.163
 260  1737.892
 261  312.9844
 262  -72.50611
 263  211.3841
 264  138.6714
 265  551.7698
 266  265.1678
 267  -82.10325
 268  -45.64616
 269  -181.6538
 270  483.5883
 271  807.8774
 272  849.0058
 273  838.6649
 274  400.1514
 275  426.0883
 276  412.8698
 277  1001.718
 278  1487.168
 279  843.3674
 280  395.5052
 281  205.8654
 282  28.10992
 283  -195.4575
 284  -265.3845
 285  175.0946
 286  78.3058
 287  136.0091
 288  -1.00174
 289  -116.9049
 290  -622.252
 291  -1017.273
 292  -51.09085
 293  318.7751
 294  711.8653
 295  474.4561
 296  268.9311
 297  214.0103
 298  -556.5308
 299  -578.2466
 300  -518.2291
 301  471.8943
 302  1305.348
 303  1741.517
 304  1605.999
 305  976.6972
 306  -287.2836
 307  -577.5831
 308  2171.363
 309  2360.387
 310  2031.964
 311  2020.458
 312  704.9793
 313  354.9726
 314  -258.0471
 315  1428.394
 316  1493.507
 317  1704.222
 318  1442.225
 319  923.0943
 320  412.5407
 321  588.874
 322  1034.618
 323  630.0827
 324  436.9424
 325  39.93133
 326  -27.93155
 327  538.3203
 328  446.175
 329  695.9662
 330  462.5638
 331  239.4667
 332  114.134
 333  -390.1184
 334  -40.28646
 335  -12.94242
 336  623.2024
 337  345.0577
 338  392.5367
 339  -311.2824
 340  4.03056
 341  187.5677
 342  3.884703
 343  -109.6928
 344  -402.7426
 345  -560.0199
 346  -480.4417
 347  -1167.072
 348  -903.1303
 349  -818.9389
 350  -942.8915
 351  -282.4671
 352  -20.48225
 353  -926.6553
 354  -1123.947
 355  -960.5428
 356  -730.6847
 357  -666.8243
 358  -401.1508
 359  -155.3973
 360  -608.4252
 361  -106.3843
 362  -18.86014
 363  136.9718
 364  111.5651
 365  -133.6585
 366  -118.9215
 367  -354.8538
 368  -423.4159
 369  -619.2761
 370  -725.5981
 371  -958.8101
 372  -1037.563
 373  -673.5059
 374  -939.5825
 375  -772.1287
 376  87.72987
 377  1045.012
 378  1557.374
 379  2105.193
 380  1541.457
 381  707.2076
 382  -1233.442
 383  89.35425
 384  1235.769
 385  2543.066
 386  2213.054
 387  1822.292
 388  -157.0808
 389  -684.5189
 390  -568.7832
 391  -237.074
 392  -350.2187
 393  16.51361
 394  81.74799
 395  75.17106
 396  -339.7867
 397  -917.1438
 398  -320.5573
 399  -225.0325
 400  -40.8973
 401  414.774
 402  404.3495
 403  603.0373
 404  -253.0031
 405  -298.7717
 406  -19.78726
 407  190.7943
 408  699.3248
 409  908.1218
 410  914.8893
 411  -154.8261
 412  -176.2189
 413  -201.2102
 414  -21.67806
 415  131.6682
 416  152.9743
 417  38.50613
 418  -171.1619
 419  238.9026
 420  764.4262
 421  657.6371
 422  756.0283
 423  542.1667
 424  231.122
 425  241.782
 426  662.6123
 427  885.7499
 428  1082.503
 429  616.8031
 430  344.7813
 431  -233.3143
 432  -335.6595
 433  89.57117
 434  23.08031
 435  674.2357
 436  465.5678
 437  2.059598
 438  51.98116
 439  4.39498
 440  -594.2502
 441  -909.0297
 442  -594.9379
 443  -334.7417
 444  147.048
 445  117.9815
 446  -104.0896
 447  -616.6471
 448  -788.1343
 449  -924.8991
 450  -668.3551
 451  -860.8278
 452  -945.8404
 453  -1092.578
 454  -1211.572
 455  -739.5085
 456  -782.6903
 457  -160.5898
 458  -149.7239
 459  -261.3188
 460  -363.0229
 461  -415.4389
 462  -527.7943
 463  -92.33794
 464  -381.0461
 465  -72.77042
 466  66.49319
 467  163.4384
 468  -527.6006
 469  -646.6802
 470  -744.2519
 471  -780.7947
 472  -766.2419
 473  -694.15
 474  -1220.961
 475  -1265.595
 476  -636.8767
 477  -703.7047
 478  -999.4612
 479  -940.6422
 480  -1342.874
 481  -1486.02
 482  -1513.54
 483  -1304.543
 484  -1153.784
 485  -1362.867
 486  -954.3788
 487  -1132.868
 488  -1234.735
 489  -1345.312
 490  -1259.81
 491  -445.3908
 492  -483.5347
 493  -555.1968
 494  -281.5696
 495  -857.7632
 496  -1132.54
 497  -1040.688
 498  -650.7195
 499  -591.3373
 500  -304.8177
 501  -0.3690815
 502  -677.1726
 503  -986.4968
 504  -655.3233
 505  -255.9038
 506  -193.8128
 507  135.5618
 508  -376.5606
 509  -221.4665
 510  -989.8384
 511  -780.1466
