# Input file       =  1210509309.128302_cleaned.dat
# Candidate        =  PSR_0332+5434
# Telescope        =  AR
# Epoch_topo       =  58254.524631114611
# Epoch_bary       =  N/A
# T_sample         =  0.002
# Data Folded      =  7340032
# Data Avg         =  0.166340192736243
# Data StdDev      =  4.11157834570846 
# Profile Bins     =  256
# Profile Avg      =  4769.86755552674 
# Profile StdDev   =  696.205683116987 
# Reduced chi-sqr  =  1.288
# Prob(Noise)      <  0.00129   (~3.0 sigma)
# P_topo (ms)      =  714.532439465096  +/- 0.000577
# P'_topo (s/s)    =  -0                +/- 3.05e-10
# P''_topo (s/s^2) =  0                 +/- 1.35e-13
# P_bary (ms)      =  N/A
# P'_bary (s/s)    =  N/A
# P''_bary (s/s^2) =  N/A
# P_orb (s)        =  N/A
# asin(i)/c (s)    =  N/A
# eccentricity     =  N/A
# w (rad)          =  N/A
# T_peri           =  N/A
######################################################
   0  5389.67
   1  4684.372
   2  5205.949
   3  4993.615
   4  4863.787
   5  3961.79
   6  4494.7
   7  5054.096
   8  4880.444
   9  4491.369
  10  4927.99
  11  5133.131
  12  5503.909
  13  5037.839
  14  4403.871
  15  4726.097
  16  5447.222
  17  5005.21
  18  5226.265
  19  5976.722
  20  5533.078
  21  5176.769
  22  5766.769
  23  5888.744
  24  5953.847
  25  5896.479
  26  5385.663
  27  5655.774
  28  4896.642
  29  5439.469
  30  5630.756
  31  5655.562
  32  5591.135
  33  6025.915
  34  5628.529
  35  5717.577
  36  5891.848
  37  5687.892
  38  5751.138
  39  5962.177
  40  4825.07
  41  5168.729
  42  4920.47
  43  5489.286
  44  5823.273
  45  4717.462
  46  4598.578
  47  4870.762
  48  4637.592
  49  5090.154
  50  4562.986
  51  4499.847
  52  4291.464
  53  4082.965
  54  4249.972
  55  3832.497
  56  4230.091
  57  4556.135
  58  4237.438
  59  4938.471
  60  5130.575
  61  5340.289
  62  5090.724
  63  5418.582
  64  5371.849
  65  5645.302
  66  4839.669
  67  4763.826
  68  5261.605
  69  4477.811
  70  4246.493
  71  4069.648
  72  4966.407
  73  3753.462
  74  3834.561
  75  4364.646
  76  3767.657
  77  4591.824
  78  4066.129
  79  3595.355
  80  4482.291
  81  3674.478
  82  4232.83
  83  3930.05
  84  4240.308
  85  3957.976
  86  4425.528
  87  4448.233
  88  3769.351
  89  3315.014
  90  3340.017
  91  3753.891
  92  4078.824
  93  3456.466
  94  3971.635
  95  4763.387
  96  4289.142
  97  5112.101
  98  4899.818
  99  4357.354
 100  5038.633
 101  5563.419
 102  5113.094
 103  4864.366
 104  4901.827
 105  5206.096
 106  5391.494
 107  4493.095
 108  4411.198
 109  5231.146
 110  5086.476
 111  4270.958
 112  4883.491
 113  5199.798
 114  4500.346
 115  4875.37
 116  4682.008
 117  4112.345
 118  4769.843
 119  4829.649
 120  4431.555
 121  5227.195
 122  4779.604
 123  4492.62
 124  4501.277
 125  4436.235
 126  4727.505
 127  4615.83
 128  5518.797
 129  5269.276
 130  4780.79
 131  5079.085
 132  5101.689
 133  4859.415
 134  4926.95
 135  4736.105
 136  3990.739
 137  4576.882
 138  4952.748
 139  5207.789
 140  4843.158
 141  5113.368
 142  4885.507
 143  4171.574
 144  4513.692
 145  4708.303
 146  5364.275
 147  5352.827
 148  6862.477
 149  8213.87
 150  8943.368
 151  6716.162
 152  4755.187
 153  4742.673
 154  5776.856
 155  4789.562
 156  4616.38
 157  4572.255
 158  4507.642
 159  4161.758
 160  3709.078
 161  3962.111
 162  4367.603
 163  4533.149
 164  4666.646
 165  4683.626
 166  4407.881
 167  4188.087
 168  4331.197
 169  4948.253
 170  5141.723
 171  5039.821
 172  4622.259
 173  4537.411
 174  4621.892
 175  4322.956
 176  3971.788
 177  4940.457
 178  4531.291
 179  4959.666
 180  5198.38
 181  4525.177
 182  4737.414
 183  4707.848
 184  4931.122
 185  4762.191
 186  4833.012
 187  4352.896
 188  5154.974
 189  5191.297
 190  4205.912
 191  4296.063
 192  4733.521
 193  5131.371
 194  4755.583
 195  4058.721
 196  5244.884
 197  4903.783
 198  4825.219
 199  5041.644
 200  5072.695
 201  4890.77
 202  4328.076
 203  5306.47
 204  4859.84
 205  4803.105
 206  4793.415
 207  4597.711
 208  4293.52
 209  3964.738
 210  4911.604
 211  4463.733
 212  4909.781
 213  4723.931
 214  4100.314
 215  4426.563
 216  4220.836
 217  3386.202
 218  3322.856
 219  3844.36
 220  4132.283
 221  4244.467
 222  3984.126
 223  3716.628
 224  4331.055
 225  4326.764
 226  3241.133
 227  3185.163
 228  3805.313
 229  4272.966
 230  4280.348
 231  4030.099
 232  4251.535
 233  4466.212
 234  5394.406
 235  5495.819
 236  4960.592
 237  4736.022
 238  5198.476
 239  4793.105
 240  5264.134
 241  4905.904
 242  4772.938
 243  5104.449
 244  4324.792
 245  4765.881
 246  4193.435
 247  4102.198
 248  5016.981
 249  5065.339
 250  4625.128
 251  5012.854
 252  4654.416
 253  4427.417
 254  5251.795
 255  4943.705
