# Input file       =  1210565923.116018_cleaned.dat
# Candidate        =  PSR_0332+5434
# Telescope        =  AR
# Epoch_topo       =  58255.179885602061
# Epoch_bary       =  N/A
# T_sample         =  0.002
# Data Folded      =  7143424
# Data Avg         =  0.144282248462849
# Data StdDev      =  5.55040671236084 
# Profile Bins     =  512
# Profile Avg      =  2013.0188268996  
# Profile StdDev   =  655.606184162717 
# Reduced chi-sqr  =  0.633
# Prob(Noise)      <  1   (~0.0 sigma)
# P_topo (ms)      =  714.531448254049  +/- 6.54e-05
# P'_topo (s/s)    =  -0                +/- 3.55e-11
# P''_topo (s/s^2) =  0                 +/- 1.61e-14
# P_bary (ms)      =  N/A
# P'_bary (s/s)    =  N/A
# P''_bary (s/s^2) =  N/A
# P_orb (s)        =  N/A
# asin(i)/c (s)    =  N/A
# eccentricity     =  N/A
# w (rad)          =  N/A
# T_peri           =  N/A
######################################################
   0  1876.949
   1  1585.235
   2  1763.066
   3  2068.275
   4  1872.829
   5  1782.369
   6  1610.917
   7  2009.574
   8  1782.125
   9  1913.129
  10  2096.59
  11  1983.464
  12  2056.696
  13  2033.408
  14  1803.923
  15  1757.701
  16  2520.085
  17  2091.362
  18  1937.125
  19  2040.881
  20  2184.845
  21  2186.096
  22  1521.423
  23  1635.905
  24  1981.187
  25  2050.809
  26  2059.101
  27  2329.543
  28  2696.14
  29  2409.99
  30  2043.165
  31  2005.932
  32  2132.573
  33  1994.575
  34  1791.783
  35  1842.823
  36  2307.144
  37  2418.977
  38  1879.063
  39  1736.499
  40  2108.837
  41  2184.339
  42  1986.675
  43  1712.932
  44  1870.403
  45  2223.241
  46  2190.805
  47  1839.711
  48  1855.127
  49  2071.321
  50  1991.917
  51  1769.489
  52  2240.675
  53  2157.947
  54  1786.703
  55  1554.071
  56  1901.966
  57  1901.067
  58  2181.121
  59  2158.527
  60  2266.508
  61  2794.687
  62  2359.977
  63  1958.454
  64  1309.036
  65  1439.054
  66  2074.35
  67  2232.089
  68  2074.142
  69  2115.146
  70  2309.393
  71  1303.623
  72  1514.071
  73  1685.688
  74  1836.572
  75  1816.417
  76  1807.351
  77  2018.496
  78  1737.207
  79  1933.601
  80  1359.31
  81  1651.438
  82  1448.186
  83  1482.556
  84  1525.854
  85  1342.536
  86  1735.992
  87  2032.703
  88  1779.091
  89  1438.999
  90  1556.489
  91  1843.357
  92  1679.634
  93  1955.444
  94  2056.559
  95  1821.158
  96  1565.644
  97  1688.089
  98  1887.433
  99  2495.091
 100  1985.105
 101  1580.067
 102  2092.487
 103  2146.423
 104  1779.861
 105  1505.362
 106  1852.868
 107  2076.2
 108  1658.94
 109  1693.599
 110  2130.991
 111  2727.526
 112  2166.151
 113  1638.517
 114  1437.725
 115  1939.085
 116  2062.504
 117  2010.881
 118  2381.569
 119  2412.828
 120  1937.778
 121  1421.755
 122  1867.761
 123  2170.479
 124  2094.652
 125  2285.367
 126  2466.1
 127  2385.134
 128  1829.885
 129  1661.166
 130  1505.995
 131  1818.566
 132  1949.532
 133  1653.27
 134  1786.327
 135  1944.77
 136  2125.853
 137  2133.574
 138  1824.745
 139  1854.47
 140  1514.462
 141  1856.78
 142  2039.209
 143  2521.983
 144  2752.626
 145  2390.752
 146  2360.679
 147  1797.859
 148  1976.08
 149  1875.853
 150  2059.319
 151  2522.546
 152  2349.914
 153  2339.375
 154  1392.722
 155  1769.734
 156  1975.635
 157  2321.334
 158  2494.443
 159  2484.112
 160  2633.831
 161  2110.894
 162  2033.689
 163  2049.722
 164  2664.733
 165  2640.756
 166  2450.582
 167  1910.489
 168  1930.909
 169  2235.838
 170  2064.208
 171  1845.425
 172  1987.454
 173  1995.264
 174  1900.671
 175  1584.219
 176  2031.184
 177  2782.827
 178  2941.436
 179  2386.334
 180  1822.354
 181  1856.216
 182  1985.63
 183  2203.68
 184  2127.219
 185  2555.898
 186  2389.495
 187  2072.703
 188  1923.986
 189  2207.38
 190  2518.179
 191  2431.797
 192  2040.234
 193  1845.19
 194  2302.215
 195  2041.398
 196  1988.636
 197  2065.396
 198  2585.541
 199  2557.952
 200  2044.968
 201  2132.478
 202  2460.603
 203  2018.057
 204  1914.567
 205  1952.65
 206  1964.448
 207  2031.004
 208  2336.699
 209  2399.487
 210  2200.162
 211  1621.326
 212  1610.459
 213  1837.743
 214  1817.672
 215  1932.55
 216  1723.437
 217  1784.979
 218  2378.292
 219  1862.869
 220  1841.232
 221  1808.624
 222  1845.073
 223  1721.932
 224  1707.377
 225  1846.035
 226  2012.235
 227  2566.379
 228  2298.114
 229  2198.519
 230  1669.834
 231  1811.669
 232  1630.302
 233  1537.372
 234  2123.346
 235  1976.328
 236  1592.693
 237  1004.786
 238  1352.994
 239  1497.682
 240  1589.622
 241  2161.549
 242  2555.319
 243  2497.63
 244  2297.982
 245  1920.872
 246  1475.688
 247  1793.328
 248  2116.207
 249  2046.729
 250  2207.689
 251  1966.57
 252  2107.491
 253  1951.952
 254  2170.975
 255  1864.457
 256  1758.536
 257  1932.901
 258  1983.714
 259  2105.632
 260  2319.124
 261  2582.715
 262  2351.206
 263  2166.174
 264  2189.375
 265  2456.003
 266  2263.689
 267  2170.475
 268  2301.083
 269  1929.749
 270  2127.473
 271  1845.97
 272  2023.563
 273  2377.335
 274  2678.343
 275  2760.856
 276  2400.069
 277  1962.736
 278  1749.844
 279  2034.907
 280  2265.577
 281  2876.831
 282  2511.585
 283  2471.102
 284  2098.221
 285  2153.333
 286  1907.288
 287  1683.359
 288  1971.971
 289  1633.588
 290  1595.058
 291  1962.357
 292  2267.311
 293  2531.752
 294  2831.012
 295  2734.32
 296  2550.262
 297  3226.607
 298  3536.87
 299  3812.922
 300  3945.067
 301  4289.898
 302  3278.943
 303  2324.415
 304  1938.959
 305  2252.409
 306  2317.543
 307  2358.729
 308  2634.67
 309  2447.419
 310  1929.782
 311  1629.247
 312  1601.739
 313  2339.33
 314  2930.501
 315  2674.496
 316  2330.583
 317  2758.636
 318  2281.63
 319  2034.688
 320  1465.017
 321  1503.117
 322  1943.844
 323  1896.459
 324  2132.048
 325  2712.14
 326  3046.028
 327  1990.319
 328  1770.35
 329  1474.417
 330  1713.973
 331  1700.051
 332  1810.563
 333  2045.585
 334  2130.042
 335  1968.086
 336  1538.167
 337  1790.509
 338  2099.864
 339  1955.375
 340  1730.307
 341  2275.385
 342  1882.986
 343  1768.764
 344  1981.432
 345  1743.919
 346  2022.195
 347  1924.709
 348  1637.939
 349  1751.437
 350  1811.451
 351  2186.395
 352  1655.241
 353  1687.597
 354  1822.13
 355  1506.314
 356  1287.492
 357  1679.946
 358  2258.375
 359  2423.363
 360  2112.39
 361  1290.148
 362  1710.301
 363  2324.597
 364  1852.909
 365  1589.874
 366  1639.643
 367  1859.462
 368  1689.891
 369  1404.877
 370  1403.963
 371  1927.364
 372  1823.82
 373  1583.426
 374  1619.274
 375  1720.683
 376  1950.185
 377  1678.458
 378  1966.239
 379  1887.936
 380  1944.03
 381  2061.808
 382  1944.234
 383  1931.553
 384  1681.654
 385  1287.984
 386  1505.684
 387  1600.69
 388  2234.259
 389  2372.955
 390  2338.617
 391  2285.437
 392  2145.081
 393  1678.874
 394  1525.78
 395  1599.8
 396  1299.545
 397  2043.202
 398  2120.837
 399  1939.6
 400  2106.061
 401  1450.029
 402  1229.859
 403  1376.634
 404  1829.893
 405  1842.71
 406  1867.382
 407  1797.846
 408  1807.061
 409  1661.121
 410  1516.565
 411  1937.436
 412  1708.276
 413  1953.582
 414  1886.487
 415  1833.81
 416  2332.199
 417  1862.563
 418  1903.333
 419  1591.42
 420  1886.542
 421  1635.516
 422  1920.5
 423  1878.172
 424  2012.32
 425  2107.096
 426  1831.82
 427  2048.12
 428  2186.367
 429  2464.76
 430  2215.107
 431  2037.734
 432  1826.485
 433  2035.469
 434  2139.165
 435  1905.476
 436  1847.187
 437  1814.644
 438  2338.317
 439  2267.177
 440  2024.555
 441  2085.497
 442  2252.297
 443  1951.302
 444  1559.862
 445  2137.9
 446  2277.193
 447  2286.881
 448  2190.392
 449  1923.522
 450  2051.525
 451  1518.755
 452  1451.141
 453  1948.524
 454  2077.927
 455  2172.844
 456  2705.15
 457  2866.464
 458  2138.795
 459  1835.836
 460  1817.066
 461  2111.686
 462  2247.821
 463  2342.058
 464  2194.143
 465  2511.151
 466  2474.287
 467  1675.825
 468  1343.866
 469  1601.76
 470  1712.609
 471  1751.653
 472  1827.849
 473  2429.705
 474  2368.677
 475  2180.62
 476  1804.064
 477  1778.343
 478  1972.889
 479  1288.494
 480  1441.21
 481  2045.251
 482  2397.702
 483  1912.846
 484  1541.901
 485  1682.122
 486  1999.357
 487  2218.553
 488  2246.699
 489  2375.043
 490  2028.118
 491  1923.586
 492  1969.591
 493  1884.229
 494  2272.948
 495  2195.973
 496  1944.528
 497  1877.216
 498  1953.975
 499  2245.041
 500  1924.325
 501  1665.214
 502  1825.691
 503  2107.464
 504  1794.888
 505  1736.529
 506  2303.75
 507  2445.462
 508  2531.456
 509  1854.95
 510  2131.004
 511  2018.515
