# Input file       =  1210752853.118745_cleaned.dat
# Candidate        =  PSR_0332+5434
# Telescope        =  AR
# Epoch_topo       =  58257.343427300293
# Epoch_bary       =  N/A
# T_sample         =  0.002
# Data Folded      =  7340032
# Data Avg         =  0.0144849221044234
# Data StdDev      =  1.0000173575572  
# Profile Bins     =  512
# Profile Avg      =  207.631366454368 
# Profile StdDev   =  119.735114649794 
# Reduced chi-sqr  =  1.263
# Prob(Noise)      <  4.72e-05   (~3.9 sigma)
# P_topo (ms)      =  714.529338325216  +/- 0.00046
# P'_topo (s/s)    =  -0                +/- 2.43e-10
# P''_topo (s/s^2) =  0                 +/- 1.07e-13
# P_bary (ms)      =  N/A
# P'_bary (s/s)    =  N/A
# P''_bary (s/s^2) =  N/A
# P_orb (s)        =  N/A
# asin(i)/c (s)    =  N/A
# eccentricity     =  N/A
# w (rad)          =  N/A
# T_peri           =  N/A
######################################################
   0  730.5335
   1  608.3998
   2  536.1613
   3  409.1382
   4  225.285
   5  212.6925
   6  225.8174
   7  126.8557
   8  163.6587
   9  254.6979
  10  318.8638
  11  314.154
  12  272.412
  13  324.5849
  14  301.8032
  15  317.5232
  16  379.9878
  17  388.215
  18  336.1009
  19  327.7005
  20  285.5896
  21  285.8393
  22  279.2641
  23  290.8791
  24  243.6664
  25  270.9782
  26  281.0652
  27  281.8414
  28  349.8186
  29  318.0644
  30  223.519
  31  253.0129
  32  253.5973
  33  149.1974
  34  162.6426
  35  229.6842
  36  278.115
  37  278.5593
  38  262.6526
  39  236.3853
  40  203.9166
  41  255.3938
  42  229.5677
  43  178.9451
  44  193.2467
  45  203.6874
  46  253.0266
  47  260.6787
  48  235.1634
  49  194.0138
  50  216.8648
  51  227.871
  52  175.7442
  53  234.8349
  54  340.7939
  55  301.0518
  56  256.5454
  57  273.8872
  58  318.2844
  59  262.4879
  60  263.1454
  61  255.0103
  62  196.7664
  63  192.299
  64  169.5403
  65  269.9397
  66  180.9212
  67  66.97965
  68  87.49662
  69  109.4498
  70  109.0909
  71  69.50057
  72  174.0018
  73  206.0515
  74  125.5238
  75  131.9798
  76  139.0891
  77  43.49698
  78  -34.84887
  79  0.8039897
  80  39.39162
  81  68.94087
  82  -58.48597
  83  5.14557
  84  -1.510889
  85  -17.31502
  86  27.81125
  87  22.19002
  88  111.8739
  89  102.8474
  90  40.7449
  91  52.2427
  92  47.22327
  93  61.44789
  94  11.19118
  95  94.88891
  96  57.6795
  97  40.91206
  98  97.62531
  99  76.58412
 100  95.43941
 101  116.6688
 102  120.1043
 103  161.0301
 104  212.2862
 105  174.5817
 106  149.1536
 107  104.3177
 108  134.209
 109  140.3624
 110  205.9647
 111  205.9405
 112  135.3194
 113  124.0644
 114  136.467
 115  135.0715
 116  231.3168
 117  214.2323
 118  76.22715
 119  2.623767
 120  47.65018
 121  109.5098
 122  117.462
 123  133.2101
 124  198.0043
 125  164.4467
 126  130.3622
 127  133.7563
 128  212.365
 129  197.7284
 130  155.4805
 131  129.6297
 132  186.7357
 133  199.8685
 134  245.6196
 135  204.5857
 136  218.7861
 137  165.9052
 138  186.524
 139  236.9522
 140  247.979
 141  173.0879
 142  250.2255
 143  194.7852
 144  270.0616
 145  285.3927
 146  319.4358
 147  297.6575
 148  268.3211
 149  296.3267
 150  302.0003
 151  213.5639
 152  218.3364
 153  251.9454
 154  192.8192
 155  234.9709
 156  265.4442
 157  250.3991
 158  227.6712
 159  202.2955
 160  204.4591
 161  206.3043
 162  231.7596
 163  262.4862
 164  284.5709
 165  205.6171
 166  182.2984
 167  172.1288
 168  221.4569
 169  144.7277
 170  148.896
 171  170.4105
 172  252.7087
 173  217.5223
 174  172.4909
 175  189.8755
 176  222.2396
 177  191.5625
 178  216.4939
 179  261.9185
 180  317.2694
 181  280.7096
 182  177.7105
 183  131.2633
 184  198.2959
 185  236.3395
 186  239.7494
 187  193.8624
 188  345.9697
 189  342.3108
 190  266.8172
 191  261.662
 192  274.5436
 193  286.172
 194  293.0668
 195  340.9751
 196  319.5912
 197  238.9287
 198  304.4077
 199  331.3714
 200  252.5409
 201  136.7853
 202  101.8979
 203  116.4185
 204  130.0888
 205  143.5934
 206  73.65706
 207  77.62939
 208  108.8642
 209  52.13681
 210  76.50272
 211  227.997
 212  213.2468
 213  190.5845
 214  146.4301
 215  181.0167
 216  118.6087
 217  147.8584
 218  149.2941
 219  219.6025
 220  170.5079
 221  168.0598
 222  182.4712
 223  257.2268
 224  275.0706
 225  320.0283
 226  258.0411
 227  214.7971
 228  218.1972
 229  222.6123
 230  249.518
 231  219.9296
 232  262.6204
 233  245.7223
 234  188.2363
 235  248.9343
 236  254.0187
 237  224.679
 238  214.9374
 239  125.2979
 240  162.2866
 241  224.6597
 242  133.6191
 243  123.0931
 244  215.4573
 245  124.6129
 246  35.91098
 247  124.6737
 248  153.0973
 249  116.6185
 250  129.1611
 251  144.8948
 252  126.5405
 253  62.8644
 254  139.6344
 255  172.9482
 256  198.6905
 257  15.42787
 258  2.352802
 259  93.4453
 260  90.2301
 261  77.3157
 262  95.79355
 263  147.366
 264  136.3297
 265  197.2532
 266  239.2104
 267  229.7293
 268  178.496
 269  185.9749
 270  253.046
 271  278.0483
 272  231.3332
 273  116.6672
 274  72.46944
 275  203.4003
 276  297.1097
 277  186.1867
 278  172.6803
 279  249.6023
 280  202.6997
 281  105.9824
 282  178.3954
 283  167.9067
 284  212.6341
 285  134.8138
 286  126.7898
 287  164.4266
 288  136.6012
 289  75.79073
 290  105.6454
 291  132.4048
 292  235.0596
 293  263.254
 294  201.2677
 295  209.3961
 296  135.9715
 297  109.3137
 298  128.2423
 299  176.2644
 300  159.1612
 301  201.2434
 302  188.5703
 303  200.4605
 304  248.1571
 305  313.345
 306  229.4366
 307  265.095
 308  294.0957
 309  256.9018
 310  195.4368
 311  234.1233
 312  288.4568
 313  333.1224
 314  312.0505
 315  231.7251
 316  281.6798
 317  303.7933
 318  251.5693
 319  229.2173
 320  233.863
 321  373.6848
 322  380.6337
 323  350.693
 324  302.9616
 325  269.5537
 326  229.5851
 327  229.7811
 328  267.7254
 329  224.6176
 330  214.1032
 331  240.4873
 332  276.7241
 333  184.759
 334  125.917
 335  242.8214
 336  211.8882
 337  143.5458
 338  161.7473
 339  67.29114
 340  20.8543
 341  126.3057
 342  229.0946
 343  217.8458
 344  228.1814
 345  232.3276
 346  141.5811
 347  179.9614
 348  63.53441
 349  101.9249
 350  102.3031
 351  175.1598
 352  124.609
 353  97.42439
 354  211.2598
 355  149.7256
 356  133.8152
 357  138.6982
 358  136.6192
 359  116.4485
 360  211.2797
 361  268.1159
 362  249.5894
 363  210.3702
 364  127.8267
 365  83.13727
 366  82.31283
 367  55.40339
 368  171.7076
 369  208.7679
 370  94.69415
 371  69.15063
 372  108.2565
 373  128.0152
 374  135.6041
 375  173.1197
 376  116.7518
 377  105.7947
 378  153.7521
 379  69.70695
 380  55.18976
 381  162.241
 382  155.1106
 383  89.94959
 384  181.5815
 385  125.0605
 386  136.6328
 387  240.6604
 388  273.7358
 389  285.3806
 390  195.0439
 391  218.7951
 392  213.7797
 393  300.4045
 394  367.446
 395  312.6252
 396  308.9482
 397  320.989
 398  301.725
 399  328.6976
 400  210.8919
 401  311.0069
 402  300.0703
 403  308.431
 404  249.105
 405  216.4496
 406  366.2253
 407  345.9417
 408  405.2397
 409  367.0907
 410  184.4691
 411  208.0371
 412  263.459
 413  243.4072
 414  332.7375
 415  294.6974
 416  270.2569
 417  266.8929
 418  255.4841
 419  320.6128
 420  232.7227
 421  364.0245
 422  277.021
 423  286.6027
 424  354.6758
 425  295.8936
 426  303.9755
 427  412.8178
 428  409.9527
 429  343.3142
 430  313.9346
 431  369.7121
 432  432.2786
 433  379.1416
 434  381.4443
 435  307.353
 436  472.1467
 437  428.892
 438  330.218
 439  317.2901
 440  375.2321
 441  319.2222
 442  223.3655
 443  235.7682
 444  312.0456
 445  316.916
 446  319.1505
 447  321.464
 448  318.639
 449  290.468
 450  196.8006
 451  258.5799
 452  319.6228
 453  214.5493
 454  186.9527
 455  329.1007
 456  305.5553
 457  268.614
 458  251.5946
 459  198.9849
 460  213.1407
 461  268.1692
 462  198.085
 463  192.3503
 464  157.028
 465  157.0437
 466  203.6592
 467  146.6187
 468  155.8502
 469  171.3604
 470  204.276
 471  152.9776
 472  89.58341
 473  156.603
 474  165.8269
 475  212.1741
 476  206.9319
 477  240.3488
 478  161.3277
 479  97.1885
 480  123.2557
 481  119.0759
 482  189.7766
 483  190.1927
 484  208.3627
 485  172.4344
 486  102.3766
 487  45.86141
 488  107.4374
 489  123.3011
 490  196.1822
 491  211.1076
 492  282.6104
 493  256.4449
 494  290.1526
 495  205.5593
 496  82.24976
 497  131.7772
 498  184.9832
 499  139.7128
 500  98.15666
 501  100.9634
 502  56.39392
 503  207.9529
 504  217.0675
 505  169.0782
 506  115.6053
 507  118.6706
 508  293.4111
 509  456.4386
 510  578.1865
 511  687.3375
