# Input file       =  1210479741.110695_cleaned.dat
# Candidate        =  PSR_0332+5434
# Telescope        =  AR
# Epoch_topo       =  58254.182408688597
# Epoch_bary       =  N/A
# T_sample         =  0.002
# Data Folded      =  7208960
# Data Avg         =  0.193554680888668
# Data StdDev      =  5.83876399577833 
# Profile Bins     =  512
# Profile Avg      =  2725.32311261505 
# Profile StdDev   =  692.822923391998 
# Reduced chi-sqr  =  0.605
# Prob(Noise)      <  1   (~0.0 sigma)
# P_topo (ms)      =  714.532424673353  +/- 8.91e-05
# P'_topo (s/s)    =  -0                +/- 4.79e-11
# P''_topo (s/s^2) =  0                 +/- 2.15e-14
# P_bary (ms)      =  N/A
# P'_bary (s/s)    =  N/A
# P''_bary (s/s^2) =  N/A
# P_orb (s)        =  N/A
# asin(i)/c (s)    =  N/A
# eccentricity     =  N/A
# w (rad)          =  N/A
# T_peri           =  N/A
######################################################
   0  3093.672
   1  3028.78
   2  2813.577
   3  2901.743
   4  2748.648
   5  2700.06
   6  2624.399
   7  2862.199
   8  2647.066
   9  2839.837
  10  2540.932
  11  2461.171
  12  2791.722
  13  2674.71
  14  2982.945
  15  2532.84
  16  3200.342
  17  2964.445
  18  2875.224
  19  3132.595
  20  2991.557
  21  3164.408
  22  2841.116
  23  2968.483
  24  2656.235
  25  3243.425
  26  3202.126
  27  2687.044
  28  2592.284
  29  2684.158
  30  3183.443
  31  2940.603
  32  3304.153
  33  3160.655
  34  2919.91
  35  2650.717
  36  3106.838
  37  3225.201
  38  3012.628
  39  3489.79
  40  3000.277
  41  2948.553
  42  2521.422
  43  3055.514
  44  2654.946
  45  2345.606
  46  2610.985
  47  3203.26
  48  3287.214
  49  2968.418
  50  3433.792
  51  3166.262
  52  2705.996
  53  3012.197
  54  3319.081
  55  3038.285
  56  2705.134
  57  3229.244
  58  3160.608
  59  2441.672
  60  2196.666
  61  2395.004
  62  2538.071
  63  2882.948
  64  2884.258
  65  3025.977
  66  2948.349
  67  3166.15
  68  2934.344
  69  2803.1
  70  2983.966
  71  2993.42
  72  3318.147
  73  2941.462
  74  2752.341
  75  2898.717
  76  2506.703
  77  2398.466
  78  2709.115
  79  2842.402
  80  2281.357
  81  2858.628
  82  2760.24
  83  3160.213
  84  2640.407
  85  2561.051
  86  2784.426
  87  2826.776
  88  2903.578
  89  2551.851
  90  2975.067
  91  2948.593
  92  3023.514
  93  2665.177
  94  2250.734
  95  3014.301
  96  2493.695
  97  2886.482
  98  2905.37
  99  3169.005
 100  2280.046
 101  2032.86
 102  2611.087
 103  2881.725
 104  3146.685
 105  2330.425
 106  2857.898
 107  2601.692
 108  2233.646
 109  2122.823
 110  2422.884
 111  2404.645
 112  2259.499
 113  2768.804
 114  2798.003
 115  3086.829
 116  2730.535
 117  2930.3
 118  2603.249
 119  2496.702
 120  2562.307
 121  2429.579
 122  3032.953
 123  2840.055
 124  2827.695
 125  2837.042
 126  2358.481
 127  2485.947
 128  2449.922
 129  2555.606
 130  2782.847
 131  2655.48
 132  2865.773
 133  2631.436
 134  2280.771
 135  2392.62
 136  2469.006
 137  2628.94
 138  2479.558
 139  2459.569
 140  2777.548
 141  2642.96
 142  2375.939
 143  2464.808
 144  2317.896
 145  2496.519
 146  2712.47
 147  2686.433
 148  3199.364
 149  2734.86
 150  2494.295
 151  2498.979
 152  2580.333
 153  2509.134
 154  2448.026
 155  2627.542
 156  2565.548
 157  2194.628
 158  2138.807
 159  1786.924
 160  2018.257
 161  2098.336
 162  2676.951
 163  2631.199
 164  3137.214
 165  2955.213
 166  3347.662
 167  2851.388
 168  2307.662
 169  2306.571
 170  2453.843
 171  2876.137
 172  2665.051
 173  2820.563
 174  2629.304
 175  2740.423
 176  2175.083
 177  2174.781
 178  3351.107
 179  2244.234
 180  2368.02
 181  2656.199
 182  3230.304
 183  2782.937
 184  2429.939
 185  2533.656
 186  2638.923
 187  3174.125
 188  2921.489
 189  2994.26
 190  2922.615
 191  3258.796
 192  2917.777
 193  3082.472
 194  4246.381
 195  4722.372
 196  5338.601
 197  5235.348
 198  5173.879
 199  4005.349
 200  3163.832
 201  3115.903
 202  2945.447
 203  2628.555
 204  2336.513
 205  2753.343
 206  2611.604
 207  2767.868
 208  2654.041
 209  2203.514
 210  2756.578
 211  2485.327
 212  2864.684
 213  3092.575
 214  2879.896
 215  2941.43
 216  2547.593
 217  2682.081
 218  2540.441
 219  2698.19
 220  2898.862
 221  2935.161
 222  2315.132
 223  2733.326
 224  2270.607
 225  1696.363
 226  1893.647
 227  2366.664
 228  2639.588
 229  2968.298
 230  2587.385
 231  2888.301
 232  2531.058
 233  2288.938
 234  2600.665
 235  2721.607
 236  2640.224
 237  2405.668
 238  2793.539
 239  2778.223
 240  2647.044
 241  2487.901
 242  2070.247
 243  2190.217
 244  2375.237
 245  2768.822
 246  2667.099
 247  3143.262
 248  2520.853
 249  2875.959
 250  2536.01
 251  2359.496
 252  2687.686
 253  2830.729
 254  3135.029
 255  2704.188
 256  2755.905
 257  2307.053
 258  2369.143
 259  2596.673
 260  2195.816
 261  2437.998
 262  2125.527
 263  2804.294
 264  2541.221
 265  2953.924
 266  2675.969
 267  2533.43
 268  2433.002
 269  2398.063
 270  2589.434
 271  2441.646
 272  2749.662
 273  2656.389
 274  2820.277
 275  2732.881
 276  2170.715
 277  2573.389
 278  2476.448
 279  2860.728
 280  2754.681
 281  3015.84
 282  2611.385
 283  2678.152
 284  3171.137
 285  3009.236
 286  3239.947
 287  2882.394
 288  3189.984
 289  2834.734
 290  2672.847
 291  2455.578
 292  2445.908
 293  2579.915
 294  2786.285
 295  3417.866
 296  2789.052
 297  3171.563
 298  3268.52
 299  3028.041
 300  2397.833
 301  2860.364
 302  2850.786
 303  3053.214
 304  3212.263
 305  3162.524
 306  3140.248
 307  2639.269
 308  2656.321
 309  2922.16
 310  2839.411
 311  2689.099
 312  2561.067
 313  2673.925
 314  3019.281
 315  2883.39
 316  2764.386
 317  2874.535
 318  2805.915
 319  2923.733
 320  2640.294
 321  2857.455
 322  2661.554
 323  2813.678
 324  2539.047
 325  2545.378
 326  2913.648
 327  2630.791
 328  3111.613
 329  3236.387
 330  3076.515
 331  2732.531
 332  2872.051
 333  2663.59
 334  2976.398
 335  3277.657
 336  2964.724
 337  2997.702
 338  2625.559
 339  2866.007
 340  2270.867
 341  1610.309
 342  2455.007
 343  2519.609
 344  2691.462
 345  2198.502
 346  2892.188
 347  2831.146
 348  2891.668
 349  2835.893
 350  2560.749
 351  2552.515
 352  2302.338
 353  2973.735
 354  2802.003
 355  2855.081
 356  2600.17
 357  2677.392
 358  2530.63
 359  2413.263
 360  2957.639
 361  2744.008
 362  2930.778
 363  2464.768
 364  2528.105
 365  1919.635
 366  2079.059
 367  2736.915
 368  3098.905
 369  3151.347
 370  2805.985
 371  2792.667
 372  2274.335
 373  1906.771
 374  2137.048
 375  1785.448
 376  2052.118
 377  2369.894
 378  2762.373
 379  2956.986
 380  2873.556
 381  2514.979
 382  2402.368
 383  2180.416
 384  2087.988
 385  2605.894
 386  2566.49
 387  3014.035
 388  2772.103
 389  2726.453
 390  2719.522
 391  2232.145
 392  2588.501
 393  2972.749
 394  2808.978
 395  2928.628
 396  3079.565
 397  3080.394
 398  2594.213
 399  2327.102
 400  2846.998
 401  3113.126
 402  3186.64
 403  2109.582
 404  2077.991
 405  2438.096
 406  2197.396
 407  2281.563
 408  2708.141
 409  2850.798
 410  2078.425
 411  2395.153
 412  2351.197
 413  2755.423
 414  2553.492
 415  2669.247
 416  2559.33
 417  2481.181
 418  2484.467
 419  2476.702
 420  2774.929
 421  2748.991
 422  2598.447
 423  2628.021
 424  2174.101
 425  2722.078
 426  2314.465
 427  2721.098
 428  2759.159
 429  3198.486
 430  2873.152
 431  2346.004
 432  2697.966
 433  2961.24
 434  3410.013
 435  3335.089
 436  3145.553
 437  2472.591
 438  2609.127
 439  2807.641
 440  2770.969
 441  2673.783
 442  2637.893
 443  2911.976
 444  2742.756
 445  3138.934
 446  2719.814
 447  2771.168
 448  2611.062
 449  2597.765
 450  2672.204
 451  2671.51
 452  2698.852
 453  2686.849
 454  2879.987
 455  2983.912
 456  2684.025
 457  2544.585
 458  2003.427
 459  2764.951
 460  3192.78
 461  3128.286
 462  2661.399
 463  3062.443
 464  2570.438
 465  2650.367
 466  2699.317
 467  2327.299
 468  2591.336
 469  2954.902
 470  3133.928
 471  2953.929
 472  2384.296
 473  2280.981
 474  2161.722
 475  2212.947
 476  2606.614
 477  2692.011
 478  2926.593
 479  3021.011
 480  3033.202
 481  2775.286
 482  2468.648
 483  2525.41
 484  2325.71
 485  2739.282
 486  2587.598
 487  2253.417
 488  2671.774
 489  2320.207
 490  2302.908
 491  2218.168
 492  2757.118
 493  2841.649
 494  2989.844
 495  2783.691
 496  2954.744
 497  2437.373
 498  2557.202
 499  3156.613
 500  3104.424
 501  2366.576
 502  2116.958
 503  2440.741
 504  2251.026
 505  2109.751
 506  2216.603
 507  2295.675
 508  2910.963
 509  2909.697
 510  3223.083
 511  2671.596
