# Input file       =  1210423124.123347_cleaned.dat
# Candidate        =  PSR_0332+5434
# Telescope        =  AR
# Epoch_topo       =  58253.527119483180
# Epoch_bary       =  N/A
# T_sample         =  0.002
# Data Folded      =  7340032
# Data Avg         =  0.247315352145442
# Data StdDev      =  4.67749780622043 
# Profile Bins     =  256
# Profile Avg      =  7091.85396221279 
# Profile StdDev   =  792.031741011804 
# Reduced chi-sqr  =  1.079
# Prob(Noise)      <  0.184   (~0.9 sigma)
# P_topo (ms)      =  714.533413581451  +/- 0.000441
# P'_topo (s/s)    =  -0                +/- 2.33e-10
# P''_topo (s/s^2) =  0                 +/- 1.03e-13
# P_bary (ms)      =  N/A
# P'_bary (s/s)    =  N/A
# P''_bary (s/s^2) =  N/A
# P_orb (s)        =  N/A
# asin(i)/c (s)    =  N/A
# eccentricity     =  N/A
# w (rad)          =  N/A
# T_peri           =  N/A
######################################################
   0  7728.154
   1  7342.642
   2  7483.598
   3  7282.94
   4  6869.389
   5  7367.752
   6  7897.29
   7  7427.198
   8  6252.289
   9  6972.903
  10  8187.82
  11  7099.045
  12  7394.758
  13  8105.302
  14  7708.742
  15  7525.068
  16  7001.357
  17  7037.054
  18  7127.316
  19  6699.663
  20  6450.713
  21  7150.87
  22  6145.611
  23  6323.638
  24  6435.16
  25  6378.218
  26  6278.207
  27  6714.894
  28  6431.503
  29  6266.065
  30  7239.665
  31  7549.254
  32  6873.756
  33  6511.438
  34  7956.296
  35  6910.648
  36  6670.001
  37  6726.001
  38  6882.537
  39  5880.663
  40  6593.588
  41  6072.615
  42  7397.475
  43  6878.201
  44  6921.925
  45  7842.048
  46  6584.887
  47  6181.6
  48  8174.345
  49  7665.596
  50  7778.383
  51  7486.768
  52  6750.124
  53  7041.146
  54  6862.747
  55  6966.763
  56  6457.568
  57  6219.84
  58  6223.197
  59  7205.844
  60  7225.112
  61  7114.124
  62  6886.771
  63  6039.729
  64  6088.328
  65  5724.293
  66  6932.551
  67  6353.258
  68  6551.831
  69  6809.327
  70  6233.688
  71  7220
  72  6850.641
  73  7139.139
  74  7888.98
  75  7922.336
  76  7124.58
  77  7323.34
  78  7020.664
  79  7398.72
  80  7289.155
  81  7461.256
  82  6572.122
  83  6412.786
  84  6794.013
  85  7262.101
  86  7032.31
  87  7127.616
  88  6958.463
  89  6685.883
  90  7012.309
  91  6625.755
  92  6654.277
  93  6976.184
  94  7321.867
  95  6873.342
  96  7074.375
  97  7151.213
  98  7229.576
  99  6779.985
 100  5598.217
 101  6676.696
 102  6557.388
 103  6634.128
 104  6499.361
 105  6612.211
 106  7082.708
 107  7413.848
 108  7384.945
 109  7723.215
 110  7669.413
 111  7072.396
 112  8082.749
 113  7697.127
 114  7468.586
 115  7922.604
 116  7714.322
 117  7565.312
 118  7792.332
 119  7304.215
 120  8287.285
 121  7637.658
 122  8327.474
 123  8135.256
 124  7843.59
 125  7836.216
 126  7814.296
 127  7254.142
 128  6388.449
 129  6442.923
 130  6175.481
 131  6286.263
 132  6908.202
 133  7105.815
 134  6978.515
 135  7597.349
 136  7566.269
 137  6973.229
 138  6834.45
 139  6992.266
 140  7754.977
 141  7240.51
 142  6789.9
 143  7367.672
 144  7074.506
 145  7448.802
 146  6992.788
 147  7842.588
 148  8564.923
 149  10438.74
 150  11629.06
 151  10039.34
 152  7477.408
 153  7216.188
 154  7180.457
 155  7395.055
 156  6532.269
 157  7153.623
 158  7403.57
 159  6776.521
 160  6514.33
 161  7570.039
 162  7696.581
 163  6861.319
 164  6695.212
 165  7162.346
 166  7534.993
 167  6462.795
 168  6475.557
 169  7267.919
 170  7446.638
 171  6951.695
 172  6676.204
 173  7117.937
 174  6248.765
 175  5775.88
 176  6914.928
 177  6796.735
 178  7233.216
 179  7380.293
 180  8044.912
 181  7850.525
 182  7078.36
 183  7504.66
 184  7809.971
 185  7316.465
 186  7712.773
 187  6776.038
 188  5685.379
 189  6333.9
 190  6553.513
 191  6151.943
 192  6555.214
 193  6569.495
 194  6484.776
 195  7635.914
 196  6567.795
 197  6028.889
 198  7031.054
 199  6118.346
 200  6300.122
 201  7140.486
 202  5935.605
 203  6735.995
 204  6891.956
 205  6437.22
 206  6674.387
 207  6664.305
 208  7085.502
 209  6167.716
 210  6564.663
 211  7300.488
 212  6530.541
 213  6349.501
 214  6710.235
 215  7340.245
 216  6951.304
 217  7159.495
 218  5795.849
 219  6801.408
 220  7433.22
 221  7395.033
 222  6526.105
 223  7494.818
 224  7519.179
 225  8098.485
 226  7846.897
 227  7142.2
 228  7053.868
 229  7286.895
 230  7086.52
 231  5789.39
 232  6806.704
 233  7090.948
 234  6343.607
 235  6582.996
 236  6729.784
 237  5724.535
 238  6789.475
 239  7077.119
 240  7095.136
 241  7732.359
 242  7822.197
 243  8210.719
 244  7742.374
 245  8543.956
 246  8060.499
 247  7904.249
 248  7971.826
 249  8137.039
 250  7914.734
 251  7064.794
 252  7210.196
 253  7558.865
 254  6453.157
 255  7236.535
