# Input file       =  1210135029.122591_cleaned.dat
# Candidate        =  PSR_0332+5434
# Telescope        =  AR
# Epoch_topo       =  58250.192686604059
# Epoch_bary       =  N/A
# T_sample         =  0.002
# Data Folded      =  7208960
# Data Avg         =  0.431613044539171
# Data StdDev      =  8.19373471469733 
# Profile Bins     =  1024
# Profile Avg      =  3038.56254004969 
# Profile StdDev   =  687.492917466679 
# Reduced chi-sqr  =  0.862
# Prob(Noise)      <  0.999   (~0.0 sigma)
# P_topo (ms)      =  714.536297480214  +/- 2.48e-05
# P'_topo (s/s)    =  -0                +/- 1.33e-11
# P''_topo (s/s^2) =  0                 +/- 5.99e-15
# P_bary (ms)      =  N/A
# P'_bary (s/s)    =  N/A
# P''_bary (s/s^2) =  N/A
# P_orb (s)        =  N/A
# asin(i)/c (s)    =  N/A
# eccentricity     =  N/A
# w (rad)          =  N/A
# T_peri           =  N/A
######################################################
   0  3374.161
   1  3340.214
   2  3278.92
   3  3153.68
   4  3056.455
   5  3033.584
   6  2914.939
   7  3009.538
   8  2965.865
   9  3038.046
  10  3147.533
  11  3188.158
  12  3186.415
  13  3045.095
  14  3065.322
  15  3138.121
  16  3299.018
  17  3242.969
  18  3092.565
  19  2848.931
  20  2881.771
  21  2790.48
  22  2737.942
  23  2582.199
  24  2713.769
  25  2856.694
  26  3009.613
  27  2873.441
  28  2800.168
  29  2775.271
  30  2993.658
  31  2990.131
  32  3132.085
  33  3234.955
  34  3356.437
  35  3149.728
  36  2820.707
  37  2606.241
  38  2592.594
  39  2828.824
  40  2886.689
  41  2907.882
  42  2800.61
  43  3018.91
  44  3172.668
  45  3294.795
  46  3223.173
  47  3179.532
  48  3116.106
  49  3024.537
  50  3030.138
  51  3018.923
  52  2920.881
  53  2911.05
  54  2886.612
  55  2895.323
  56  2758.56
  57  2960.472
  58  2974.399
  59  2938.341
  60  2832.95
  61  3276.833
  62  3538.417
  63  3368.272
  64  3117.314
  65  3045.719
  66  3109.902
  67  3033.926
  68  3024.629
  69  2879.428
  70  2693.629
  71  2652.615
  72  3020.068
  73  2931.944
  74  2937.048
  75  3060.837
  76  3512.714
  77  3536.643
  78  3390.101
  79  3393.833
  80  3605.389
  81  3750.749
  82  3614.354
  83  3426.866
  84  2998.856
  85  2820.361
  86  2793.033
  87  2730.829
  88  2720.918
  89  2524.373
  90  2623.566
  91  2721.826
  92  2913.059
  93  3325.68
  94  3412.724
  95  3521.525
  96  3733.794
  97  3821.686
  98  3797.031
  99  3536.224
 100  3459.946
 101  3323.982
 102  3114.241
 103  2892.954
 104  2847.788
 105  2744.908
 106  2556.165
 107  2448.315
 108  2766.287
 109  2953.759
 110  3005.735
 111  3180.257
 112  3398.519
 113  3523.409
 114  3427.788
 115  3424.54
 116  3527.709
 117  3306.935
 118  3071.672
 119  2778.591
 120  2848.744
 121  2749.058
 122  2612.257
 123  2412.667
 124  2384.761
 125  2591.583
 126  2877.603
 127  3181.519
 128  3346.564
 129  3431.929
 130  3629.579
 131  3576.211
 132  3471.372
 133  3272.143
 134  3170.754
 135  3033.318
 136  2900.49
 137  2714.908
 138  2608.139
 139  2651.789
 140  2854.508
 141  2957.118
 142  2838.995
 143  2949.329
 144  3084.771
 145  3409.648
 146  3560.85
 147  3546.269
 148  3456.521
 149  3326.588
 150  3293.877
 151  3266.509
 152  2971.385
 153  2705.31
 154  2372.718
 155  2369.867
 156  2399.06
 157  2626.501
 158  2963.12
 159  2905.969
 160  2893.468
 161  3092.675
 162  3280.607
 163  3491.209
 164  3630.269
 165  3710.636
 166  3521.945
 167  3150.911
 168  3108.78
 169  2986.815
 170  2886.71
 171  2779.353
 172  2858.721
 173  2886.749
 174  2715.973
 175  2603.09
 176  2872.015
 177  2956.699
 178  3245.704
 179  3302.892
 180  3406.83
 181  3522.356
 182  3494.797
 183  3337.144
 184  2988.453
 185  2712.114
 186  2745.224
 187  2750.46
 188  2757.487
 189  2794.347
 190  2813.281
 191  2902.255
 192  2684.901
 193  2731.777
 194  2900.697
 195  3053.708
 196  2992.523
 197  2891.381
 198  2916.985
 199  2939.973
 200  2922.876
 201  2988.73
 202  2891.761
 203  2842.139
 204  2755.679
 205  2839.611
 206  2791.25
 207  2809.51
 208  2792.293
 209  2972.327
 210  3006.651
 211  3128.089
 212  3249.699
 213  3233.936
 214  3060.414
 215  2958.023
 216  3003.618
 217  2900.467
 218  2876.297
 219  2833.272
 220  2763.479
 221  2443.591
 222  2340.904
 223  2700.65
 224  2929.859
 225  2883.073
 226  2870.091
 227  3090.36
 228  3324.103
 229  3372.732
 230  3303.379
 231  3199.493
 232  3027.961
 233  2716.163
 234  2755.65
 235  2695.823
 236  2728.682
 237  2736.851
 238  2851.943
 239  2889.264
 240  2770.945
 241  3096.581
 242  3433.477
 243  3572.356
 244  3534.944
 245  3422.463
 246  3361.204
 247  3274.569
 248  3213.726
 249  3037.972
 250  2734.732
 251  2513.347
 252  2436.542
 253  2336.688
 254  2295.015
 255  2412.081
 256  2624.796
 257  2638.686
 258  2776.056
 259  3130.252
 260  3468.831
 261  3411.282
 262  3347.102
 263  3243.245
 264  3272.1
 265  3084.216
 266  3008.406
 267  2769.831
 268  2436.834
 269  2180.862
 270  2329.475
 271  2382.703
 272  2467.202
 273  2596.505
 274  3056.876
 275  3175.57
 276  3158.348
 277  3150.094
 278  3344.744
 279  3392.089
 280  3500.281
 281  3513.434
 282  3229.517
 283  2751.941
 284  2558.811
 285  2486.741
 286  2449.084
 287  2400.362
 288  2568.009
 289  2483.232
 290  2280.191
 291  2676.315
 292  3051.694
 293  3198.903
 294  3096.638
 295  3273.605
 296  3415.403
 297  3277.356
 298  3158.759
 299  3428.421
 300  3248.733
 301  3121.107
 302  2820.426
 303  2838.13
 304  2492.605
 305  2414.242
 306  2739.295
 307  2989.623
 308  3109.745
 309  3302.261
 310  3215.829
 311  3372.458
 312  3408.845
 313  3675.295
 314  3588.337
 315  3334.771
 316  3353.394
 317  3224.092
 318  2786.303
 319  2545.264
 320  2456.623
 321  2550.123
 322  2492.471
 323  2738.532
 324  3128.724
 325  3114.921
 326  3038.711
 327  3213.135
 328  3487.084
 329  3634.685
 330  3497.246
 331  3542.465
 332  3326.364
 333  3000.127
 334  2885.146
 335  2829.828
 336  2777.708
 337  2573.971
 338  2704.832
 339  2863.785
 340  2787.133
 341  2896.951
 342  3177.58
 343  3292
 344  3262.248
 345  3191.781
 346  3474.127
 347  3488.094
 348  3222.081
 349  3147.893
 350  3034.652
 351  3103.301
 352  2804.721
 353  2762.758
 354  2548.88
 355  2487.944
 356  2575.55
 357  2757.135
 358  2775.627
 359  2857.428
 360  2963.902
 361  3267.167
 362  3301.793
 363  3423.074
 364  3398.481
 365  3280.559
 366  3394.813
 367  3196.999
 368  2949.947
 369  2585.362
 370  2710.899
 371  2921.104
 372  2918.99
 373  2907.131
 374  2973.951
 375  3233.974
 376  3294.214
 377  3179.265
 378  2952.223
 379  3005.671
 380  3053.635
 381  2976.263
 382  2837.547
 383  2607.472
 384  2546.294
 385  2372.571
 386  2488.162
 387  2418.911
 388  2628.134
 389  2864.695
 390  2903.983
 391  2735.889
 392  2948.813
 393  3360.342
 394  3535.442
 395  3375.143
 396  3245.668
 397  3102.208
 398  2981.742
 399  2883.047
 400  2840.207
 401  2653.676
 402  2636.715
 403  2857.481
 404  2999.548
 405  2821.158
 406  2626.895
 407  2969.735
 408  3444.789
 409  3707.351
 410  3576.775
 411  3448.854
 412  3285.257
 413  3170.225
 414  3172.63
 415  3053.701
 416  2822.032
 417  2635.985
 418  2568.46
 419  2542.278
 420  2628.925
 421  2918.184
 422  3123.68
 423  3093.991
 424  3172.397
 425  3434.071
 426  3630.373
 427  3428.152
 428  3024.427
 429  2927.486
 430  2891.003
 431  2843.382
 432  2687.241
 433  2430.101
 434  2317.512
 435  2438.115
 436  2815.119
 437  2828.901
 438  2653.776
 439  2715.663
 440  3140.287
 441  3359.202
 442  3395.092
 443  3472.672
 444  3539.991
 445  3380.94
 446  3140.181
 447  3177.017
 448  3029.186
 449  2922.62
 450  2710.835
 451  2633.191
 452  2346.913
 453  2346.459
 454  2601.276
 455  2757.762
 456  2710.69
 457  2851.286
 458  3114.728
 459  3197.003
 460  3388.452
 461  3416.143
 462  3672.604
 463  3251.133
 464  3037.753
 465  2666.089
 466  2457.341
 467  2237.692
 468  2129.137
 469  2363.992
 470  2405.228
 471  2595.718
 472  3007.192
 473  3251.763
 474  3389.145
 475  3469.787
 476  3633.732
 477  3763.987
 478  3469.795
 479  3491.849
 480  3485.764
 481  3184.929
 482  2927.379
 483  2703.978
 484  2801.296
 485  2591.613
 486  2574.226
 487  2735.678
 488  2826.92
 489  2974.286
 490  3052.275
 491  3104.977
 492  2958.502
 493  3125.25
 494  3500.29
 495  3750.66
 496  3538.74
 497  3377.936
 498  3169.677
 499  2930.357
 500  2664.449
 501  2697.35
 502  2643.132
 503  2616.207
 504  2760.239
 505  3046.922
 506  3086.688
 507  3040.507
 508  3132.191
 509  3372.953
 510  3516.795
 511  3413.703
 512  3457.577
 513  3339.751
 514  3335.634
 515  3162.15
 516  2947.059
 517  2827.441
 518  2787.151
 519  2816.379
 520  2648.283
 521  2524.731
 522  2759.35
 523  3015.254
 524  3084.97
 525  3100.452
 526  3155.922
 527  3506.503
 528  3433.1
 529  3429.116
 530  3171.786
 531  3102.059
 532  3005.694
 533  3122.761
 534  3083.408
 535  2902.675
 536  2816.386
 537  2980.697
 538  3158.147
 539  3047.962
 540  3118.636
 541  3253.329
 542  3400.325
 543  3409.602
 544  3446.073
 545  3427.417
 546  3190.503
 547  3060.89
 548  2995.223
 549  2930.909
 550  2576.671
 551  2465.204
 552  2467.484
 553  2547.229
 554  2706.158
 555  3134.227
 556  3218.46
 557  3231.876
 558  3186.193
 559  3483.265
 560  3421.414
 561  3429.079
 562  3391.32
 563  3264.675
 564  3198.402
 565  3073.618
 566  2962.868
 567  2746.964
 568  2688.747
 569  2895.481
 570  3029.393
 571  3081.724
 572  3127.828
 573  3447.429
 574  3627.206
 575  3733.597
 576  3622.02
 577  3547.763
 578  3349.275
 579  3193.918
 580  3163.04
 581  2911.193
 582  2861.424
 583  2718.76
 584  2791.832
 585  2622.194
 586  2562.902
 587  2831.337
 588  3154.386
 589  3192.836
 590  3273.922
 591  3493.398
 592  3794.615
 593  3764.541
 594  3687.76
 595  3707.328
 596  3922.65
 597  4071.705
 598  3967.255
 599  3798.699
 600  3683.167
 601  3857.13
 602  4056.968
 603  3933.654
 604  3523.687
 605  3492.331
 606  3504.302
 607  3731.68
 608  3649.731
 609  3466.903
 610  3462.711
 611  3227.058
 612  3217.336
 613  3114.357
 614  2989.887
 615  2861.56
 616  2797.149
 617  2563.608
 618  2297.808
 619  2270.427
 620  2657.918
 621  2935.523
 622  2899.16
 623  3076.83
 624  3296.203
 625  3713.512
 626  3715.566
 627  3651.08
 628  3571.881
 629  3252.152
 630  2973.81
 631  2567.222
 632  2494.741
 633  2374.907
 634  2449.942
 635  2543.729
 636  2500.707
 637  2752.879
 638  3244.78
 639  3483.232
 640  3502.35
 641  3371.362
 642  3551.805
 643  3688.644
 644  3539.297
 645  3485.047
 646  3163.628
 647  2938.302
 648  2619.788
 649  2498.419
 650  2518.202
 651  2569.344
 652  2854.908
 653  2875.516
 654  2743.861
 655  2940.892
 656  3256.183
 657  3577.85
 658  3269.557
 659  3234.593
 660  3439.518
 661  3549.76
 662  3456.374
 663  3214.849
 664  2890.762
 665  2883.218
 666  2952.159
 667  3121.495
 668  2907.557
 669  2615.761
 670  2757.779
 671  2891.068
 672  2972.753
 673  2979.974
 674  3042.857
 675  3427.902
 676  3363.759
 677  3468.894
 678  3397.24
 679  3235.747
 680  3209.179
 681  3098.516
 682  2939.748
 683  2693.567
 684  2655.116
 685  2825.869
 686  2602.537
 687  2526.783
 688  2863.163
 689  3099.098
 690  3293.282
 691  3418.585
 692  3654.107
 693  3628.153
 694  3384.903
 695  3284.042
 696  3087.334
 697  2986.592
 698  2758.86
 699  2850.18
 700  2616.932
 701  2600.787
 702  2652.36
 703  3189.234
 704  3583.228
 705  3728.802
 706  3730.156
 707  3672.496
 708  3475.384
 709  3399.238
 710  3258.772
 711  3365.295
 712  3206.524
 713  3268.532
 714  3007.031
 715  2816.39
 716  2500.82
 717  2700.44
 718  2644.756
 719  2616.26
 720  2753.165
 721  3291.743
 722  3477.844
 723  3303.14
 724  3208.603
 725  3398.749
 726  3453.182
 727  3429.858
 728  3275.299
 729  3021.419
 730  2720.617
 731  2821.372
 732  3009.116
 733  2820.167
 734  2470.976
 735  2495.187
 736  2777.523
 737  2914.453
 738  3086.735
 739  3374.68
 740  3659.655
 741  3583.259
 742  3541.901
 743  3374.04
 744  3279.817
 745  3230.602
 746  3118.963
 747  2712.142
 748  2490.389
 749  2531.964
 750  2793.808
 751  2755.182
 752  2773.418
 753  3210.456
 754  3287.42
 755  3262.45
 756  3292.539
 757  3491.933
 758  3475.512
 759  3298.76
 760  3151.739
 761  3046.736
 762  2937.164
 763  2840.168
 764  2594.541
 765  2474.586
 766  2485.409
 767  2763.58
 768  3003.792
 769  3100.094
 770  3116.766
 771  3217.563
 772  3414.833
 773  3596.167
 774  3658.409
 775  3586.599
 776  3327.836
 777  3031.129
 778  2848.108
 779  2785.35
 780  2758.415
 781  2731.701
 782  2829.561
 783  2710.931
 784  2602.711
 785  2620.932
 786  2967.403
 787  2936.15
 788  2950.124
 789  3024.384
 790  3475.002
 791  3582.317
 792  3565.729
 793  3402.362
 794  3315.102
 795  3126.652
 796  3006.674
 797  2679.732
 798  2519.043
 799  2422.856
 800  2623.776
 801  2734.208
 802  2700.073
 803  3021.784
 804  3189.638
 805  3480.81
 806  3533.226
 807  3514.528
 808  3597.161
 809  3559.279
 810  3583.572
 811  3393.579
 812  3063.612
 813  2865.934
 814  2775.328
 815  2776.821
 816  2579.951
 817  2510.137
 818  2571.286
 819  2756.945
 820  2622.225
 821  2805.422
 822  2893.271
 823  3282.155
 824  3355.259
 825  3429.6
 826  3336.027
 827  3255.211
 828  3296.389
 829  3163.158
 830  2958.99
 831  2852.767
 832  2943.16
 833  3040.584
 834  2781.413
 835  2577.203
 836  2904.328
 837  3160.855
 838  3515.657
 839  3535.641
 840  3643.562
 841  3619.79
 842  3462.822
 843  3344.055
 844  3168.706
 845  2925.829
 846  2880.073
 847  2760.627
 848  2943.999
 849  2820.015
 850  2760.702
 851  2762.25
 852  2783.053
 853  2913.904
 854  2957.2
 855  3122.624
 856  3273.235
 857  3368.056
 858  3525.821
 859  3383.289
 860  3172.175
 861  2952.342
 862  2922.351
 863  2937.962
 864  2654.095
 865  2650.232
 866  2634.767
 867  2754.646
 868  2862.41
 869  3216.764
 870  3473.85
 871  3402.806
 872  3255.361
 873  3466.111
 874  3536.438
 875  3428.024
 876  3140.603
 877  3007.06
 878  2812.49
 879  2758.84
 880  2773.358
 881  2740.009
 882  2548.743
 883  2588.945
 884  2646.087
 885  2585.874
 886  2841.675
 887  3097.034
 888  3420.482
 889  3212.477
 890  3332.687
 891  3363.927
 892  3329.276
 893  3175.208
 894  3041.054
 895  2764.833
 896  2688.454
 897  2854.987
 898  3134.889
 899  2841.235
 900  2562.684
 901  2718.509
 902  3247.147
 903  3484.355
 904  3435.112
 905  3278.637
 906  3103.146
 907  3096.521
 908  3175.094
 909  3341.566
 910  3336.941
 911  3195.64
 912  2950.005
 913  2593.648
 914  2493.325
 915  2624.718
 916  2751.089
 917  2786.709
 918  2671.854
 919  2992.988
 920  3089.2
 921  3268.313
 922  3280.264
 923  3406.911
 924  3314.691
 925  3196.894
 926  2987.588
 927  2867.222
 928  2536.91
 929  2531.829
 930  2558.917
 931  2485.426
 932  2500.372
 933  2757.561
 934  3127.566
 935  3137.069
 936  3254.649
 937  3631.955
 938  3960.941
 939  3951.041
 940  3683.375
 941  3357.522
 942  3088.427
 943  2869.085
 944  2974.818
 945  2812.56
 946  2657.529
 947  2446.11
 948  2547.108
 949  2609.163
 950  2529.33
 951  2745.693
 952  3012.255
 953  3081.051
 954  3185.3
 955  3427.879
 956  3723.8
 957  3742.594
 958  3522.264
 959  3436.978
 960  3110.354
 961  2833.67
 962  2584.082
 963  2438.76
 964  2358.131
 965  2301.178
 966  2653.591
 967  2770.937
 968  2836.747
 969  3015.959
 970  3239.695
 971  3366.585
 972  3347.8
 973  3324.086
 974  3404.196
 975  3380.464
 976  3450.117
 977  3429.151
 978  3092.229
 979  2866.982
 980  2688.092
 981  2600.01
 982  2533.856
 983  2447.515
 984  2640.975
 985  2568.712
 986  2655.943
 987  2745.763
 988  3106.017
 989  3256.967
 990  3287.659
 991  3294.016
 992  3322.333
 993  3174.759
 994  3049.993
 995  2837.373
 996  2700.833
 997  2443.433
 998  2582.843
 999  2615.944
1000  2632.67
1001  2628.071
1002  2956.061
1003  3215.26
1004  3385.656
1005  3246.892
1006  3361.387
1007  3284.959
1008  3171.612
1009  3050.77
1010  2979.463
1011  3055.721
1012  2933.665
1013  2774.001
1014  2480.382
1015  2348.211
1016  2544.098
1017  2666.948
1018  2745.087
1019  2937.891
1020  3021.748
1021  3380.177
1022  3414.305
1023  3448.13
