# Input file       =  1210063501.123266-PSRB0329-2ms-sampling-dd.dat
# Candidate        =  PSR_0332+5434
# Telescope        =  AR
# Epoch_topo       =  58249.364816241505
# Epoch_bary       =  N/A
# T_sample         =  0.002
# Data Folded      =  7340032
# Data Avg         =  8.72350582900142e-10
# Data StdDev      =  4.96155403622011 
# Profile Bins     =  512
# Profile Avg      =  -1.40604684316363
# Profile StdDev   =  594.061929904033 
# Reduced chi-sqr  =  0.885
# Prob(Noise)      <  0.97   (~0.0 sigma)
# P_topo (ms)      =  714.537105016677  +/- 0.000637
# P'_topo (s/s)    =  -0                +/- 3.36e-10
# P''_topo (s/s^2) =  0                 +/- 1.48e-13
# P_bary (ms)      =  N/A
# P'_bary (s/s)    =  N/A
# P''_bary (s/s^2) =  N/A
# P_orb (s)        =  N/A
# asin(i)/c (s)    =  N/A
# eccentricity     =  N/A
# w (rad)          =  N/A
# T_peri           =  N/A
######################################################
   0  287.8134
   1  -278.0509
   2  -103.1622
   3  -273.3763
   4  13.621
   5  491.6926
   6  388.0108
   7  400.3441
   8  -38.70839
   9  -78.56161
  10  -429.8612
  11  -375.3615
  12  144.0278
  13  127.1309
  14  106.7522
  15  -27.41398
  16  71.05008
  17  -216.9861
  18  -381.4282
  19  -467.6211
  20  -137.1586
  21  -22.1812
  22  -47.87502
  23  -130.3939
  24  -463.177
  25  -384.5034
  26  -260.0802
  27  -231.0788
  28  -223.5002
  29  -47.74493
  30  -71.88112
  31  145.1423
  32  251.799
  33  184.5748
  34  70.01585
  35  -46.99249
  36  64.80901
  37  273.1482
  38  479.9809
  39  502.479
  40  145.9755
  41  215.8356
  42  316.7676
  43  -169.4221
  44  -43.21051
  45  188.2861
  46  266.0597
  47  203.4584
  48  -164.2675
  49  -233.3243
  50  210.5203
  51  270.205
  52  -178.8036
  53  -77.71273
  54  52.24139
  55  -103.6428
  56  -125.8736
  57  70.28309
  58  38.66169
  59  -96.4779
  60  -199.6976
  61  -217.0539
  62  -48.09595
  63  -300.8535
  64  -254.8738
  65  -88.38995
  66  255.6633
  67  212.7947
  68  -107.1951
  69  -105.259
  70  -235.1979
  71  -16.11818
  72  10.92169
  73  -253.5273
  74  -450.7527
  75  -95.21109
  76  -119.5674
  77  -143.6133
  78  -370.0834
  79  -322.1747
  80  -618.4253
  81  -711.6821
  82  -238.239
  83  -71.79867
  84  -186.1581
  85  -548.116
  86  -341.8209
  87  -232.4795
  88  -76.12743
  89  -94.85916
  90  -296.8258
  91  122.2793
  92  -238.479
  93  -584.1187
  94  -767.6655
  95  -160.376
  96  -241.4683
  97  -3.213916
  98  -87.05666
  99  -107.834
 100  -385.9234
 101  -531.5557
 102  -605.974
 103  -578.6612
 104  -958.9121
 105  -716.2603
 106  -674.7462
 107  -561.2527
 108  -648.2291
 109  -874.066
 110  -715.8934
 111  -477.5222
 112  -204.5023
 113  -171.0731
 114  -57.73328
 115  -467.3327
 116  -187.2059
 117  -67.92876
 118  -317.8519
 119  -64.3746
 120  -15.14781
 121  -114.5923
 122  -514.4669
 123  -502.596
 124  -294.4536
 125  147.2644
 126  -291.8487
 127  -466.3898
 128  96.48106
 129  534.6545
 130  345.5829
 131  86.71391
 132  251.2658
 133  73.90598
 134  -200.6643
 135  -728.5787
 136  -811.7379
 137  -832.5269
 138  -158.6631
 139  -134.286
 140  -240.512
 141  -161.014
 142  -343.2986
 143  -207.2566
 144  14.55159
 145  -129.3797
 146  -537.4752
 147  -438.3233
 148  -190.4766
 149  -79.40485
 150  59.82376
 151  83.37097
 152  -167.3619
 153  -389.5944
 154  -588.8514
 155  -457.8228
 156  -246.9386
 157  -80.95116
 158  -17.7688
 159  -618.0576
 160  -401.2625
 161  -393.8386
 162  -427.8998
 163  -438.568
 164  -493.4671
 165  -522.241
 166  -522.2753
 167  -554.0565
 168  -632.9937
 169  -499.01
 170  -383.6109
 171  -506.0735
 172  -554.1458
 173  -870.4241
 174  -693.2257
 175  -436.1947
 176  -703.161
 177  -663.5472
 178  -595.7712
 179  -647.9231
 180  -401.0361
 181  -177.9893
 182  -215.6311
 183  -282.4128
 184  -324.8367
 185  -406.5126
 186  -227.8652
 187  -351.7486
 188  -163.0733
 189  -66.47722
 190  3.398851
 191  -164.2498
 192  -174.1112
 193  123.6265
 194  51.78172
 195  -67.43768
 196  -25.88623
 197  -100.0311
 198  -355.391
 199  -394.9659
 200  -303.6644
 201  -343.8118
 202  -460.8484
 203  -226.5991
 204  45.72152
 205  -273.5695
 206  -530.2143
 207  -98.30203
 208  -167.2773
 209  -114.8658
 210  -467.0027
 211  -191.0735
 212  -100.4152
 213  -328.7788
 214  -274.193
 215  -188.2839
 216  -203.4687
 217  -301.2241
 218  -81.92775
 219  -270.8376
 220  -187.1341
 221  -316.4696
 222  -158.2314
 223  -180.5036
 224  -41.63295
 225  379.7384
 226  68.76003
 227  -146.2043
 228  -260.9334
 229  -212.5052
 230  1.845785
 231  -89.93675
 232  302.0761
 233  -176.2707
 234  -217.218
 235  36.27379
 236  -298.0448
 237  -246.887
 238  -396.5446
 239  -223.7867
 240  -70.12802
 241  -26.32676
 242  -22.98134
 243  -603.2385
 244  -395.6416
 245  -173.0198
 246  -385.929
 247  -369.7162
 248  -383.5404
 249  -246.5657
 250  -410.2847
 251  87.08914
 252  -41.64516
 253  -267.3429
 254  -252.4964
 255  -167.4639
 256  -360.7059
 257  -277.5754
 258  -57.28662
 259  24.10567
 260  190.3764
 261  50.18446
 262  95.26646
 263  -252.5018
 264  -178.5128
 265  1.246657
 266  107.3077
 267  -109.49
 268  -103.2646
 269  195.4964
 270  -18.43307
 271  -144.9893
 272  -30.58001
 273  -45.48824
 274  55.12445
 275  -6.899565
 276  26.52009
 277  -3.796426
 278  -213.4289
 279  -341.2927
 280  -398.4866
 281  -80.19196
 282  -173.2559
 283  2.501215
 284  112.6452
 285  -254.5624
 286  -148.3318
 287  -35.27224
 288  46.34034
 289  -27.39905
 290  88.45816
 291  -177.579
 292  -482.9787
 293  -383.8317
 294  -575.6321
 295  -426.0044
 296  -180.8695
 297  -425.0224
 298  -230.3167
 299  357.7799
 300  313.1346
 301  86.51022
 302  292.0333
 303  451.1955
 304  453.8144
 305  274.1795
 306  376.3551
 307  378.1193
 308  327.4431
 309  171.4682
 310  220.1552
 311  443.2215
 312  423.1984
 313  325.103
 314  528.9302
 315  341.9464
 316  299.2148
 317  -37.74295
 318  -73.46861
 319  241.3419
 320  -84.26617
 321  -252.8607
 322  -262.0588
 323  254.3191
 324  50.74996
 325  331.293
 326  148.766
 327  150.7023
 328  -83.19375
 329  -148.9746
 330  -152.9762
 331  -57.64415
 332  150.1772
 333  118.187
 334  386.1715
 335  366.4751
 336  253.9454
 337  102.941
 338  -286.9572
 339  -207.9194
 340  -65.69848
 341  144.0875
 342  224.2592
 343  222.3099
 344  91.25027
 345  -70.35307
 346  -281.5051
 347  -274.2279
 348  -72.12917
 349  35.2953
 350  -100.7285
 351  -41.31558
 352  156.3927
 353  361.7917
 354  60.87608
 355  137.1016
 356  565.8458
 357  493.6826
 358  167.1589
 359  363.8823
 360  451.9953
 361  378.7247
 362  428.0941
 363  211.1256
 364  150.4677
 365  368.4864
 366  780.5868
 367  601.1042
 368  203.2231
 369  28.45138
 370  -239.8248
 371  -34.59131
 372  245.0813
 373  133.4751
 374  404.6586
 375  370.4919
 376  543.0651
 377  10.98014
 378  -295.4118
 379  162.7401
 380  214.7197
 381  228.7974
 382  398.0201
 383  202.5847
 384  503.093
 385  661.4651
 386  628.6749
 387  789.7324
 388  553.7581
 389  399.5859
 390  303.8381
 391  119.718
 392  404.2264
 393  438.4729
 394  414.6287
 395  456.6331
 396  246.7624
 397  191.3489
 398  178.3703
 399  196.3582
 400  279.2782
 401  436.2459
 402  158.3181
 403  200.5163
 404  35.85467
 405  277.093
 406  474.3723
 407  522.3654
 408  433.5056
 409  255.0702
 410  183.1455
 411  365.9743
 412  -41.91866
 413  143.9887
 414  117.1236
 415  193.9717
 416  188.8863
 417  18.59568
 418  115.453
 419  -64.00693
 420  -45.7974
 421  -15.82306
 422  313.4538
 423  296.754
 424  136.9604
 425  333.7844
 426  137.3453
 427  300.9276
 428  13.54191
 429  86.38625
 430  190.5733
 431  143.891
 432  242.107
 433  532.0181
 434  432.2889
 435  294.775
 436  261.1571
 437  232.7681
 438  230.7514
 439  -196.7314
 440  -70.42583
 441  145.3132
 442  209.8671
 443  331.5785
 444  313.2155
 445  128.9377
 446  82.64951
 447  411.5894
 448  446.4546
 449  414.3696
 450  320.9069
 451  379.4532
 452  409.67
 453  543.2027
 454  339.1519
 455  443.0946
 456  346.5382
 457  199.6779
 458  -101.8879
 459  97.63834
 460  -0.1491662
 461  232.2242
 462  54.07187
 463  -114.9368
 464  -150.637
 465  -176.2532
 466  28.60546
 467  46.201
 468  -85.13453
 469  -58.96968
 470  -194.7928
 471  -484.4399
 472  -250.4413
 473  -214.9748
 474  -291.8904
 475  -337.7453
 476  -261.6916
 477  365.326
 478  280.7374
 479  -67.67494
 480  54.3069
 481  104.1555
 482  354.1077
 483  271.3635
 484  499.6506
 485  370.248
 486  183.1708
 487  400.4133
 488  360.0787
 489  124.7197
 490  42.79018
 491  170.5411
 492  403.6543
 493  194.8122
 494  262.1309
 495  246.2143
 496  231.4612
 497  396.6528
 498  588.0983
 499  699.2538
 500  664.5931
 501  1261.294
 502  2213.692
 503  2960.785
 504  2894.048
 505  2434.279
 506  1731.716
 507  791.2458
 508  393.182
 509  228.8891
 510  318.36
 511  582.4471
