# Input file       =  1210767789.121276_cleaned.dat
# Candidate        =  PSR_0332+5434
# Telescope        =  AR
# Epoch_topo       =  58257.516297699949
# Epoch_bary       =  N/A
# T_sample         =  0.002
# Data Folded      =  7340032
# Data Avg         =  0.0318168063712321
# Data StdDev      =  1.0001275017691  
# Profile Bins     =  512
# Profile Avg      =  456.127045187452 
# Profile StdDev   =  119.748302550724 
# Reduced chi-sqr  =  1.149
# Prob(Noise)      <  0.0111   (~2.3 sigma)
# P_topo (ms)      =  714.52950462154   +/- 0.000272
# P'_topo (s/s)    =  -0                +/- 1.44e-10
# P''_topo (s/s^2) =  0                 +/- 6.34e-14
# P_bary (ms)      =  N/A
# P'_bary (s/s)    =  N/A
# P''_bary (s/s^2) =  N/A
# P_orb (s)        =  N/A
# asin(i)/c (s)    =  N/A
# eccentricity     =  N/A
# w (rad)          =  N/A
# T_peri           =  N/A
######################################################
   0  518.9386
   1  666.9935
   2  573.4914
   3  481.9994
   4  415.8181
   5  389.2732
   6  378.535
   7  414.6334
   8  544.3909
   9  479.7935
  10  434.5977
  11  596.3167
  12  425.8922
  13  251.9342
  14  390.0241
  15  463.6803
  16  485.1553
  17  494.6678
  18  489.2454
  19  419.5167
  20  350.7656
  21  366.4166
  22  368.622
  23  376.5659
  24  358.8521
  25  450.8145
  26  459.1423
  27  369.6225
  28  300.5446
  29  378.3813
  30  435.7915
  31  514.4589
  32  468.0266
  33  412.8278
  34  409.8051
  35  345.7907
  36  370.9779
  37  412.4779
  38  463.3094
  39  457.8636
  40  435.5048
  41  425.6483
  42  573.9139
  43  505.7224
  44  526.8912
  45  536.9972
  46  520.4969
  47  405.9884
  48  381.9591
  49  361.2388
  50  344.8263
  51  403.7987
  52  570.0309
  53  477.0649
  54  395.6966
  55  361.5858
  56  415.572
  57  470.8297
  58  453.9356
  59  520.3087
  60  446.3958
  61  469.1504
  62  517.5046
  63  495.8115
  64  432.237
  65  468.8314
  66  338.4831
  67  353.7291
  68  381.7851
  69  506.0315
  70  474.7232
  71  392.9674
  72  390.3147
  73  530.5183
  74  526.976
  75  480.6101
  76  571.4755
  77  563.2277
  78  483.1646
  79  384.3851
  80  344.2712
  81  436.8341
  82  533.5494
  83  509.8152
  84  470.3769
  85  457.482
  86  369.6824
  87  528.3387
  88  578.7983
  89  517.5593
  90  497.0753
  91  463.1603
  92  422.4033
  93  429.0981
  94  442.3934
  95  437.849
  96  475.7218
  97  426.9936
  98  380.8321
  99  438.1535
 100  491.3687
 101  274.558
 102  265.3853
 103  353.1311
 104  356.3023
 105  343.9652
 106  371.1236
 107  346.1649
 108  312.4276
 109  370.8347
 110  398.2464
 111  458.6686
 112  427.435
 113  305.2896
 114  353.5964
 115  376.7008
 116  362.8404
 117  375.9795
 118  383.7998
 119  449.2143
 120  405.9269
 121  345.0041
 122  421.7319
 123  541.6404
 124  463.6629
 125  364.1613
 126  439.4783
 127  413.1923
 128  356.5132
 129  405.6679
 130  497.0638
 131  529.57
 132  566.7238
 133  417.491
 134  338.495
 135  492.6353
 136  443.9744
 137  464.2573
 138  478.7471
 139  442.7849
 140  370.6042
 141  404.0683
 142  492.8679
 143  421.0218
 144  320.5226
 145  348.9374
 146  435.6305
 147  379.8596
 148  376.5227
 149  439.2727
 150  296.8472
 151  303.8753
 152  314.3566
 153  328.3104
 154  375.5255
 155  383.6181
 156  375.298
 157  388.7762
 158  334.1852
 159  380.4955
 160  367.7087
 161  392.6568
 162  463.7106
 163  448.597
 164  468.3349
 165  440.5703
 166  287.5211
 167  384.6106
 168  425.3435
 169  336.8267
 170  355.3749
 171  485.6748
 172  473.4447
 173  467.3327
 174  503.1075
 175  406.784
 176  353.4925
 177  391.6919
 178  446.7552
 179  376.5749
 180  364.7288
 181  480.0065
 182  516.2216
 183  477.6502
 184  368.7758
 185  273.9082
 186  312.7834
 187  339.1347
 188  444.5497
 189  458.7196
 190  427.1251
 191  393.6823
 192  477.045
 193  549.7872
 194  510.8884
 195  558.7173
 196  509.2777
 197  537.4966
 198  562.9479
 199  535.0161
 200  491.3265
 201  320.4716
 202  361.0775
 203  425.5077
 204  538.449
 205  465.2629
 206  514.2814
 207  461.9626
 208  498.4922
 209  446.1272
 210  332.8192
 211  368.3423
 212  330.7309
 213  262.5811
 214  332.3499
 215  342.9572
 216  420.8437
 217  464.538
 218  531.3557
 219  519.4617
 220  444.2647
 221  537.0142
 222  567.0895
 223  561.1461
 224  552.6641
 225  482.6213
 226  438.2028
 227  521.6385
 228  538.8008
 229  513.1417
 230  526.6149
 231  415.1561
 232  421.967
 233  419.1465
 234  509.339
 235  473.1099
 236  451.7936
 237  528.9576
 238  441.3085
 239  398.1399
 240  385.8667
 241  447.8091
 242  399.2786
 243  451.4377
 244  526.6335
 245  501.9513
 246  488.4099
 247  404.2592
 248  389.1297
 249  512.7607
 250  532.2559
 251  418.0672
 252  315.8356
 253  487.5162
 254  456.4127
 255  304.6146
 256  296.5417
 257  309.6369
 258  303.9632
 259  350.0698
 260  501.4287
 261  505.2438
 262  442.9259
 263  497.1252
 264  501.8497
 265  453.0768
 266  431.3828
 267  480.4057
 268  521.9588
 269  401.4102
 270  371.793
 271  464.2125
 272  484.8284
 273  484.1672
 274  508.3453
 275  516.3562
 276  566.2017
 277  464.6435
 278  412.9387
 279  441.2209
 280  489.0268
 281  489.0092
 282  478.6621
 283  397.6722
 284  286.3359
 285  382.8135
 286  529.6002
 287  410.7348
 288  498.9999
 289  485.7936
 290  385.4779
 291  392.2324
 292  543.0762
 293  500.5269
 294  478.8623
 295  325.3947
 296  279.3666
 297  366.8301
 298  479.1323
 299  424.2073
 300  397.7302
 301  318.8203
 302  381.2303
 303  436.3147
 304  513.2833
 305  443.6554
 306  357.2335
 307  417.6393
 308  406.2248
 309  334.1459
 310  269.3324
 311  401.5695
 312  475.472
 313  504.4538
 314  523.9485
 315  450.2448
 316  358.3482
 317  426.8716
 318  406.9777
 319  426.5358
 320  300.7833
 321  357.9232
 322  370.7451
 323  429.2515
 324  519.544
 325  464.257
 326  487.9932
 327  538.2949
 328  628.0826
 329  702.2678
 330  849.2543
 331  1005.567
 332  1059.278
 333  957.6866
 334  758.1503
 335  675.5973
 336  521.5122
 337  451.32
 338  410.8058
 339  564.863
 340  612.8433
 341  620.3973
 342  602.7305
 343  563.5958
 344  470.031
 345  522.858
 346  620.2356
 347  571.2976
 348  509.4854
 349  541.949
 350  473.7125
 351  509.2346
 352  591.4567
 353  583.1932
 354  603.9316
 355  574.9987
 356  615.2231
 357  500.2437
 358  549.9112
 359  630.2182
 360  522.2503
 361  398.5733
 362  475.7926
 363  541.7753
 364  450.3451
 365  548.8685
 366  585.1031
 367  466.0268
 368  407.4624
 369  421.8011
 370  488.3542
 371  476.4626
 372  513.6313
 373  491.141
 374  399.2018
 375  340.7642
 376  409.5172
 377  448.3442
 378  458.2182
 379  366.5353
 380  435.9325
 381  442.2337
 382  403.8571
 383  509.9436
 384  497.7741
 385  477.1434
 386  508.307
 387  552.9897
 388  678.9468
 389  572.5021
 390  496.7505
 391  575.6223
 392  609.6066
 393  574.6655
 394  525.1573
 395  425.3937
 396  464.5781
 397  574.9143
 398  499.5292
 399  483.7326
 400  442.1314
 401  515.1686
 402  520.8361
 403  555.7071
 404  563.8693
 405  461.2659
 406  554.0182
 407  499.2146
 408  524.4105
 409  485.8396
 410  490.6879
 411  496.5601
 412  470.4773
 413  515.9972
 414  575.041
 415  498.4054
 416  572.2208
 417  502.3693
 418  353.9176
 419  533.8016
 420  599.4284
 421  477.8484
 422  514.8898
 423  477.8955
 424  603.3826
 425  562.4547
 426  482.4263
 427  412.1184
 428  503.9278
 429  538.5665
 430  543.1074
 431  463.5299
 432  538.26
 433  452.2369
 434  400.0648
 435  374.537
 436  494.0342
 437  620.1587
 438  485.099
 439  555.8477
 440  485.2897
 441  445.0732
 442  450.9117
 443  379.9148
 444  367.1447
 445  510.5017
 446  408.1711
 447  408.1904
 448  314.7652
 449  352.6044
 450  402.1916
 451  446.1098
 452  443.5133
 453  478.8064
 454  413.9407
 455  365.407
 456  294.8648
 457  366.0669
 458  422.4299
 459  432.8582
 460  454.1814
 461  475.8673
 462  358.3711
 463  388.4976
 464  313.942
 465  296.0874
 466  334.4413
 467  364.83
 468  420.7301
 469  609.3732
 470  597.6401
 471  512.1594
 472  449.0296
 473  351.525
 474  408.3144
 475  546.5323
 476  522.7582
 477  484.0772
 478  450.1368
 479  404.8103
 480  312.3433
 481  337.906
 482  540.6926
 483  529.3746
 484  508.1193
 485  471.5685
 486  503.1863
 487  491.0066
 488  520.776
 489  481.5739
 490  381.6338
 491  375.9783
 492  471.6588
 493  496.8711
 494  530.6526
 495  541.0483
 496  509.0009
 497  469.8583
 498  425.088
 499  458.1791
 500  463.6329
 501  320.8335
 502  428.7319
 503  450.1432
 504  551.4111
 505  566.0261
 506  561.057
 507  524.5569
 508  398.4698
 509  415.4857
 510  393.1876
 511  430.302
