# Input file       =  1210565923.116018_cleaned.dat
# Candidate        =  PSR_0332+5434
# Telescope        =  AR
# Epoch_topo       =  58255.179885602061
# Epoch_bary       =  N/A
# T_sample         =  0.002
# Data Folded      =  7143424
# Data Avg         =  0.030802086039964
# Data StdDev      =  1.00003121231773 
# Profile Bins     =  512
# Profile Avg      =  429.747784722245 
# Profile StdDev   =  118.122271236656 
# Reduced chi-sqr  =  1.500
# Prob(Noise)      <  1.64e-12   (~7.0 sigma)
# P_topo (ms)      =  714.531447653821  +/- 0.000313
# P'_topo (s/s)    =  -0                +/- 1.7e-10
# P''_topo (s/s^2) =  0                 +/- 7.7e-14
# P_bary (ms)      =  N/A
# P'_bary (s/s)    =  N/A
# P''_bary (s/s^2) =  N/A
# P_orb (s)        =  N/A
# asin(i)/c (s)    =  N/A
# eccentricity     =  N/A
# w (rad)          =  N/A
# T_peri           =  N/A
######################################################
   0  1126.155
   1  1150.362
   2  914.8927
   3  711.6667
   4  564.9004
   5  476.6277
   6  358.2072
   7  402.2914
   8  525.9376
   9  475.582
  10  406.5944
  11  476.9377
  12  417.2
  13  495.2554
  14  629.9875
  15  584.369
  16  459.371
  17  476.6448
  18  431.5759
  19  417.3965
  20  348.3074
  21  367.0789
  22  484.2813
  23  306.42
  24  342.6627
  25  514.6173
  26  601.7268
  27  357.1679
  28  294.7265
  29  304.1625
  30  339.7521
  31  312.4029
  32  374.8333
  33  401.4761
  34  365.9351
  35  382.2862
  36  373.3411
  37  390.6593
  38  439.3439
  39  325.8167
  40  404.2743
  41  500.4527
  42  336.5403
  43  359.8194
  44  384.9032
  45  310.2235
  46  213.501
  47  262.1743
  48  312.7156
  49  438.1463
  50  390.4103
  51  390.4779
  52  254.5571
  53  330.516
  54  363.3399
  55  249.372
  56  252.0836
  57  386.3056
  58  436.2145
  59  471.6633
  60  371.1138
  61  161.1869
  62  364.4032
  63  567.3295
  64  445.3856
  65  338.3929
  66  364.2201
  67  425.6445
  68  401.456
  69  355.2719
  70  280.22
  71  313.7675
  72  346.2375
  73  322.8888
  74  315.407
  75  407.0079
  76  464.886
  77  377.0159
  78  413.6882
  79  315.3843
  80  333.3036
  81  404.7598
  82  363.8705
  83  331.7565
  84  286.7239
  85  314.88
  86  346.385
  87  426.0265
  88  546.1912
  89  507.8562
  90  499.7039
  91  459.4222
  92  460.3143
  93  377.133
  94  399.2339
  95  364.9775
  96  247.6116
  97  392.1615
  98  469.9843
  99  368.7538
 100  377.9009
 101  334.4874
 102  248.2879
 103  291.5242
 104  364.9536
 105  424.5305
 106  432.3853
 107  380.2002
 108  348.1438
 109  258.4025
 110  280.2586
 111  348.7751
 112  327.9278
 113  432.8909
 114  415.9656
 115  364.3141
 116  437.4898
 117  337.5213
 118  399.7701
 119  326.4675
 120  425.1444
 121  306.3578
 122  385.2773
 123  378.0028
 124  396.1661
 125  417.8916
 126  462.289
 127  466.4627
 128  543.3049
 129  428.6884
 130  423.395
 131  471.2131
 132  436.4134
 133  405.2616
 134  352.971
 135  348.7779
 136  327.7198
 137  410.8248
 138  492.0236
 139  506.6591
 140  478.0445
 141  411.8534
 142  466.3478
 143  442.1234
 144  453.6414
 145  481.61
 146  461.6898
 147  550.9036
 148  500.7809
 149  399.6939
 150  447.1431
 151  432.2118
 152  449.4573
 153  446.1517
 154  432.1512
 155  404.5809
 156  573.041
 157  605.327
 158  482.087
 159  570.1387
 160  540.9205
 161  557.7841
 162  579.3224
 163  528.4865
 164  482.2026
 165  558.3231
 166  490.0164
 167  259.7375
 168  356.5201
 169  458.1774
 170  403.9933
 171  410.3706
 172  490.0461
 173  554.8229
 174  499.3858
 175  461.1861
 176  477.2691
 177  495.5042
 178  434.9909
 179  332.2517
 180  349.2293
 181  568.7477
 182  585.6028
 183  324.6834
 184  369.6369
 185  456.7354
 186  502.4312
 187  457.9481
 188  506.1143
 189  474.0074
 190  445.2612
 191  523.4243
 192  524.7026
 193  485.256
 194  509.5213
 195  466.19
 196  384.6997
 197  407.2468
 198  451.2108
 199  423.8228
 200  416.256
 201  470.0182
 202  500.0908
 203  509.4568
 204  383.2826
 205  389.9865
 206  499.8698
 207  482.4574
 208  494.4531
 209  473.9601
 210  479.4436
 211  512.8257
 212  416.4528
 213  366.9008
 214  406.295
 215  371.7349
 216  344.3043
 217  321.4701
 218  373.9635
 219  389.2954
 220  341.3498
 221  407.3229
 222  470.653
 223  452.7406
 224  438.3603
 225  497.7529
 226  338.3662
 227  324.2875
 228  508.7108
 229  427.6072
 230  459.6672
 231  408.4748
 232  512.2656
 233  528.957
 234  389.1811
 235  405.3352
 236  456.1037
 237  448.4347
 238  475.9985
 239  442.3902
 240  463.1365
 241  561.9078
 242  586.0743
 243  569.1782
 244  500.5271
 245  431.4176
 246  358.5864
 247  308.6657
 248  498.1807
 249  585.6141
 250  536.7622
 251  477.1119
 252  434.4222
 253  515.5966
 254  388.5807
 255  380.7355
 256  408.2566
 257  435.9799
 258  508.8484
 259  410.0025
 260  349.5922
 261  434.0486
 262  443.3482
 263  400.4821
 264  481.3857
 265  429.3322
 266  310.6967
 267  377.7112
 268  509.2667
 269  432.5491
 270  432.3342
 271  393.7894
 272  416.2997
 273  520.5398
 274  403.4142
 275  395.1526
 276  323.9489
 277  267.0788
 278  457.7955
 279  397.4477
 280  331.9904
 281  451.4881
 282  436.8073
 283  310.7057
 284  353.6202
 285  429.6033
 286  370.5496
 287  401.2489
 288  445.7959
 289  408.3864
 290  305.5912
 291  346.0811
 292  295.2401
 293  333.8479
 294  302.0682
 295  376.279
 296  353.3328
 297  297.7197
 298  346.1675
 299  437.0175
 300  426.4826
 301  390.2482
 302  312.8459
 303  344.8005
 304  346.3903
 305  383.7498
 306  339.8633
 307  294.532
 308  359.7992
 309  296.8918
 310  408.4623
 311  482.2315
 312  360.8577
 313  321.851
 314  425.2945
 315  432.3163
 316  344.123
 317  391.2796
 318  466.3058
 319  454.5095
 320  327.55
 321  382.8671
 322  507.0563
 323  581.6636
 324  429.5096
 325  385.8162
 326  355.3888
 327  481.7951
 328  492.5874
 329  507.3533
 330  511.0682
 331  510.6004
 332  399.6743
 333  358.8475
 334  492.3352
 335  474.1824
 336  324.4799
 337  396.59
 338  556.6248
 339  456.5051
 340  370.3266
 341  396.5575
 342  310.2875
 343  443.4971
 344  407.7635
 345  348.8553
 346  422.7106
 347  346.5826
 348  357.0627
 349  388.8612
 350  434.0801
 351  414.5349
 352  292.2901
 353  384.4512
 354  424.0146
 355  459.0516
 356  476.084
 357  455.2464
 358  481.282
 359  468.2145
 360  481.1945
 361  433.8489
 362  418.9603
 363  465.8622
 364  410.7464
 365  439.3972
 366  343.2009
 367  446.9838
 368  391.8366
 369  373.0798
 370  495.0904
 371  518.2823
 372  511.132
 373  410.9267
 374  439.3107
 375  465.6593
 376  509.5753
 377  541.644
 378  421.0103
 379  329.3679
 380  382.3566
 381  450.7288
 382  383.6307
 383  348.1905
 384  415.7932
 385  432.4998
 386  405.9174
 387  274.8162
 388  358.1364
 389  543.4059
 390  564.89
 391  483.3593
 392  310.4979
 393  341.2207
 394  379.9579
 395  510.3005
 396  433.6449
 397  516.0221
 398  480.9209
 399  499.7492
 400  519.5962
 401  436.8829
 402  475.6154
 403  467.0043
 404  389.5265
 405  387.0058
 406  478.1092
 407  495.8029
 408  542.5084
 409  489.3038
 410  546.7815
 411  533.5258
 412  450.5814
 413  423.2453
 414  492.8704
 415  520.7709
 416  533.1999
 417  463.4154
 418  371.8757
 419  363.7095
 420  510.0856
 421  356.256
 422  383.6148
 423  371.42
 424  440.3715
 425  485.7925
 426  469.5616
 427  501.18
 428  312.4609
 429  334.4924
 430  428.5631
 431  313.52
 432  398.5005
 433  422.9922
 434  422.534
 435  390.9081
 436  394.0517
 437  391.2047
 438  404.3387
 439  475.1364
 440  517.7526
 441  527.0156
 442  399.3355
 443  426.9269
 444  364.2951
 445  277.8023
 446  291.29
 447  349.6059
 448  304.7874
 449  273.3345
 450  310.9805
 451  291.0317
 452  326.2458
 453  501.7903
 454  561.0666
 455  475.0569
 456  481.7735
 457  415.9016
 458  320.2363
 459  322.1019
 460  392.8412
 461  418.8094
 462  407.8107
 463  391.8026
 464  351.7813
 465  387.038
 466  493.0573
 467  430.7319
 468  418.0497
 469  459.4296
 470  451.3585
 471  478.1269
 472  422.8105
 473  473.4533
 474  568.9119
 475  473.1234
 476  457.5188
 477  568.731
 478  510.6031
 479  506.3347
 480  409.5507
 481  353.9475
 482  512.8939
 483  417.5591
 484  419.7805
 485  501.9771
 486  613.6144
 487  600.2799
 488  423.9996
 489  390.9784
 490  396.5194
 491  456.0728
 492  524.595
 493  557.709
 494  501.5524
 495  495.8691
 496  369.5796
 497  423.3312
 498  428.9487
 499  321.4497
 500  379.0375
 501  257.6061
 502  338.2502
 503  448.0088
 504  431.4978
 505  490.1816
 506  598.5794
 507  603.6116
 508  632.1561
 509  970.0859
 510  1082.723
 511  1101.495
