# Input file       =  1210509309.128302_cleaned.dat
# Candidate        =  PSR_0332+5434
# Telescope        =  AR
# Epoch_topo       =  58254.524631114611
# Epoch_bary       =  N/A
# T_sample         =  0.002
# Data Folded      =  7340032
# Data Avg         =  0.0303035161832183
# Data StdDev      =  1.00009877422424 
# Profile Bins     =  512
# Profile Avg      =  434.569907482738 
# Profile StdDev   =  119.74486291455  
# Reduced chi-sqr  =  1.500
# Prob(Noise)      <  1.57e-12   (~7.0 sigma)
# P_topo (ms)      =  714.532439516701  +/- 0.000218
# P'_topo (s/s)    =  -0                +/- 1.15e-10
# P''_topo (s/s^2) =  0                 +/- 5.07e-14
# P_bary (ms)      =  N/A
# P'_bary (s/s)    =  N/A
# P''_bary (s/s^2) =  N/A
# P_orb (s)        =  N/A
# asin(i)/c (s)    =  N/A
# eccentricity     =  N/A
# w (rad)          =  N/A
# T_peri           =  N/A
######################################################
   0  572.9159
   1  555.5276
   2  560.773
   3  486.55
   4  560.1512
   5  577.9656
   6  573.8021
   7  564.4984
   8  452.2738
   9  355.1569
  10  438.7028
  11  489.4341
  12  510.0408
  13  453.5863
  14  511.5793
  15  544.4354
  16  596.8947
  17  568.4476
  18  457.035
  19  378.4131
  20  447.2852
  21  394.4841
  22  401.0015
  23  401.5836
  24  378.9218
  25  472.0073
  26  504.2378
  27  535.188
  28  492.592
  29  416.7293
  30  449.5356
  31  437.8326
  32  431.1661
  33  434.0248
  34  346.0875
  35  347.8798
  36  448.318
  37  354.3226
  38  359.8731
  39  369.3257
  40  369.5907
  41  500.1188
  42  417.4536
  43  428.1511
  44  326.7705
  45  408.5073
  46  494.2316
  47  436.1849
  48  467.1716
  49  507.709
  50  540.1493
  51  445.1193
  52  431.903
  53  477.904
  54  475.3668
  55  498.5183
  56  423.2756
  57  516.5504
  58  550.5038
  59  568.0532
  60  452.7292
  61  427.2809
  62  441.264
  63  364.8427
  64  487.0373
  65  480.5139
  66  451.5878
  67  375.6812
  68  347.8623
  69  377.5121
  70  335.1234
  71  338.157
  72  427.9011
  73  494.2046
  74  404.8449
  75  341.4972
  76  290.0598
  77  386.0442
  78  369.4474
  79  404.8069
  80  301.5686
  81  315.5823
  82  352.8298
  83  495.7262
  84  459.1003
  85  292.5905
  86  293.9363
  87  276.0319
  88  379.8631
  89  432.8474
  90  229.7609
  91  237.2827
  92  317.4909
  93  300.4206
  94  306.3861
  95  306.494
  96  345.6087
  97  360.9578
  98  351.3277
  99  311.0038
 100  388.236
 101  377.1698
 102  370.6776
 103  424.3072
 104  321.8505
 105  290.7989
 106  261.5541
 107  306.9561
 108  254.8426
 109  247.2029
 110  373.9875
 111  285.7628
 112  322.0763
 113  392.6677
 114  312.6558
 115  291.0802
 116  323.4628
 117  454.088
 118  542.8586
 119  463.984
 120  371.7221
 121  420.0993
 122  499.232
 123  455.3446
 124  469.605
 125  421.5579
 126  330.2886
 127  392.4489
 128  437.2056
 129  534.1608
 130  503.132
 131  563.809
 132  499.215
 133  470.4533
 134  431.9392
 135  502.3152
 136  555.215
 137  430.5055
 138  485.1491
 139  509.1688
 140  507.5736
 141  471.5218
 142  462.0342
 143  354.4157
 144  242.7032
 145  409.4883
 146  434.1971
 147  398.8204
 148  541.7872
 149  373.3411
 150  317.4531
 151  323.4253
 152  343.7641
 153  420.6089
 154  460.6548
 155  510.8087
 156  380.2723
 157  361.1537
 158  419.7709
 159  426.7015
 160  406.7733
 161  362.5428
 162  304.3487
 163  291.8602
 164  401.9266
 165  490.024
 166  549.0216
 167  450.479
 168  366.6466
 169  413.758
 170  537.5685
 171  475.4241
 172  430.5411
 173  370.2888
 174  420.1661
 175  381.3203
 176  387.0524
 177  326.5229
 178  349.1979
 179  376.2937
 180  455.9371
 181  391.1195
 182  348.4332
 183  512.1226
 184  529.6946
 185  537.8165
 186  508.4207
 187  423.3151
 188  387.5662
 189  361.2946
 190  414.8579
 191  472.661
 192  500.7846
 193  367.17
 194  335.7311
 195  436.9825
 196  453.6388
 197  417.4066
 198  412.9196
 199  418.5324
 200  251.1929
 201  318.0106
 202  394.8409
 203  463.3117
 204  462.3669
 205  510.0471
 206  459.1913
 207  532.485
 208  541.04
 209  388.1369
 210  481.1388
 211  550.1743
 212  509.5653
 213  334.1539
 214  342.1067
 215  335.6612
 216  361.5343
 217  461.7847
 218  415.7993
 219  426.5577
 220  438.0176
 221  502.5606
 222  443.1038
 223  595.4111
 224  748.0151
 225  963.975
 226  1031.048
 227  1129.803
 228  1247.363
 229  1126.311
 230  923.3911
 231  664.6605
 232  477.2949
 233  407.8917
 234  425.8714
 235  448.2748
 236  552.64
 237  677.7375
 238  482.0056
 239  409.1134
 240  402.3799
 241  428.4326
 242  436.1106
 243  409.7656
 244  472.3393
 245  470.906
 246  387.808
 247  433.5093
 248  396.8991
 249  265.1519
 250  329.2408
 251  340.7254
 252  368.5423
 253  391.814
 254  453.0432
 255  291.8724
 256  381.7743
 257  471.7996
 258  445.3206
 259  338.7091
 260  367.2909
 261  329.6407
 262  306.0214
 263  294.8942
 264  403.8385
 265  384.8615
 266  431.5393
 267  530.7076
 268  471.6619
 269  464.9257
 270  531.2438
 271  426.8448
 272  370.4586
 273  417.0511
 274  336.7185
 275  341.074
 276  387.7072
 277  394.8437
 278  407.0661
 279  351.8318
 280  318.5128
 281  306.8619
 282  521.1601
 283  477.1613
 284  388.5229
 285  440.8634
 286  484.3007
 287  451.7765
 288  536.8901
 289  470.2851
 290  350.9421
 291  370.4636
 292  446.3993
 293  369.3682
 294  379.9464
 295  419.799
 296  385.4763
 297  453.1112
 298  488.9069
 299  358.1976
 300  370.1418
 301  490.2507
 302  319.7043
 303  346.6364
 304  379.6758
 305  456.725
 306  477.4275
 307  429.6155
 308  314.1256
 309  286.0884
 310  401.4612
 311  294.0887
 312  367.2402
 313  438.2167
 314  402.3706
 315  451.5085
 316  451.5187
 317  322.5942
 318  282.5909
 319  300.5881
 320  521.1317
 321  463.6201
 322  433.1623
 323  471.4365
 324  446.8
 325  412.4872
 326  388.2954
 327  420.8367
 328  450.0403
 329  453.7144
 330  477.2502
 331  447.2706
 332  328.7128
 333  346.9493
 334  533.1732
 335  490.7419
 336  404.9202
 337  375.2
 338  409.1442
 339  443.5787
 340  400.7219
 341  458.2984
 342  499.2453
 343  426.3346
 344  418.3136
 345  403.4705
 346  368.8003
 347  361.46
 348  448.8134
 349  531.3801
 350  445.5827
 351  442.0169
 352  486.6616
 353  556.9721
 354  547.0779
 355  481.8748
 356  389.5222
 357  358.6945
 358  428.4679
 359  400.4822
 360  387.265
 361  430.4923
 362  259.5197
 363  344.5346
 364  328.1908
 365  268.1335
 366  312.0332
 367  391.2355
 368  393.6519
 369  441.2025
 370  414.0701
 371  441.5434
 372  412.8676
 373  383.6698
 374  310.8705
 375  366.8068
 376  395.8214
 377  495.3856
 378  474.1195
 379  375.3171
 380  254.6976
 381  248.6261
 382  199.7205
 383  296.5958
 384  355.8749
 385  324.7983
 386  362.2209
 387  389.6436
 388  451.7078
 389  368.4859
 390  362.6602
 391  354.3857
 392  373.2318
 393  376.0668
 394  469.903
 395  401.9034
 396  435.9064
 397  597.3438
 398  606.1518
 399  544.9111
 400  482.2162
 401  447.2661
 402  421.4914
 403  363.385
 404  465.3728
 405  461.1852
 406  391.1745
 407  401.3118
 408  575.0607
 409  488.0134
 410  453.1303
 411  402.1539
 412  411.8418
 413  398.2633
 414  495.9545
 415  429.1031
 416  312.8684
 417  392.6361
 418  413.9846
 419  394.2792
 420  304.3792
 421  352.8298
 422  296.3611
 423  344.6174
 424  459.678
 425  524.5557
 426  438.5587
 427  554.0878
 428  456.5432
 429  425.8778
 430  489.6402
 431  475.1056
 432  518.2084
 433  383.9619
 434  337.5018
 435  419.8661
 436  530.0716
 437  489.4951
 438  527.3246
 439  383.781
 440  518.1999
 441  533.4772
 442  425.5714
 443  423.2259
 444  540.5496
 445  502.7227
 446  487.0044
 447  452.6891
 448  499.5765
 449  414.829
 450  377.0944
 451  316.0971
 452  426.7795
 453  418.6576
 454  434.8479
 455  500.9489
 456  501.1238
 457  476.0667
 458  384.8652
 459  394.2943
 460  482.6646
 461  452.1024
 462  491.5791
 463  568.6921
 464  587.1946
 465  520.7673
 466  493.9888
 467  429.736
 468  358.4536
 469  367.2887
 470  381.4055
 471  411.2949
 472  430.6214
 473  567.7604
 474  522.3097
 475  415.4618
 476  454.7833
 477  452.576
 478  572.3964
 479  592.1804
 480  492.4837
 481  452.8673
 482  363.6378
 483  437.1988
 484  423.3546
 485  529.0146
 486  549.6901
 487  477.601
 488  491.1901
 489  505.791
 490  572.983
 491  544.1287
 492  410.3586
 493  509.5235
 494  496.5399
 495  522.4658
 496  386.5067
 497  463.8204
 498  423.9867
 499  510.3922
 500  525.295
 501  458.2448
 502  404.7263
 503  512.8393
 504  563.8762
 505  472.2332
 506  476.3409
 507  617.3947
 508  581.8653
 509  482.0638
 510  501.9883
 511  562.2214
