# Input file       =  1210752853.118745-PSRB0329-2ms-sampling-dd.dat
# Candidate        =  PSR_0332+5434
# Telescope        =  AR
# Epoch_topo       =  58257.343427300293
# Epoch_bary       =  N/A
# T_sample         =  0.002
# Data Folded      =  7340032
# Data Avg         =  -2.21037664430964e-10
# Data StdDev      =  5.72278752602801 
# Profile Bins     =  512
# Profile Avg      =  0.338856020695232
# Profile StdDev   =  685.206727030416 
# Reduced chi-sqr  =  0.817
# Prob(Noise)      <  0.999   (~0.0 sigma)
# P_topo (ms)      =  714.529338849699  +/- 0.00072
# P'_topo (s/s)    =  -0                +/- 3.8e-10
# P''_topo (s/s^2) =  0                 +/- 1.68e-13
# P_bary (ms)      =  N/A
# P'_bary (s/s)    =  N/A
# P''_bary (s/s^2) =  N/A
# P_orb (s)        =  N/A
# asin(i)/c (s)    =  N/A
# eccentricity     =  N/A
# w (rad)          =  N/A
# T_peri           =  N/A
######################################################
   0  -161.7404
   1  4.902185
   2  -124.1246
   3  -224.651
   4  20.51884
   5  9.841644
   6  233.7436
   7  257.3879
   8  117.5062
   9  -117.5717
  10  -177.0764
  11  -34.00187
  12  -375.753
  13  -145.529
  14  337.9091
  15  115.2272
  16  -95.0864
  17  81.48138
  18  117.8201
  19  -193.1803
  20  -266.7001
  21  -325.9695
  22  -545.3726
  23  -658.5032
  24  -451.8693
  25  5.286793
  26  -639.1718
  27  -815.9657
  28  -674.8929
  29  -411.8344
  30  -425.1492
  31  -600.5413
  32  -225.2356
  33  -117.51
  34  -512.4864
  35  -464.5563
  36  -331.9489
  37  -837.3631
  38  -1144.224
  39  -879.578
  40  -631.8527
  41  -704.7194
  42  -1096.451
  43  -761.0193
  44  -982.9681
  45  -1071.757
  46  -909.0283
  47  -825.2918
  48  -277.5635
  49  -493.2485
  50  -709.4932
  51  -815.2821
  52  -826.4047
  53  -996.2493
  54  -1010.068
  55  -748.9742
  56  -801.8721
  57  -827.9643
  58  -664.1779
  59  -841.176
  60  -834.4801
  61  -729.2186
  62  -597.8826
  63  -478.1739
  64  -427.1742
  65  -538.9048
  66  -396.246
  67  -503.4659
  68  -491.9153
  69  -450.3805
  70  -298.3039
  71  -321.911
  72  -593.5515
  73  -270.0113
  74  -281.1148
  75  -334.5824
  76  32.79817
  77  -193.6994
  78  -716.5519
  79  -877.0388
  80  -498.9027
  81  -147.0019
  82  -223.2005
  83  -34.09466
  84  42.00561
  85  -241.9081
  86  -380.8288
  87  -137.9306
  88  76.79943
  89  85.61033
  90  -52.49308
  91  -147.018
  92  222.8523
  93  70.31686
  94  -33.97552
  95  5.762073
  96  -133.0942
  97  -73.34361
  98  7.498711
  99  26.43074
 100  -15.63884
 101  -175.634
 102  61.11595
 103  -150.593
 104  26.60227
 105  -12.8125
 106  279.0992
 107  103.4339
 108  -26.70362
 109  -18.02749
 110  -9.984469
 111  -265.9554
 112  -26.47377
 113  54.02975
 114  -65.35455
 115  305.7213
 116  417.9685
 117  475.5364
 118  328.0782
 119  16.62137
 120  -49.65283
 121  -94.58473
 122  155.5683
 123  283.2847
 124  361.9023
 125  107.8799
 126  -39.4747
 127  -40.20721
 128  188.6445
 129  -46.24451
 130  -99.20737
 131  75.32501
 132  402.6981
 133  215.3768
 134  -18.50391
 135  -39.51429
 136  -0.5968263
 137  -254.2779
 138  -170.4015
 139  -113.6065
 140  198.793
 141  -8.192193
 142  -446.4522
 143  -586.9788
 144  -422.8477
 145  -200.3331
 146  -182.803
 147  -141.372
 148  329.9984
 149  212.6172
 150  93.34574
 151  32.55625
 152  190.9684
 153  151.6352
 154  470.3205
 155  596.0234
 156  335.4719
 157  62.27263
 158  328.4718
 159  514.4156
 160  21.61237
 161  -257.209
 162  -77.62325
 163  6.956167
 164  130.1021
 165  46.78987
 166  -319.5434
 167  -464.9426
 168  -270.5484
 169  -454.3918
 170  -203.2984
 171  105.6979
 172  25.38649
 173  132.9509
 174  -43.62931
 175  -95.48333
 176  -351.7947
 177  -106.3011
 178  -255.3269
 179  -197.7688
 180  -509.5881
 181  -508.0587
 182  -462.7956
 183  -183.5134
 184  -122.6172
 185  39.09688
 186  -373.3046
 187  -493.5147
 188  -328.5054
 189  -177.7303
 190  -309.3598
 191  -412.2505
 192  -119.8619
 193  -318.0286
 194  -382.4738
 195  -25.92353
 196  -129.2099
 197  -290.1262
 198  -211.1609
 199  -471.5367
 200  -465.1328
 201  -354.1505
 202  -580.8833
 203  -273.5849
 204  85.32893
 205  -254.8763
 206  -425.3573
 207  -6.707407
 208  -138.1123
 209  -210.7315
 210  -184.5087
 211  -69.34296
 212  -335.3866
 213  -663.1008
 214  -225.5894
 215  43.12106
 216  29.49484
 217  -734.3053
 218  -767.2775
 219  -637.59
 220  -752.2406
 221  -665.2731
 222  -607.8471
 223  -362.6128
 224  -228.8223
 225  -11.5429
 226  34.82055
 227  -199.6351
 228  -374.6094
 229  -175.4139
 230  21.4425
 231  4.405241
 232  -215.5339
 233  -640.684
 234  -717.6719
 235  -322.7841
 236  75.8732
 237  -118.7528
 238  -26.60501
 239  74.37595
 240  -112.9649
 241  -533.8414
 242  -333.1787
 243  -205.2065
 244  134.5328
 245  -204.1223
 246  20.65064
 247  250.7499
 248  21.22948
 249  -100.4114
 250  3.378342
 251  274.0012
 252  644.6608
 253  509.6488
 254  243.2701
 255  323.571
 256  225.4416
 257  74.07342
 258  252.7312
 259  450.0274
 260  375.3172
 261  494.0845
 262  313.7811
 263  372.0857
 264  563.1507
 265  656.6455
 266  407.1574
 267  529.8375
 268  682.3969
 269  493.1407
 270  260.7024
 271  368.0547
 272  776.0052
 273  806.9118
 274  931.014
 275  512.7491
 276  559.72
 277  515.2795
 278  385.5862
 279  365.8453
 280  356.5473
 281  903.407
 282  989.4552
 283  933.6142
 284  886.2625
 285  652.058
 286  427.744
 287  432.8052
 288  554.1937
 289  290.8819
 290  571.0785
 291  981.2059
 292  914.7258
 293  524.2289
 294  426.2307
 295  604.9177
 296  238.2425
 297  3.950417
 298  257.8959
 299  -239.5202
 300  -245.327
 301  109.3892
 302  371.9505
 303  350.6015
 304  459.0584
 305  321.7202
 306  34.20723
 307  78.34317
 308  -406.2539
 309  -366.1213
 310  -410.6587
 311  -102.6318
 312  -174.4602
 313  -264.5701
 314  65.28408
 315  -223.3208
 316  -261.4483
 317  -323.3635
 318  -579.3284
 319  -568.5313
 320  -355.2281
 321  -114.427
 322  -120.1963
 323  -232.2065
 324  -605.9492
 325  -660.0279
 326  -533.0213
 327  -476.4109
 328  -225.126
 329  -200.078
 330  -550.0477
 331  -340.0555
 332  -112.7804
 333  -176.355
 334  -178.2763
 335  -194.9234
 336  -263.3063
 337  -287.0494
 338  -16.5302
 339  15.51278
 340  -87.03844
 341  -36.29067
 342  -305.8139
 343  -198.187
 344  290.9772
 345  -40.9837
 346  131.1917
 347  425.3123
 348  604.6256
 349  332.847
 350  -10.62568
 351  -74.48026
 352  -190.4276
 353  138.8405
 354  588.0575
 355  466.7701
 356  395.82
 357  311.7095
 358  139.736
 359  158.1684
 360  -83.92191
 361  346.6258
 362  183.3692
 363  209.221
 364  -4.431144
 365  132.2514
 366  614.2001
 367  531.2019
 368  918.7208
 369  541.3658
 370  -37.97804
 371  169.955
 372  212.4229
 373  318.97
 374  710.1514
 375  575.7944
 376  633.6618
 377  400.2973
 378  340.8678
 379  604.3203
 380  401.5964
 381  723.2426
 382  406.6344
 383  516.3101
 384  713.3892
 385  433.8773
 386  532.3817
 387  894.4787
 388  884.8712
 389  758.4366
 390  643.5123
 391  960.4814
 392  1006.332
 393  684.3652
 394  457.2675
 395  64.28617
 396  805.6565
 397  678.762
 398  458.4726
 399  406.5799
 400  493.1357
 401  256.6708
 402  -307.692
 403  -134.3589
 404  9.728738
 405  117.7953
 406  120.3353
 407  278.6378
 408  207.9234
 409  43.37053
 410  -146.9905
 411  78.23973
 412  254.434
 413  -109.3062
 414  -93.92342
 415  324.6674
 416  181.5574
 417  210.3003
 418  278.9295
 419  148.7297
 420  58.34094
 421  115.6151
 422  -212.4438
 423  -154.965
 424  -382.0869
 425  -277.3299
 426  -24.77147
 427  -144.9452
 428  -79.43324
 429  -82.17746
 430  101.4184
 431  -113.8107
 432  -437.1716
 433  -36.93435
 434  -190.3387
 435  -128.1273
 436  -102.2273
 437  13.56929
 438  -284.1394
 439  -568.9982
 440  -446.2789
 441  -503.3159
 442  -195.8804
 443  -311.3024
 444  -314.3957
 445  -428.7306
 446  -698.7752
 447  -781.0225
 448  -572.2771
 449  -547.9082
 450  -310.4254
 451  -167.0014
 452  219.58
 453  60.46873
 454  243.453
 455  -44.57092
 456  -462.2551
 457  -294.3947
 458  -365.6395
 459  -300.0983
 460  -230.4084
 461  -284.3544
 462  -199.6251
 463  474.2611
 464  404.838
 465  82.02197
 466  -348.3556
 467  -150.8782
 468  505.6232
 469  988.2484
 470  1658.219
 471  2037.556
 472  2024.665
 473  1491.01
 474  1301.935
 475  739.7873
 476  -78.75368
 477  -41.42275
 478  -134.6932
 479  -357.2629
 480  -271.3663
 481  92.84441
 482  371.7889
 483  482.8969
 484  482.7142
 485  592.0618
 486  485.2937
 487  458.1153
 488  594.8678
 489  699.3744
 490  594.5268
 491  629.8957
 492  399.9624
 493  346.4751
 494  454.533
 495  516.4028
 496  378.4695
 497  523.9389
 498  326.465
 499  555.3842
 500  816.4069
 501  524.7081
 502  260.6562
 503  399.0376
 504  331.8432
 505  29.63874
 506  133.2236
 507  371.5678
 508  405.8742
 509  414.1624
 510  291.383
 511  176.7159
