# Input file       =  1210048853.110351-PSRB0329-2ms-sampling-dd.dat
# Candidate        =  PSR_0332+5434
# Telescope        =  AR
# Epoch_topo       =  58249.195279054991
# Epoch_bary       =  N/A
# T_sample         =  0.002
# Data Folded      =  7208960
# Data Avg         =  6.46176357276976e-10
# Data StdDev      =  7.99164669786074 
# Profile Bins     =  512
# Profile Avg      =  -0.268631918661336
# Profile StdDev   =  948.282210401245 
# Reduced chi-sqr  =  1.265
# Prob(Noise)      <  4.19e-05   (~3.9 sigma)
# P_topo (ms)      =  714.537254982324  +/- 2.49e-05
# P'_topo (s/s)    =  -0                +/- 1.34e-11
# P''_topo (s/s^2) =  0                 +/- 6.02e-15
# P_bary (ms)      =  N/A
# P'_bary (s/s)    =  N/A
# P''_bary (s/s^2) =  N/A
# P_orb (s)        =  N/A
# asin(i)/c (s)    =  N/A
# eccentricity     =  N/A
# w (rad)          =  N/A
# T_peri           =  N/A
######################################################
   0  -1259.108
   1  -916.8157
   2  393.4427
   3  679.2212
   4  757.3909
   5  415.4127
   6  -140.7634
   7  -1198.521
   8  -854.0836
   9  43.44703
  10  70.67612
  11  125.5453
  12  184.6135
  13  -147.3532
  14  -669.0555
  15  -576.9512
  16  -789.8735
  17  -790.8499
  18  81.92146
  19  567.7229
  20  622.3729
  21  262.0775
  22  314.751
  23  -553.624
  24  -1490.422
  25  -1614.179
  26  -1306.858
  27  -490.5865
  28  525.2853
  29  1579.294
  30  1518.177
  31  487.2154
  32  -581.006
  33  -1154.511
  34  -1229.623
  35  -285.0162
  36  818.0466
  37  1292.77
  38  1269.396
  39  64.08386
  40  -1027.988
  41  -1720.28
  42  -1999.963
  43  -1081.723
  44  -199.6723
  45  648.316
  46  664.5228
  47  439.4633
  48  53.31256
  49  -467.0372
  50  -1020.999
  51  -619.2169
  52  -34.13781
  53  460.6159
  54  775.2974
  55  1137.961
  56  735.1984
  57  -615.4045
  58  -991.9823
  59  -1233.21
  60  -1173.978
  61  -500.2111
  62  759.3713
  63  673.4917
  64  596.9288
  65  -201.1474
  66  -888.2203
  67  -1210.936
  68  -999.1656
  69  464.459
  70  512.3649
  71  248.5702
  72  -136.0036
  73  -815.9679
  74  -1334.632
  75  -1251.504
  76  -421.9224
  77  -552.8087
  78  66.25748
  79  -196.337
  80  -455.6565
  81  -739.0952
  82  -931.8159
  83  -519.2232
  84  -243.139
  85  554.7538
  86  511.0151
  87  877.5629
  88  484.0334
  89  -253.7296
  90  -786.1816
  91  -925.4579
  92  -321.4117
  93  -23.50222
  94  -69.70974
  95  263.4944
  96  232.5307
  97  -156.84
  98  -337.9798
  99  -639.0693
 100  -515.2382
 101  -205.2159
 102  362.6225
 103  430.8138
 104  -49.16897
 105  -309.2215
 106  -1110.052
 107  -1493.765
 108  -1314.497
 109  -674.791
 110  -69.28844
 111  718.4818
 112  -48.66677
 113  -314.1752
 114  -332.9962
 115  -1402.251
 116  -1444.45
 117  -936.4897
 118  124.7583
 119  543.6939
 120  949.3282
 121  532.79
 122  -233.6404
 123  -915.3431
 124  -1222.792
 125  -1074.28
 126  -856.944
 127  -377.2318
 128  415.8155
 129  467.4124
 130  -196.3392
 131  -672.4684
 132  -1204.359
 133  -1869.484
 134  -1279.966
 135  -322.7309
 136  411.1038
 137  646.5402
 138  453.2322
 139  -601.748
 140  -2058.617
 141  -2306.183
 142  -1883.927
 143  -1015.111
 144  -202.1819
 145  663.9507
 146  -353.1537
 147  -904.4058
 148  -1192.532
 149  -1358.255
 150  -497.8346
 151  -115.757
 152  710.4431
 153  393.9964
 154  464.0283
 155  -344.0378
 156  -1052.886
 157  -1068.191
 158  -334.1469
 159  62.99877
 160  -83.15167
 161  301.4474
 162  333.1502
 163  -178.264
 164  -540.1292
 165  -1058.618
 166  -786.7246
 167  -222.6604
 168  183.7731
 169  -230.7095
 170  306.5078
 171  -12.15842
 172  -738.1928
 173  -970.6057
 174  -1023.253
 175  -827.8461
 176  -440.887
 177  -74.97881
 178  -67.01166
 179  -367.6805
 180  -330.1075
 181  -545.147
 182  -626.8437
 183  -428.7652
 184  -85.54893
 185  502.405
 186  486.2049
 187  382.757
 188  -625.6393
 189  -1398.358
 190  -1270.856
 191  -62.74549
 192  655.4803
 193  737.3068
 194  1331.444
 195  940.858
 196  398.3718
 197  -206.9032
 198  -784.8413
 199  -642.7455
 200  -234.8416
 201  602.9548
 202  769.808
 203  858.2885
 204  484.3294
 205  -293.5476
 206  -691.3636
 207  -1111.688
 208  -1005.498
 209  -681.0583
 210  938.6345
 211  1110.042
 212  1165.01
 213  655.8945
 214  -49.20036
 215  -1084.265
 216  -1366.653
 217  128.8321
 218  1023.306
 219  1298.563
 220  1045.411
 221  331.2562
 222  -512.2471
 223  -1651.966
 224  -841.5539
 225  -303.8602
 226  238.7465
 227  797.9559
 228  831.2765
 229  -138.662
 230  -959.6743
 231  -854.8417
 232  -728.1688
 233  99.73507
 234  925.3231
 235  896.5079
 236  652.5389
 237  29.72282
 238  -453.2181
 239  -712.0413
 240  -343.4979
 241  -265.9442
 242  -339.2038
 243  205.4285
 244  430.0916
 245  244.6327
 246  143.3402
 247  311.8873
 248  410.9838
 249  -176.5441
 250  111.8683
 251  322.7586
 252  133.5935
 253  554.0152
 254  133.5376
 255  -308.7295
 256  -563.3154
 257  -103.4878
 258  51.43349
 259  -204.8159
 260  403.6812
 261  616.4883
 262  310.8545
 263  -162.5497
 264  -87.67421
 265  -443.4452
 266  -306.4899
 267  345.2939
 268  739.3528
 269  361.6075
 270  -54.67783
 271  -1250.698
 272  -1569.809
 273  -997.0526
 274  -603.7914
 275  59.56519
 276  454.7191
 277  545.9332
 278  80.20898
 279  -341.2841
 280  -285.002
 281  -316.598
 282  -33.82126
 283  391.7278
 284  966.9539
 285  1178.255
 286  602.5805
 287  60.04223
 288  -766.0245
 289  -1426.326
 290  -1092.185
 291  -197.899
 292  245.2939
 293  379.9294
 294  664.3831
 295  85.70361
 296  -655.3195
 297  -1108.367
 298  -874.8575
 299  -568.3739
 300  400.1004
 301  718.1797
 302  504.1629
 303  171.0226
 304  -542.2489
 305  -1433.605
 306  -1623.523
 307  -1209.209
 308  -633.3683
 309  -61.00874
 310  774.5905
 311  533.2325
 312  -508.2935
 313  -666.9816
 314  -546.168
 315  -521.4734
 316  198.746
 317  581.9498
 318  534.0215
 319  698.8401
 320  -94.70322
 321  -550.9772
 322  -610.0411
 323  -324.2824
 324  -83.46808
 325  493.7725
 326  553.5681
 327  216.9757
 328  73.12376
 329  168.6631
 330  133.8623
 331  51.3679
 332  302.6086
 333  424.9738
 334  567.3707
 335  245.5892
 336  169.7448
 337  -167.8066
 338  -292.5209
 339  110.3811
 340  361.6748
 341  -111.1365
 342  432.7491
 343  1185.597
 344  493.7409
 345  -357.1609
 346  118.6711
 347  550.4667
 348  550.5961
 349  1315.993
 350  1394.613
 351  562.4832
 352  367.6997
 353  333.1487
 354  8.489371
 355  -317.5439
 356  809.9084
 357  1072.118
 358  655.9939
 359  789.787
 360  504.7564
 361  68.61415
 362  -747.4545
 363  -924.1429
 364  -414.7979
 365  183.6301
 366  690.081
 367  859.1851
 368  1063.14
 369  660.6019
 370  -250.6454
 371  -1092.692
 372  -881.6945
 373  122.5242
 374  885.1791
 375  1683.449
 376  2017.965
 377  910.3967
 378  178.5774
 379  -35.02214
 380  -412.8678
 381  -126.1137
 382  884.2747
 383  1829.835
 384  1965.496
 385  1746.829
 386  398.9911
 387  -720.7524
 388  -791.2231
 389  -625.5845
 390  -111.2714
 391  430.0844
 392  1312.505
 393  1350.088
 394  495.2159
 395  -413.5984
 396  -614.2371
 397  -498.3098
 398  -259.0085
 399  747.707
 400  557.6478
 401  1394.454
 402  1108.11
 403  349.4966
 404  -413.3789
 405  -689.4836
 406  184.1411
 407  86.91248
 408  545.7434
 409  1091.237
 410  1007.503
 411  650.9179
 412  96.31392
 413  43.93087
 414  60.47397
 415  497.8938
 416  892.3841
 417  1165.505
 418  1144.63
 419  523.5212
 420  -292.0442
 421  -100.7303
 422  359.9775
 423  577.7578
 424  330.4099
 425  664.4525
 426  662.9995
 427  -72.83296
 428  -217.4742
 429  -83.65751
 430  -564.6443
 431  380.8618
 432  1024.493
 433  1030.482
 434  407.4095
 435  -42.1179
 436  -952.3632
 437  -1292.522
 438  -735.6074
 439  256.3334
 440  350.8076
 441  410.438
 442  380.9537
 443  64.99417
 444  -301.8209
 445  -256.2991
 446  -86.59479
 447  209.9885
 448  1092.166
 449  958.2868
 450  1120.69
 451  777.9289
 452  260.5175
 453  -912.2003
 454  -1211.974
 455  -696.5553
 456  -231.6048
 457  655.1197
 458  1636.67
 459  1643.562
 460  451.3351
 461  -222.7126
 462  -710.8452
 463  -741.3226
 464  -312.2937
 465  583.3839
 466  1445.669
 467  1856.92
 468  1371.606
 469  249.9905
 470  -1297.896
 471  -1332.988
 472  -905.8754
 473  -269.8929
 474  616.9286
 475  1619.795
 476  1094.312
 477  363.4816
 478  57.19987
 479  -189.783
 480  -318.3613
 481  -190.2971
 482  593.1434
 483  781.3622
 484  989.0597
 485  979.1113
 486  249.6207
 487  -192.2278
 488  -383.39
 489  -716.2221
 490  -224.3856
 491  486.2896
 492  1397.8
 493  1308.82
 494  433.2436
 495  -586.6368
 496  -608.9286
 497  -149.4077
 498  264.5912
 499  719.6418
 500  998.7863
 501  1535.447
 502  874.9766
 503  824.5546
 504  1297.577
 505  1932.254
 506  1703.505
 507  1368.822
 508  1124.299
 509  383.5327
 510  -436.8125
 511  -792.8986
