# Input file       =  1210738238.106472_cleaned.dat
# Candidate        =  PSR_0332+5434
# Telescope        =  AR
# Epoch_topo       =  58257.174272065648
# Epoch_bary       =  N/A
# T_sample         =  0.002
# Data Folded      =  7143424
# Data Avg         =  0.0331502571141659
# Data StdDev      =  1.00005012145924 
# Profile Bins     =  512
# Profile Avg      =  462.557988859832 
# Profile StdDev   =  118.124504757685 
# Reduced chi-sqr  =  1.823
# Prob(Noise)      <  6.35e-27   (~10.7 sigma)
# P_topo (ms)      =  714.529490574396  +/- 8e-05
# P'_topo (s/s)    =  -0                +/- 4.34e-11
# P''_topo (s/s^2) =  0                 +/- 1.97e-14
# P_bary (ms)      =  N/A
# P'_bary (s/s)    =  N/A
# P''_bary (s/s^2) =  N/A
# P_orb (s)        =  N/A
# asin(i)/c (s)    =  N/A
# eccentricity     =  N/A
# w (rad)          =  N/A
# T_peri           =  N/A
######################################################
   0  1368.098
   1  1314.339
   2  1093.367
   3  810.2851
   4  628.0883
   5  650.7775
   6  402.0315
   7  387.7531
   8  504.7599
   9  541.8267
  10  573.9179
  11  527.1439
  12  628.3635
  13  574.2206
  14  548.1778
  15  519.5992
  16  398.3113
  17  457.2149
  18  489.8448
  19  552.6463
  20  484.6882
  21  551.1188
  22  447.5682
  23  473.701
  24  489.3945
  25  414.8202
  26  387.3209
  27  414.1507
  28  480.5303
  29  473.8905
  30  477.5262
  31  519.2719
  32  515.3294
  33  540.3775
  34  616.5369
  35  657.7944
  36  588.6099
  37  505.2068
  38  391.6281
  39  428.1772
  40  501.5964
  41  390.499
  42  552.7014
  43  581.5131
  44  605.0106
  45  452.7144
  46  367.8113
  47  381.6807
  48  492.0525
  49  506.2487
  50  488.2244
  51  573.9048
  52  540.2908
  53  506.7706
  54  417.8512
  55  392.4856
  56  505.983
  57  597.4877
  58  589.3841
  59  544.1764
  60  467.1011
  61  478.1235
  62  494.9636
  63  493.5512
  64  452.3558
  65  480.7159
  66  392.2164
  67  494.6282
  68  590.5142
  69  500.2977
  70  468.1697
  71  430.9462
  72  344.3731
  73  473.9301
  74  499.8891
  75  438.8431
  76  423.8923
  77  484.9456
  78  469.6017
  79  248.9849
  80  298.0925
  81  401.0956
  82  408.2312
  83  467.4101
  84  536.0771
  85  412.9759
  86  434.4721
  87  465.5669
  88  570.5455
  89  408.0451
  90  198.8548
  91  344.7842
  92  366.1058
  93  443.8556
  94  516.2882
  95  421.9468
  96  278.3189
  97  156.9917
  98  285.6851
  99  262.6747
 100  470.945
 101  503.1441
 102  448.9518
 103  413.9869
 104  352.5571
 105  354.9235
 106  365.8958
 107  323.0186
 108  469.9388
 109  421.6973
 110  399.8865
 111  396.4402
 112  425.1369
 113  350.1297
 114  383.2588
 115  331.4843
 116  385.4166
 117  414.5738
 118  367.497
 119  338.3802
 120  343.9941
 121  424.1338
 122  329.2004
 123  403.2519
 124  418.1283
 125  407.5424
 126  451.8122
 127  373.9481
 128  349.6825
 129  506.2213
 130  507.9877
 131  524.428
 132  602.2089
 133  562.4368
 134  483.55
 135  439.6214
 136  491.0439
 137  372.4814
 138  409.2799
 139  392.0375
 140  408.7654
 141  529.4655
 142  603.9399
 143  523.366
 144  420.5803
 145  459.1704
 146  506.9481
 147  550.0925
 148  464.1949
 149  386.5005
 150  586.3467
 151  534.4097
 152  494.5475
 153  483.448
 154  360.3012
 155  379.3115
 156  394.8488
 157  413.7258
 158  495.055
 159  550.5332
 160  435.5078
 161  371.9975
 162  288.4672
 163  283.7176
 164  340.7468
 165  415.0146
 166  520.4165
 167  607.201
 168  643.4075
 169  581.8578
 170  259.5323
 171  256.0001
 172  338.7609
 173  352.674
 174  342.4549
 175  437.8391
 176  483.2851
 177  473.4766
 178  374.02
 179  350.1032
 180  363.3212
 181  387.457
 182  549.6773
 183  607.6284
 184  516.4397
 185  486.506
 186  477.751
 187  505.2882
 188  383.0599
 189  303.7155
 190  475.6754
 191  552.9795
 192  560.2421
 193  406.4667
 194  338.3816
 195  305.1986
 196  311.5707
 197  330.3519
 198  381.7883
 199  351.5682
 200  432.0835
 201  578.7399
 202  454.5621
 203  426.9763
 204  446.9731
 205  386.5633
 206  411.4673
 207  359.727
 208  335.8168
 209  391.7896
 210  351.9645
 211  330.1458
 212  269.1436
 213  275.0075
 214  307.2885
 215  332.4546
 216  359.6463
 217  404.4697
 218  459.0253
 219  371.3116
 220  370.0616
 221  381.0143
 222  489.7285
 223  524.0372
 224  450.9682
 225  396.9648
 226  365.5897
 227  382.2135
 228  445.1003
 229  453.2404
 230  583.8434
 231  673.8156
 232  471.1012
 233  500.5247
 234  495.0689
 235  428.6918
 236  418.8363
 237  459.9968
 238  456.7797
 239  449.8856
 240  466.7088
 241  530.572
 242  534.5483
 243  508.8257
 244  394.7463
 245  398.582
 246  404.8534
 247  415.737
 248  639.6257
 249  747.4435
 250  587.221
 251  433.1952
 252  509.5949
 253  453.8398
 254  424.4033
 255  503.695
 256  484.851
 257  499.1534
 258  509.0155
 259  528.679
 260  504.82
 261  524.0598
 262  504.0371
 263  417.7952
 264  497.5197
 265  564.028
 266  564.7817
 267  560.7135
 268  565.8781
 269  471.1184
 270  479.9651
 271  442.71
 272  447.5176
 273  514.5535
 274  625.694
 275  514.6766
 276  404.6084
 277  554.5883
 278  426.5358
 279  461.5834
 280  547.4089
 281  562.6878
 282  508.7755
 283  467.189
 284  481.8689
 285  542.1264
 286  567.9541
 287  641.8934
 288  577.6913
 289  509.0174
 290  544.8273
 291  458.968
 292  409.6089
 293  545.6838
 294  473.7497
 295  330.7504
 296  457.8032
 297  526.73
 298  463.6216
 299  442.8381
 300  402.5093
 301  375.9529
 302  270.8456
 303  396.2848
 304  373.2166
 305  392.277
 306  370.6598
 307  415.7658
 308  477.4196
 309  544.3762
 310  480.1385
 311  474.4891
 312  488.1253
 313  389.0266
 314  476.2657
 315  506.9433
 316  512.8216
 317  461.4923
 318  443.6493
 319  410.0944
 320  358.1126
 321  426.5249
 322  540.0809
 323  483.6355
 324  548.2012
 325  576.1551
 326  523.385
 327  365.6311
 328  448.8576
 329  444.2726
 330  459.7194
 331  556.8521
 332  592.1911
 333  604.601
 334  521.0974
 335  430.0596
 336  294.3155
 337  317.0552
 338  436.6264
 339  422.8442
 340  447.636
 341  643.1682
 342  541.3718
 343  369.4777
 344  367.9789
 345  317.0121
 346  446.3188
 347  490.7372
 348  488.5934
 349  502.6778
 350  556.6335
 351  430.1946
 352  409.1592
 353  500.0757
 354  510.9182
 355  392.8237
 356  336.146
 357  535.7077
 358  640.674
 359  553.0844
 360  510.0697
 361  388.4448
 362  430.3934
 363  460.316
 364  340.9849
 365  500.1044
 366  563.8408
 367  494.0074
 368  434.8433
 369  387.2811
 370  335.9394
 371  426.1989
 372  476.8852
 373  437.0518
 374  459.3007
 375  501.728
 376  483.4724
 377  460.0163
 378  427.5355
 379  615.6446
 380  609.3766
 381  506.5283
 382  517.3813
 383  547.9731
 384  541.5638
 385  454.4491
 386  406.9837
 387  376.8393
 388  433.0374
 389  347.2576
 390  434.3044
 391  553.8381
 392  407.3357
 393  382.5423
 394  398.3733
 395  517.9543
 396  615.4832
 397  549.8967
 398  498.3029
 399  503.4486
 400  431.1377
 401  329.8548
 402  428.7372
 403  385.5955
 404  403.5265
 405  405.7462
 406  369.8217
 407  406.4494
 408  504.714
 409  380.3386
 410  400.5416
 411  474.1186
 412  408.9826
 413  448.8944
 414  518.6545
 415  543.4105
 416  463.8108
 417  403.4059
 418  473.9519
 419  411.5632
 420  393.3936
 421  372.4483
 422  404.915
 423  403.6002
 424  401.1525
 425  413.5334
 426  327.0648
 427  424.9691
 428  359.9944
 429  418.9636
 430  416.0305
 431  456.1387
 432  421.2662
 433  290.9111
 434  209.0962
 435  202.1513
 436  362.3336
 437  298.261
 438  379.0455
 439  563.642
 440  478.259
 441  345.3243
 442  421.5125
 443  481.5438
 444  364.0692
 445  284.7567
 446  396.2779
 447  583.408
 448  525.4282
 449  569.141
 450  578.5711
 451  482.2358
 452  432.0456
 453  474.9587
 454  404.4499
 455  389.3702
 456  443.0575
 457  457.8238
 458  546.5515
 459  500.4763
 460  354.5418
 461  421.5829
 462  528.9287
 463  447.3037
 464  447.1145
 465  424.6739
 466  363.1627
 467  481.0216
 468  441.7648
 469  427.2753
 470  483.0469
 471  412.3481
 472  379.0998
 473  393.594
 474  524.0424
 475  468.5605
 476  285.9821
 477  352.9909
 478  502.9142
 479  472.7598
 480  433.8744
 481  463.7826
 482  438.7653
 483  444.7806
 484  333.9564
 485  379.3341
 486  396.4516
 487  552.5655
 488  492.4891
 489  486.8029
 490  581.3487
 491  456.4804
 492  373.2989
 493  430.1745
 494  546.5149
 495  511.7385
 496  492.8605
 497  534.8341
 498  626.4064
 499  516.4548
 500  390.8554
 501  447.9114
 502  501.8121
 503  493.2782
 504  415.4131
 505  495.0519
 506  586.067
 507  588.5229
 508  664.2717
 509  820.4439
 510  990.2982
 511  1232.329
