# Input file       =  1210307400.123657-PSRB0329-2ms-sampling-dd.dat
# Candidate        =  PSR_0332+5434
# Telescope        =  AR
# Epoch_topo       =  58252.187721338625
# Epoch_bary       =  N/A
# T_sample         =  0.002
# Data Folded      =  7208960
# Data Avg         =  4.15804448913068e-11
# Data StdDev      =  7.02741774377771 
# Profile Bins     =  512
# Profile Avg      =  0.019076975422975
# Profile StdDev   =  833.867597433495 
# Reduced chi-sqr  =  0.559
# Prob(Noise)      <  1   (~0.0 sigma)
# P_topo (ms)      =  714.53436845543   +/- 4.61e-05
# P'_topo (s/s)    =  -0                +/- 2.48e-11
# P''_topo (s/s^2) =  0                 +/- 1.11e-14
# P_bary (ms)      =  N/A
# P'_bary (s/s)    =  N/A
# P''_bary (s/s^2) =  N/A
# P_orb (s)        =  N/A
# asin(i)/c (s)    =  N/A
# eccentricity     =  N/A
# w (rad)          =  N/A
# T_peri           =  N/A
######################################################
   0  -63.71748
   1  -543.1923
   2  -342.4194
   3  78.67299
   4  -128.5717
   5  -399.5773
   6  40.42768
   7  340.933
   8  746.368
   9  1130.293
  10  1530.042
  11  2244.829
  12  2087.432
  13  1371.893
  14  464.3048
  15  4.264805
  16  -109.0024
  17  -544.2704
  18  -159.5218
  19  -62.08832
  20  -171.2983
  21  -602.2867
  22  -480.509
  23  -608.8184
  24  -602.621
  25  -206.8636
  26  -275.7687
  27  102.8485
  28  -66.21528
  29  -602.395
  30  -1062.022
  31  -906.0297
  32  -549.7606
  33  -410.129
  34  -681.8795
  35  -380.2466
  36  -341.9281
  37  -421.1919
  38  -838.9406
  39  -830.4537
  40  -859.9225
  41  -704.2076
  42  -724.128
  43  -615.03
  44  20.38463
  45  17.7052
  46  -12.6281
  47  -533.8813
  48  56.23015
  49  -296.6096
  50  -893.2706
  51  -659.7278
  52  -386.1592
  53  -190.6488
  54  -588.6907
  55  -304.1357
  56  362.6211
  57  783.9181
  58  239.1183
  59  -349.5883
  60  -834.0848
  61  -531.6973
  62  -37.11904
  63  -1.062242
  64  212.4582
  65  100.3939
  66  -242.8982
  67  -579.5806
  68  -441.9509
  69  51.64725
  70  -306.2189
  71  -555.9537
  72  -421.8165
  73  -91.22975
  74  -19.42846
  75  -63.97221
  76  -134.8434
  77  304.0209
  78  353.8759
  79  -393.6523
  80  -234.506
  81  373.5423
  82  194.8761
  83  126.1436
  84  1.585829
  85  26.64241
  86  1.675154
  87  -378.247
  88  -243.1644
  89  732.7661
  90  741.2847
  91  203.4846
  92  -95.09361
  93  136.1635
  94  522.9971
  95  -65.19962
  96  -117.9811
  97  159.4546
  98  208.3384
  99  123.982
 100  169.0141
 101  452.1094
 102  815.2677
 103  493.8177
 104  -135.2874
 105  183.5693
 106  20.5609
 107  85.99603
 108  112.3898
 109  52.58523
 110  207.0373
 111  160.8875
 112  -93.11482
 113  -11.46842
 114  417.9642
 115  692.952
 116  500.069
 117  139.9698
 118  929.2302
 119  732.9626
 120  -126.798
 121  -101.8501
 122  -157.3577
 123  49.95095
 124  131.4214
 125  141.7462
 126  375.9365
 127  877.1242
 128  726.713
 129  34.95827
 130  -168.9009
 131  483.123
 132  885.848
 133  596.4534
 134  556.973
 135  934.7917
 136  946.215
 137  -77.25768
 138  275.1717
 139  429.0107
 140  459.6017
 141  23.32857
 142  17.09816
 143  301.5253
 144  346.0116
 145  277.5867
 146  -55.30178
 147  351.7447
 148  726.2672
 149  537.0901
 150  354.6036
 151  411.0458
 152  694.1097
 153  245.7461
 154  55.30952
 155  214.3939
 156  518.9324
 157  228.5159
 158  224.4815
 159  91.67603
 160  424.909
 161  187.6724
 162  95.53497
 163  166.6486
 164  322.3881
 165  512.2669
 166  504.962
 167  621.8732
 168  726.0065
 169  394.2819
 170  140.6553
 171  -138.2066
 172  266.5044
 173  625.3161
 174  587.4022
 175  539.2573
 176  -77.06224
 177  908.924
 178  335.3843
 179  281.6723
 180  522.2179
 181  49.40633
 182  -376.4397
 183  -52.54974
 184  474.9541
 185  857.7925
 186  689.4697
 187  591.9146
 188  455.3092
 189  191.242
 190  198.7947
 191  60.30617
 192  766.1135
 193  882.5521
 194  129.7504
 195  -108.0644
 196  456.0481
 197  718.9957
 198  886.6395
 199  622.048
 200  526.4786
 201  1038.791
 202  555.4115
 203  96.04269
 204  162.3264
 205  231.3715
 206  -199.8228
 207  -34.92471
 208  -47.22704
 209  543.188
 210  564.8756
 211  271.1494
 212  194.5353
 213  -48.71873
 214  176.2952
 215  -468.1222
 216  -603.8033
 217  360.3889
 218  93.11752
 219  75.04964
 220  -299.8281
 221  -357.6591
 222  -547.5001
 223  -1003.877
 224  -835.6471
 225  -451.6138
 226  -150.2963
 227  27.88852
 228  347.0019
 229  -193.7126
 230  88.37495
 231  242.3925
 232  -482.5763
 233  -578.8821
 234  61.27367
 235  -67.37648
 236  -296.0175
 237  -273.9334
 238  153.1219
 239  232.3928
 240  -474.0961
 241  -625.9955
 242  -352.2903
 243  -463.2126
 244  -485.0853
 245  -543.6439
 246  -3.272204
 247  54.15214
 248  -259.6375
 249  -148.426
 250  -251.4195
 251  -4.616957
 252  -515.407
 253  -745.6282
 254  -200.5663
 255  -514.8651
 256  -702.0767
 257  -546.8785
 258  -23.02505
 259  206.67
 260  181.1694
 261  -367.562
 262  -205.5484
 263  -396.4677
 264  -631.2776
 265  -1102.565
 266  -584.2307
 267  312.7856
 268  425.0837
 269  16.29232
 270  -387.4961
 271  -474.9148
 272  -570.1462
 273  -556.3013
 274  -39.74092
 275  247.3405
 276  102.1383
 277  -545.8234
 278  -1132.881
 279  -741.1836
 280  -369.9503
 281  294.0143
 282  -1.899127
 283  123.3427
 284  375.2035
 285  -320.7435
 286  -651.2939
 287  -340.8036
 288  -151.7665
 289  -476.2064
 290  -305.8172
 291  -187.058
 292  32.46875
 293  425.1563
 294  -137.9012
 295  67.1983
 296  14.08729
 297  -633.0174
 298  -718.8734
 299  -477.0771
 300  325.5562
 301  356.9771
 302  272.6418
 303  -33.44056
 304  86.68508
 305  -69.87225
 306  -894.0876
 307  -708.799
 308  327.8398
 309  353.6491
 310  -221.3654
 311  -237.7288
 312  -186.2907
 313  -290.6643
 314  -77.90804
 315  -263.1805
 316  -160.5003
 317  -126.9715
 318  -183.2426
 319  -688.246
 320  36.52678
 321  629.1493
 322  338.3947
 323  -264.4866
 324  -78.09514
 325  311.3638
 326  -153.1736
 327  -10.92685
 328  204.4079
 329  391.992
 330  288.9929
 331  -220.9235
 332  9.171821
 333  418.2667
 334  635.0804
 335  525.2599
 336  155.2019
 337  -43.23413
 338  78.15646
 339  -239.653
 340  29.59573
 341  116.7832
 342  79.95847
 343  -316.9125
 344  -695.484
 345  -666.9303
 346  -712.9063
 347  -475.473
 348  -137.1643
 349  105.9468
 350  378.1545
 351  -147.536
 352  -517.9965
 353  -741.61
 354  -219.7297
 355  -333.3515
 356  -198.5983
 357  603.9266
 358  963.5245
 359  625.447
 360  -340.9236
 361  -792.7057
 362  -376.0616
 363  -579.6642
 364  -597.9421
 365  -436.7
 366  255.8076
 367  796.8298
 368  300.422
 369  -307.9228
 370  -397.985
 371  -410.456
 372  -227.3511
 373  49.83992
 374  126.6577
 375  129.0082
 376  -87.04508
 377  -151.4888
 378  -152.5422
 379  189.6145
 380  -148.4952
 381  -201.3227
 382  -147.9663
 383  399.3314
 384  317.2909
 385  8.945118
 386  -178.1497
 387  230.1687
 388  111.0736
 389  113.7877
 390  -226.3473
 391  247.4389
 392  -272.745
 393  -387.0783
 394  250.5527
 395  145.6579
 396  -158.4741
 397  -134.7552
 398  -175.4473
 399  146.8831
 400  -147.6416
 401  -169.1666
 402  -95.64739
 403  753.7734
 404  1004.467
 405  444.1548
 406  629.6381
 407  101.7517
 408  9.075732
 409  -221.3862
 410  71.18247
 411  449.6645
 412  944.7479
 413  817.8381
 414  2.060894
 415  -83.84141
 416  17.78254
 417  -45.5672
 418  151.5983
 419  571.553
 420  706.0377
 421  593.0283
 422  32.77166
 423  -213.9432
 424  340.6559
 425  586.337
 426  -91.83237
 427  -314.92
 428  257.8852
 429  403.9531
 430  106.3275
 431  305.3685
 432  599.942
 433  555.4545
 434  -275.0295
 435  -592.9775
 436  -365.7202
 437  -153.1505
 438  -509.8467
 439  -298.2209
 440  378.4773
 441  396.0029
 442  104.9719
 443  -446.04
 444  -217.4637
 445  -254.7397
 446  -408.8498
 447  -445.5881
 448  -211.9657
 449  287.0227
 450  506.1703
 451  310.2236
 452  197.2758
 453  28.77693
 454  -167.1784
 455  -443.7617
 456  -141.9013
 457  381.1134
 458  210.2686
 459  -191.6002
 460  -503.5899
 461  -463.9382
 462  -668.7006
 463  -310.9321
 464  -180.9171
 465  367.2836
 466  601.9935
 467  -429.3188
 468  -621.5912
 469  -561.3196
 470  -998.8884
 471  -502.2919
 472  137.1345
 473  161.6709
 474  336.3187
 475  138.0518
 476  -398.3358
 477  -334.9305
 478  -496.4552
 479  -769.7957
 480  -533.8594
 481  -376.9122
 482  -20.40489
 483  -235.9414
 484  -442.0284
 485  -280.4534
 486  201.8518
 487  338.4512
 488  -158.3607
 489  -419.0251
 490  -18.96861
 491  381.403
 492  68.07249
 493  -19.52316
 494  497.1917
 495  240.029
 496  -89.02316
 497  -178.2093
 498  153.2076
 499  -255.6644
 500  -651.642
 501  -397.1473
 502  259.0282
 503  76.95473
 504  4.989452
 505  -419.6938
 506  -151.8073
 507  73.45571
 508  -255.1429
 509  -517.5134
 510  -666.4708
 511  -422.161
