# Input file       =  1210235853.118703-PSRB0329-2ms-sampling-dd.dat
# Candidate        =  PSR_0332+5434
# Telescope        =  AR
# Epoch_topo       =  58251.359631003506
# Epoch_bary       =  N/A
# T_sample         =  0.002
# Data Folded      =  7340032
# Data Avg         =  7.35720302028737e-10
# Data StdDev      =  6.99054919987554 
# Profile Bins     =  512
# Profile Avg      =  -2.51681665106289
# Profile StdDev   =  836.999681642271 
# Reduced chi-sqr  =  0.652
# Prob(Noise)      <  1   (~0.0 sigma)
# P_topo (ms)      =  714.535184267206  +/- 0.000685
# P'_topo (s/s)    =  -0                +/- 3.62e-10
# P''_topo (s/s^2) =  0                 +/- 1.6e-13
# P_bary (ms)      =  N/A
# P'_bary (s/s)    =  N/A
# P''_bary (s/s^2) =  N/A
# P_orb (s)        =  N/A
# asin(i)/c (s)    =  N/A
# eccentricity     =  N/A
# w (rad)          =  N/A
# T_peri           =  N/A
######################################################
   0  -379.971
   1  -576.2193
   2  -597.7048
   3  -518.8387
   4  -620.1516
   5  -415.7825
   6  -429.6941
   7  -416.4402
   8  -234.6013
   9  -144.5303
  10  -339.1572
  11  -549.7459
  12  -530.4469
  13  -378.6323
  14  15.86317
  15  -143.72
  16  -329.0649
  17  -459.4238
  18  -506.745
  19  -403.567
  20  -542.8113
  21  -724.2307
  22  -704.7422
  23  -660.8621
  24  -573.1954
  25  -736.9946
  26  -709.6484
  27  -717.3246
  28  -919.1884
  29  -538.7314
  30  -417.3784
  31  -819.223
  32  -897.2568
  33  -777.4016
  34  -478.8347
  35  -482.1166
  36  -891.0016
  37  -1097.349
  38  -867.0386
  39  -632.3649
  40  -717.1078
  41  -765.8048
  42  -1002.833
  43  -665.3583
  44  -102.5181
  45  -415.2318
  46  -442.2531
  47  -372.4534
  48  -200.7366
  49  -472.4522
  50  -451.084
  51  -218.0315
  52  -347.0123
  53  -443.8066
  54  -217.0029
  55  -41.1213
  56  227.1761
  57  70.06572
  58  42.88287
  59  4.996109
  60  417.0933
  61  533.603
  62  252.0586
  63  238.489
  64  598.9045
  65  354.0806
  66  382.3341
  67  372.0744
  68  335.2195
  69  655.6451
  70  1160.479
  71  1211.145
  72  1205.428
  73  964.8597
  74  795.4357
  75  794.5392
  76  977.4307
  77  966.599
  78  1050.391
  79  972.8207
  80  1107.13
  81  910.33
  82  811.7366
  83  945.2338
  84  1244.196
  85  603.6439
  86  783.6077
  87  571.5602
  88  486.8533
  89  313.7697
  90  283.9457
  91  858.5937
  92  961.2576
  93  1002.375
  94  1035.243
  95  1120.618
  96  911.0549
  97  1010.268
  98  696.219
  99  966.6384
 100  821.5094
 101  644.4185
 102  940.8282
 103  1089.783
 104  1108.241
 105  1013.299
 106  960.8926
 107  1172.882
 108  1109.656
 109  911.7443
 110  1242.548
 111  1006.384
 112  478.3537
 113  316.183
 114  587.4742
 115  556.4513
 116  437.778
 117  335.8749
 118  343.25
 119  197.9627
 120  320.2603
 121  121.7152
 122  -69.96379
 123  48.91275
 124  273.916
 125  246.6355
 126  86.97823
 127  61.5086
 128  -17.02069
 129  -83.80059
 130  -181.648
 131  -56.80125
 132  -235.3847
 133  -419.0009
 134  -430.5398
 135  -328.1479
 136  91.57153
 137  53.04462
 138  -147.0241
 139  -232.4608
 140  -297.3932
 141  -272.4381
 142  -183.6919
 143  -79.18745
 144  -71.8121
 145  150.1695
 146  55.18965
 147  -465.9785
 148  -436.8905
 149  -659.6573
 150  -225.0156
 151  -341.6557
 152  25.40951
 153  93.38559
 154  -104.8397
 155  -226.3873
 156  -456.8661
 157  -391.6658
 158  -388.9012
 159  -370.7148
 160  -396.8064
 161  -224.7534
 162  -494.5695
 163  -279.467
 164  -304.5228
 165  -549.7166
 166  -446.4881
 167  -262.3731
 168  -200.5903
 169  -190.9572
 170  -314.777
 171  -765.6964
 172  -507.3554
 173  -202.2224
 174  -308.6965
 175  -427.5312
 176  -400.6793
 177  -400.2411
 178  -413.5206
 179  -400.3627
 180  -303.4069
 181  -307.002
 182  -208.4762
 183  -356.8627
 184  -117.4198
 185  173.2711
 186  150.8879
 187  138.9473
 188  -45.20339
 189  329.8081
 190  257.4312
 191  468.5565
 192  283.5699
 193  302.0295
 194  376.9324
 195  526.3575
 196  396.4607
 197  542.562
 198  493.2705
 199  286.7499
 200  379.0326
 201  290.8416
 202  352.9251
 203  184.8183
 204  69.19601
 205  294.0559
 206  500.6744
 207  318.7947
 208  482.5028
 209  516.5672
 210  447.9658
 211  599.1583
 212  533.9763
 213  213.0964
 214  -259.9836
 215  25.21063
 216  335.3005
 217  508.3571
 218  350.276
 219  225.0194
 220  -38.86119
 221  -4.519765
 222  -264.2329
 223  -226.7571
 224  -106.522
 225  -435.7923
 226  -516.1197
 227  -500.8708
 228  -212.0557
 229  -415.5049
 230  -407.258
 231  -362.1855
 232  -102.4521
 233  -217.7218
 234  -398.9958
 235  -228.9658
 236  -597.083
 237  -600.0751
 238  -324.2708
 239  -229.9683
 240  187.2051
 241  -2.960062
 242  -469.8963
 243  -367.1672
 244  -518.2784
 245  -246.7629
 246  -168.375
 247  -109.1885
 248  -256.3774
 249  -327.6823
 250  -304.5216
 251  -655.759
 252  -424.3231
 253  -417.0059
 254  -73.99199
 255  -225.506
 256  -652.1761
 257  -851.7172
 258  -533.6805
 259  -537.3705
 260  -451.6888
 261  -290.4328
 262  -340.6565
 263  44.80066
 264  -219.8828
 265  -313.2901
 266  -434.3438
 267  -390.8614
 268  -58.31286
 269  94.29027
 270  -68.04061
 271  -139.492
 272  -43.59836
 273  70.17673
 274  15.13407
 275  -382.8489
 276  -227.1668
 277  -180.028
 278  -227.9552
 279  -335.6198
 280  -23.00376
 281  -69.63005
 282  -213.3508
 283  225.7254
 284  211.4415
 285  306.114
 286  -29.59351
 287  82.96315
 288  16.38473
 289  60.894
 290  241.0547
 291  156.5244
 292  -52.45499
 293  -169.9507
 294  -49.1765
 295  -151.0604
 296  -71.41076
 297  250.2447
 298  112.2632
 299  14.27952
 300  -94.54287
 301  160.8597
 302  -96.26236
 303  176.7707
 304  103.6496
 305  -155.8588
 306  -291.5358
 307  -307.8094
 308  -163.937
 309  -216.3575
 310  -77.66502
 311  -179.2472
 312  -88.25513
 313  -211.5531
 314  -81.14313
 315  -108.6829
 316  -541.665
 317  -130.0282
 318  -124.4131
 319  -9.693505
 320  96.30586
 321  -60.4291
 322  -122.9567
 323  -150.5279
 324  -156.8344
 325  -14.79081
 326  -37.81585
 327  -97.05766
 328  -161.0304
 329  -640.5869
 330  -497.7951
 331  85.10607
 332  17.67969
 333  89.06606
 334  296.7841
 335  164.3124
 336  -91.08955
 337  137.9247
 338  211.0441
 339  549.5062
 340  667.0529
 341  916.1314
 342  512.4659
 343  516.892
 344  515.3627
 345  816.5847
 346  697.011
 347  622.4984
 348  564.9076
 349  638.7195
 350  311.1421
 351  135.8042
 352  296.0416
 353  507.6483
 354  512.607
 355  -261.0217
 356  -25.87914
 357  -288.849
 358  -591.8872
 359  -194.7142
 360  -8.418901
 361  27.82254
 362  -189.0977
 363  -248.0179
 364  -204.5722
 365  -113.1317
 366  344.2866
 367  408.0424
 368  -41.48421
 369  -366.0277
 370  -311.3409
 371  -227.1258
 372  -323.0087
 373  -317.9966
 374  -558.1207
 375  -742.9825
 376  -530.1024
 377  -692.293
 378  -579.2039
 379  -385.0004
 380  -378.8391
 381  -483.5341
 382  -493.5761
 383  -337.0829
 384  -350.9906
 385  -472.1134
 386  -466.4646
 387  -151.951
 388  -319.2214
 389  -546.15
 390  -540.907
 391  -543.0106
 392  -762.5771
 393  -659.9022
 394  -635.1072
 395  -591.4181
 396  -615.4251
 397  -485.5849
 398  -84.44579
 399  -660.042
 400  -787.9658
 401  -765.892
 402  -308.4581
 403  -103.565
 404  -417.633
 405  -317.4489
 406  -416.7401
 407  -628.7902
 408  -475.5172
 409  -179.0182
 410  -533.9124
 411  -532.4767
 412  -431.9932
 413  -31.46454
 414  -238.7858
 415  -89.72572
 416  -74.63712
 417  -378.5517
 418  -470.8528
 419  -273.9725
 420  -47.24733
 421  -289.1502
 422  -253.9114
 423  -286.5038
 424  -212.5486
 425  -505.8069
 426  -393.9013
 427  46.70432
 428  -4.74191
 429  -305.5112
 430  -506.2138
 431  -214.9964
 432  -350.4966
 433  -325.8101
 434  -180.3947
 435  -63.27768
 436  258.1486
 437  609.6672
 438  906.679
 439  1335.402
 440  2006.26
 441  2109.12
 442  1759.593
 443  1664.203
 444  763.3483
 445  -22.65077
 446  15.66446
 447  433.217
 448  248.2591
 449  -42.27158
 450  -73.10699
 451  -238.3673
 452  -91.46427
 453  150.0106
 454  159.2772
 455  221.3335
 456  -131.6187
 457  -116.2956
 458  -27.85065
 459  123.2295
 460  264.6736
 461  36.64037
 462  34.6783
 463  389.1303
 464  463.751
 465  545.0171
 466  401.2693
 467  362.4557
 468  201.7844
 469  175.4663
 470  193.4213
 471  245.1846
 472  372.7973
 473  61.06857
 474  -186.5951
 475  88.86919
 476  344.9835
 477  271.4024
 478  337.9455
 479  507.4262
 480  329.5562
 481  274.1465
 482  132.7973
 483  149.9017
 484  656.2597
 485  558.0909
 486  675.9276
 487  550.207
 488  325.063
 489  518.0647
 490  289.3242
 491  143.2574
 492  132.7977
 493  299.8707
 494  268.9185
 495  120.5126
 496  252.8509
 497  238.3785
 498  19.61713
 499  24.98795
 500  460.8827
 501  420.8593
 502  198.9889
 503  -84.47134
 504  357.0013
 505  281.8477
 506  -147.8031
 507  -450.4711
 508  -257.6632
 509  -113.9979
 510  -550.0536
 511  -559.9399
