# Input file       =  1210250771.112735_cleaned.dat
# Candidate        =  PSR_0332+5434
# Telescope        =  AR
# Epoch_topo       =  58251.532292971468
# Epoch_bary       =  N/A
# T_sample         =  0.002
# Data Folded      =  7340032
# Data Avg         =  0.183122314267426
# Data StdDev      =  4.37375863497485 
# Profile Bins     =  512
# Profile Avg      =  2624.97888147701 
# Profile StdDev   =  523.683401744638 
# Reduced chi-sqr  =  1.001
# Prob(Noise)      <  0.488   (~0.0 sigma)
# P_topo (ms)      =  714.535352038526  +/- 0.000474
# P'_topo (s/s)    =  -0                +/- 2.5e-10
# P''_topo (s/s^2) =  0                 +/- 1.1e-13
# P_bary (ms)      =  N/A
# P'_bary (s/s)    =  N/A
# P''_bary (s/s^2) =  N/A
# P_orb (s)        =  N/A
# asin(i)/c (s)    =  N/A
# eccentricity     =  N/A
# w (rad)          =  N/A
# T_peri           =  N/A
######################################################
   0  2525.544
   1  2404.282
   2  2066.546
   3  1995.036
   4  2434.286
   5  2400.015
   6  2166.009
   7  2712.647
   8  3172.262
   9  2962.811
  10  2710.374
  11  2845.112
  12  2829.274
  13  2929.068
  14  2998.487
  15  2789.759
  16  2732.633
  17  3157.503
  18  3410.418
  19  2996.291
  20  2950.894
  21  3012.577
  22  2963.34
  23  3073.519
  24  3014.536
  25  3126.996
  26  3178.638
  27  3030.193
  28  3099.322
  29  3186.014
  30  2986.631
  31  2952.521
  32  2788.501
  33  2867.102
  34  2641.844
  35  2139.015
  36  1891.064
  37  2186.943
  38  2566.975
  39  2606.736
  40  2367.013
  41  2682.74
  42  2594.003
  43  2230.554
  44  2143.789
  45  2534.049
  46  2399.524
  47  2520.314
  48  2693.664
  49  2628.369
  50  2578.934
  51  2654.822
  52  2799.046
  53  3012.36
  54  3192.925
  55  2946.153
  56  2902.137
  57  2666.938
  58  2829.463
  59  3082.325
  60  2705.63
  61  2705.065
  62  2642.33
  63  2924.495
  64  2796.908
  65  2788.653
  66  2736.135
  67  2839.266
  68  3139.151
  69  2898.718
  70  2827.506
  71  2221.169
  72  2376.377
  73  2598.961
  74  2340.415
  75  2396.253
  76  2563.437
  77  2447.278
  78  2419.225
  79  2581.969
  80  2992.36
  81  2737.735
  82  2961.389
  83  3035.19
  84  2654.952
  85  2769.215
  86  2516.503
  87  2392.234
  88  2381.142
  89  2754.094
  90  2756.905
  91  2461.667
  92  2823.759
  93  2737.074
  94  2681.032
  95  2985.897
  96  2775.513
  97  2436.691
  98  2543.132
  99  2496.925
 100  2555.538
 101  2685.272
 102  3129.523
 103  3030.695
 104  2757.946
 105  2767.45
 106  2808.188
 107  2744.5
 108  2903.792
 109  2783.674
 110  2957.285
 111  3085.943
 112  3008.531
 113  2577.479
 114  2424.047
 115  2673.532
 116  2498.776
 117  2564.689
 118  2688.347
 119  2588.353
 120  2471.467
 121  2335.325
 122  2296.37
 123  1961.298
 124  2168.62
 125  2591.892
 126  2232.027
 127  1960.43
 128  2545.795
 129  2601.859
 130  2488.101
 131  2039.824
 132  1964.25
 133  2096.083
 134  2044.464
 135  2150.918
 136  2369.798
 137  2419.437
 138  2490.412
 139  2665.205
 140  2683.909
 141  2638.229
 142  2652.107
 143  2912.693
 144  3055.123
 145  2812.56
 146  2426.578
 147  2455.678
 148  2754.171
 149  2907.063
 150  2837.444
 151  2827.282
 152  2880.803
 153  2985.407
 154  2910.277
 155  2528.155
 156  2296.286
 157  2334.512
 158  2367.429
 159  2452.773
 160  2426.927
 161  2374.005
 162  2042.344
 163  2312.807
 164  2111.615
 165  1879.277
 166  2079.097
 167  2042.044
 168  1891.386
 169  2098.254
 170  1985.842
 171  1793.376
 172  1801.055
 173  1940.816
 174  1934.867
 175  1961.298
 176  1844.318
 177  1806.746
 178  1943.168
 179  2335.252
 180  2251.361
 181  2125.682
 182  2572.973
 183  2728.06
 184  2525.644
 185  2556.509
 186  2562.646
 187  2309.778
 188  2202.417
 189  2534.206
 190  2191.577
 191  1971.288
 192  2209.659
 193  2420.796
 194  2585.893
 195  2281.891
 196  2284.674
 197  2089.417
 198  1819.472
 199  1824.253
 200  1935.493
 201  2182.461
 202  2281.111
 203  2413.677
 204  2772.524
 205  2376.973
 206  2256.824
 207  2323.281
 208  2067.156
 209  2263.801
 210  2203.479
 211  2341.801
 212  2513.764
 213  2403.76
 214  2269.084
 215  2043.677
 216  2311.295
 217  2429.849
 218  2644.745
 219  2725.266
 220  2639.056
 221  3089.854
 222  3073.381
 223  3056.801
 224  2772.67
 225  2594.551
 226  2588.411
 227  2604.287
 228  3063.922
 229  2986.025
 230  2795.335
 231  2929.744
 232  2599.155
 233  2457.475
 234  2653.257
 235  2866.919
 236  2905.139
 237  2722.419
 238  2624.213
 239  2810.769
 240  2614.451
 241  3011.612
 242  3138.423
 243  2810.323
 244  2937.884
 245  3084.059
 246  2952.92
 247  2584.834
 248  2528.972
 249  2669.923
 250  2407.198
 251  2321.146
 252  3272.459
 253  2958.155
 254  2658.814
 255  2418.979
 256  2155.658
 257  2468.499
 258  2339.185
 259  2769.157
 260  2416.249
 261  2545.062
 262  2688.928
 263  2609.835
 264  2283.556
 265  2267.885
 266  2378.47
 267  2293.439
 268  2708.197
 269  2272.862
 270  2510.658
 271  2526.544
 272  2630.282
 273  2604.396
 274  2644.593
 275  2688.012
 276  2819.591
 277  3039.859
 278  2683.493
 279  2635.904
 280  2761.834
 281  3090.761
 282  2771.226
 283  2743.331
 284  2647.452
 285  2615.062
 286  2600.673
 287  2277.831
 288  2360.999
 289  2661.561
 290  3030.959
 291  3009.748
 292  2861.331
 293  2697.095
 294  3099.005
 295  3254.174
 296  3417.372
 297  3777.104
 298  4281.925
 299  4824.316
 300  4890.655
 301  4694.592
 302  4166.355
 303  3524.427
 304  2828.13
 305  2615.248
 306  2419.923
 307  2658.005
 308  2956.555
 309  3059.378
 310  2987.929
 311  2948.555
 312  3040.637
 313  3238.596
 314  3186.729
 315  2890.532
 316  2985.452
 317  3113.752
 318  2840.392
 319  2976.614
 320  3109.447
 321  2959.944
 322  2763.919
 323  2454.9
 324  2428.354
 325  2398.773
 326  2534.993
 327  2334.138
 328  2544.518
 329  2612.644
 330  2465.139
 331  2666.548
 332  2644.578
 333  2645.966
 334  2658.422
 335  2953.263
 336  2934.468
 337  2690.942
 338  2946.684
 339  2893.847
 340  2814.941
 341  2731.311
 342  2613.479
 343  2777.497
 344  2975.661
 345  2984.882
 346  2789.845
 347  3057.859
 348  2945.017
 349  2645.703
 350  2685.704
 351  2900.176
 352  2946.509
 353  2827.955
 354  2757.975
 355  2786.528
 356  2879.09
 357  2881.051
 358  3142.017
 359  2794.049
 360  2709.183
 361  2447.761
 362  2561.621
 363  2691.973
 364  2190.6
 365  2129.765
 366  2489.165
 367  2583.585
 368  2347.326
 369  2449.461
 370  2595.76
 371  2364.96
 372  2190.366
 373  1733.358
 374  1821.961
 375  2113.863
 376  2440.703
 377  2561.366
 378  2203.683
 379  2277.318
 380  2193.618
 381  2024.159
 382  2240.58
 383  2131.733
 384  2067.591
 385  2202.802
 386  2164.005
 387  2596.645
 388  2482.397
 389  2211.069
 390  2651.738
 391  2816.291
 392  2428.254
 393  2486.212
 394  2637.98
 395  2931.839
 396  2692.928
 397  2849.543
 398  2953.325
 399  3093.755
 400  3258.81
 401  3168.138
 402  2977.564
 403  2952.828
 404  3044.616
 405  2964.978
 406  2919.298
 407  2925.09
 408  2776.699
 409  2740.172
 410  2472.698
 411  2226.091
 412  2555.814
 413  2717.699
 414  2782.976
 415  2311.451
 416  2123.613
 417  2200.41
 418  2258.084
 419  2367.951
 420  2433.083
 421  2487.226
 422  2371.774
 423  2345.323
 424  2283.266
 425  2447.852
 426  2475.43
 427  2938.993
 428  2816.303
 429  2363.333
 430  2766.984
 431  3119.933
 432  2903.531
 433  2678.353
 434  2687.616
 435  2629.696
 436  2986.697
 437  2881.57
 438  2685.476
 439  2651.738
 440  2768.153
 441  2988.552
 442  2595.295
 443  2764.6
 444  3066.988
 445  2809.315
 446  2813.508
 447  2795.39
 448  2484.651
 449  2667.571
 450  2667.392
 451  2766.555
 452  2386.886
 453  2618.152
 454  2858.557
 455  2736.157
 456  2576.164
 457  2393.076
 458  2272.535
 459  2182.827
 460  2497.219
 461  2335.441
 462  2241.725
 463  2290.005
 464  2282.342
 465  1992.802
 466  2418.853
 467  2289.216
 468  2257.282
 469  2654.62
 470  2633.313
 471  2676.584
 472  2455.012
 473  2339.432
 474  2527.448
 475  2512.499
 476  2421.572
 477  2585.789
 478  3004.44
 479  3184.68
 480  2925.365
 481  2672.337
 482  2354.752
 483  2395.131
 484  2517.614
 485  2739.261
 486  2726.514
 487  2651.566
 488  2540.946
 489  2305.915
 490  2422.403
 491  2240.883
 492  2365.832
 493  2499.385
 494  2429.136
 495  2408.978
 496  2852.987
 497  2761.67
 498  2804.225
 499  2599.084
 500  2911.085
 501  3087.576
 502  2750.573
 503  2694.298
 504  2587.341
 505  2734.611
 506  2859.532
 507  2297.832
 508  2101.193
 509  2194.18
 510  2336.066
 511  2318.598
