# Input file       =  1210767789.121276_cleaned.dat
# Candidate        =  PSR_0332+5434
# Telescope        =  AR
# Epoch_topo       =  58257.516297699949
# Epoch_bary       =  N/A
# T_sample         =  0.002
# Data Folded      =  7340032
# Data Avg         =  0.179394462801741
# Data StdDev      =  4.40408173590674 
# Profile Bins     =  256
# Profile Avg      =  5143.60356914262 
# Profile StdDev   =  745.734721715896 
# Reduced chi-sqr  =  1.063
# Prob(Noise)      <  0.233   (~0.7 sigma)
# P_topo (ms)      =  714.529504609743  +/- 0.000484
# P'_topo (s/s)    =  -0                +/- 2.55e-10
# P''_topo (s/s^2) =  0                 +/- 1.13e-13
# P_bary (ms)      =  N/A
# P'_bary (s/s)    =  N/A
# P''_bary (s/s^2) =  N/A
# P_orb (s)        =  N/A
# asin(i)/c (s)    =  N/A
# eccentricity     =  N/A
# w (rad)          =  N/A
# T_peri           =  N/A
######################################################
   0  4891.634
   1  4923.021
   2  5178.092
   3  5198.552
   4  5678.608
   5  5902.745
   6  5742.093
   7  4741.272
   8  4763.108
   9  5198.535
  10  5420.449
  11  4976.071
  12  5451.975
  13  5414.954
  14  5705.78
  15  6014.013
  16  5178.739
  17  4396.133
  18  5615.662
  19  5263.306
  20  5904.398
  21  5711.995
  22  5971.892
  23  5268.652
  24  5747.975
  25  5839.708
  26  5176.7
  27  6026.205
  28  6145.396
  29  5716.226
  30  4988.623
  31  5166.23
  32  4854.026
  33  4926.276
  34  3487.439
  35  3934.352
  36  4562.196
  37  4410.722
  38  4451.707
  39  5051.418
  40  4199.294
  41  4707.443
  42  4562.239
  43  4663.07
  44  4270.821
  45  5445.172
  46  4710.644
  47  4544.559
  48  4974.06
  49  5553.543
  50  4540.315
  51  4750.718
  52  5095.044
  53  4835.713
  54  4827.807
  55  4499.291
  56  4225.112
  57  4315.083
  58  4620.16
  59  3859.539
  60  4030.906
  61  4256.984
  62  4327.542
  63  4418.223
  64  4509.842
  65  4894.042
  66  4556.602
  67  4093.196
  68  4146.112
  69  4894.561
  70  4951.85
  71  4957.132
  72  4507.961
  73  4828.956
  74  5282.773
  75  4902.795
  76  4131.495
  77  4548.206
  78  5185.162
  79  4985.211
  80  5742.304
  81  5923.415
  82  5820.64
  83  5642.58
  84  4620.75
  85  4972.183
  86  5080.24
  87  5111.72
  88  4709.056
  89  4384.026
  90  4345.141
  91  5084.125
  92  5409.131
  93  5626.213
  94  6008.9
  95  6113.763
  96  5728.601
  97  6346.967
  98  6296.852
  99  5262.349
 100  5043.803
 101  5582.333
 102  5466.866
 103  4903.314
 104  4917.46
 105  5559.717
 106  6119.317
 107  5201.475
 108  5882.423
 109  5060.855
 110  4955.085
 111  4156.42
 112  4397.201
 113  4627.476
 114  5233.345
 115  4890.125
 116  4666.5
 117  4770.193
 118  5016.135
 119  5304.142
 120  5300.445
 121  5318.825
 122  5077.971
 123  4985.177
 124  5035.243
 125  4471.509
 126  4424.041
 127  4628.974
 128  4577.269
 129  4728.765
 130  5107.205
 131  3842.028
 132  4410.023
 133  4830.504
 134  4303.835
 135  4726.118
 136  4680.263
 137  4127.357
 138  3746.601
 139  4122.728
 140  4844.174
 141  4084.514
 142  3813.898
 143  3645.167
 144  3834.903
 145  4237.56
 146  4562.542
 147  5077.519
 148  6103.334
 149  7858.306
 150  7459.819
 151  5709.93
 152  4531.235
 153  5284.389
 154  5677.768
 155  5582.36
 156  5586.284
 157  5753.414
 158  5864.183
 159  5866.297
 160  6309.274
 161  6450.012
 162  5896.008
 163  6373.854
 164  5327.078
 165  5764.792
 166  5824.165
 167  5295.163
 168  5247.563
 169  5547.96
 170  5435.143
 171  4768.903
 172  5423.827
 173  5252.732
 174  5085.905
 175  5441.327
 176  5572.281
 177  6255.575
 178  6108.65
 179  5919.812
 180  6092.26
 181  5336.791
 182  5783.704
 183  5227.455
 184  5546.152
 185  6069.212
 186  5448.153
 187  5622.69
 188  5763.301
 189  5703.706
 190  5826.601
 191  6061.098
 192  5219.925
 193  5831.327
 194  5558.765
 195  5452.288
 196  5730.924
 197  5087.802
 198  5514.613
 199  5411.728
 200  5422.403
 201  5048.452
 202  5964.098
 203  5540.192
 204  5241.707
 205  5106.788
 206  5237.435
 207  4544.354
 208  4022.905
 209  4914.065
 210  5397.044
 211  4297.937
 212  4277.494
 213  4859.516
 214  5088.962
 215  4524.816
 216  4280.336
 217  4761.585
 218  6023.627
 219  5867.636
 220  4669.892
 221  5536.047
 222  5147.674
 223  4137.598
 224  4587.829
 225  5430.718
 226  5022.705
 227  5197.787
 228  5251.025
 229  4642.602
 230  5662.277
 231  6493.754
 232  5895.238
 233  5636.168
 234  5195.273
 235  6114.139
 236  6366.346
 237  5597.179
 238  5079.975
 239  5430.276
 240  6428.068
 241  5658.074
 242  5167.046
 243  5490.303
 244  5554.395
 245  5760.108
 246  4015.983
 247  5239.352
 248  5158.516
 249  4369.518
 250  4328.187
 251  4715.124
 252  4896.252
 253  4236.069
 254  4639.573
 255  5589.897
