# Input file       =  1210393607.115757-PSRB0329-2ms-sampling-dd.dat
# Candidate        =  PSR_0332+5434
# Telescope        =  AR
# Epoch_topo       =  58253.185487450894
# Epoch_bary       =  N/A
# T_sample         =  0.002
# Data Folded      =  7143424
# Data Avg         =  2.85155766502402e-10
# Data StdDev      =  6.34279594200983 
# Profile Bins     =  512
# Profile Avg      =  0.0399736612066286
# Profile StdDev   =  749.202078327533 
# Reduced chi-sqr  =  0.494
# Prob(Noise)      <  1   (~0.0 sigma)
# P_topo (ms)      =  714.533397324448  +/- 0.000111
# P'_topo (s/s)    =  -0                +/- 6.02e-11
# P''_topo (s/s^2) =  0                 +/- 2.73e-14
# P_bary (ms)      =  N/A
# P'_bary (s/s)    =  N/A
# P''_bary (s/s^2) =  N/A
# P_orb (s)        =  N/A
# asin(i)/c (s)    =  N/A
# eccentricity     =  N/A
# w (rad)          =  N/A
# T_peri           =  N/A
######################################################
   0  183.1037
   1  -337.6325
   2  244.9172
   3  -124.3007
   4  250.0629
   5  296.5247
   6  84.1635
   7  630.6696
   8  293.3057
   9  319.1824
  10  136.0894
  11  155.9561
  12  -54.70774
  13  -4.098343
  14  -393.8296
  15  -294.9281
  16  110.1131
  17  -194.0043
  18  303.8493
  19  176.712
  20  31.8229
  21  -325.2566
  22  -379.9235
  23  -6.798347
  24  -46.97214
  25  649.2376
  26  743.6678
  27  493.7291
  28  274.8819
  29  -313.9602
  30  -866.8102
  31  -108.9253
  32  562.3376
  33  223.9046
  34  423.771
  35  72.41628
  36  -343.0381
  37  -165.7596
  38  -275.6374
  39  224.7086
  40  484.0842
  41  498.2015
  42  688.4385
  43  440.5278
  44  263.7324
  45  -146.8822
  46  -363.1644
  47  38.68135
  48  -395.3008
  49  -528.9127
  50  67.41306
  51  387.1013
  52  483.5536
  53  373.5665
  54  277.9388
  55  42.35789
  56  -101.3129
  57  -234.5472
  58  -201.4822
  59  296.399
  60  901.7804
  61  655.6631
  62  -67.91393
  63  -90.29044
  64  -346.5814
  65  -426.6756
  66  -525.1005
  67  -240.2369
  68  -280.6161
  69  -69.73009
  70  -600.0547
  71  -284.2412
  72  -51.00526
  73  -136.5646
  74  -78.57269
  75  -295.7867
  76  -212.9875
  77  -797.7393
  78  -910.3812
  79  -482.9536
  80  -555.0122
  81  -290.89
  82  -691.723
  83  -700.0248
  84  -850.041
  85  17.16459
  86  -123.0205
  87  -27.84334
  88  206.4773
  89  -12.31658
  90  174.5509
  91  95.73938
  92  141.0343
  93  147.1386
  94  22.34714
  95  117.608
  96  -326.4366
  97  -274.5795
  98  -302.407
  99  68.65056
 100  326.2308
 101  735.8232
 102  1063.356
 103  1213.615
 104  1505.62
 105  1810.659
 106  2054.368
 107  1315.8
 108  675.6608
 109  426.8017
 110  120.867
 111  -320.3252
 112  -469.2706
 113  -472.5639
 114  -295.3413
 115  -89.6
 116  -369.6503
 117  87.83202
 118  10.52795
 119  -413.5909
 120  -354.7646
 121  -419.3772
 122  190.2558
 123  103.2009
 124  76.84393
 125  -125.6519
 126  250.0027
 127  567.7259
 128  334.2201
 129  -270.3383
 130  -259.6231
 131  -265.6259
 132  -319.4976
 133  -138.2269
 134  341.982
 135  674.3945
 136  258.2782
 137  -134.0805
 138  -260.6026
 139  0.8599423
 140  68.42648
 141  -15.65415
 142  -134.2796
 143  169.4246
 144  346.4514
 145  -388.1003
 146  -211.4169
 147  54.08718
 148  -126.8225
 149  55.44558
 150  158.5007
 151  -71.21357
 152  -18.48556
 153  -269.2486
 154  -100.5867
 155  127.3581
 156  444.2416
 157  318.1365
 158  119.4412
 159  98.90733
 160  192.3519
 161  287.7192
 162  434.6826
 163  5.338515
 164  155.346
 165  -219.7042
 166  68.9007
 167  -100.1477
 168  157.3744
 169  468.3223
 170  467.4032
 171  268.365
 172  164.3507
 173  441.1918
 174  -155.4802
 175  -218.7069
 176  53.75643
 177  -259.9307
 178  -419.9579
 179  -377.4116
 180  -45.0503
 181  -179.8067
 182  293.8684
 183  -54.52761
 184  -9.254734
 185  -365.0265
 186  -48.88306
 187  307.5039
 188  502.7917
 189  827.9554
 190  335.4958
 191  238.4384
 192  365.1331
 193  344.278
 194  -416.7916
 195  -483.3173
 196  434.2623
 197  546.2915
 198  473.2718
 199  -49.08082
 200  237.4782
 201  -241.5268
 202  -638.9479
 203  91.21523
 204  132.3279
 205  543.8483
 206  453.9388
 207  118.9286
 208  -168.8761
 209  195.3362
 210  307.9379
 211  386.3774
 212  323.3328
 213  104.174
 214  124.9855
 215  -201.7685
 216  42.29663
 217  215.7846
 218  661.9619
 219  801.1351
 220  276.8197
 221  102.3055
 222  12.52411
 223  -23.45381
 224  365.2737
 225  395.354
 226  286.4031
 227  -218.8055
 228  -254.0324
 229  -153.313
 230  -284.8819
 231  -410.6091
 232  -539.9442
 233  91.02151
 234  -0.2939544
 235  136.3806
 236  259.2192
 237  178.0686
 238  300.2424
 239  -236.9376
 240  -74.37882
 241  -68.89772
 242  13.14495
 243  -209.0773
 244  -206.6027
 245  243.3208
 246  -111.4386
 247  -268.1076
 248  -654.5176
 249  -576.636
 250  -763.2332
 251  96.80282
 252  -83.88206
 253  128.9524
 254  436.0642
 255  253.7346
 256  461.4522
 257  -222.0306
 258  -115.4447
 259  -233.7098
 260  -322.5018
 261  -376.1867
 262  -378.3419
 263  202.7062
 264  -204.0143
 265  139.1682
 266  -461.9618
 267  -335.9743
 268  -366.3964
 269  -14.53349
 270  443.242
 271  339.2639
 272  876.8495
 273  -94.68204
 274  -62.23679
 275  253.6078
 276  -356.9709
 277  -303.1898
 278  -417.2704
 279  335.461
 280  250.4285
 281  891.3455
 282  12.01075
 283  -316.6582
 284  -603.728
 285  -27.99704
 286  44.40202
 287  -216.5353
 288  578.6525
 289  376.4157
 290  -94.74333
 291  -331.6836
 292  -280.5355
 293  -220.2202
 294  -15.68088
 295  211.5447
 296  -219.4697
 297  -105.3388
 298  -208.0266
 299  376.0854
 300  277.4953
 301  166.716
 302  293.9434
 303  -5.40402
 304  157.3792
 305  160.4217
 306  70.47824
 307  594.7466
 308  252.3764
 309  194.5869
 310  206.6162
 311  403.7857
 312  201.4985
 313  -22.71499
 314  -291.968
 315  -262.9783
 316  -112.8277
 317  -110.9576
 318  319.6981
 319  286.6097
 320  222.7556
 321  54.6717
 322  -121.2349
 323  171.2297
 324  -107.6598
 325  -108.7595
 326  -459.6591
 327  -332.2618
 328  -257.3406
 329  -516.0496
 330  -592.6193
 331  -650.1154
 332  -507.0729
 333  -829.4772
 334  -203.7318
 335  -287.0145
 336  55.85206
 337  606.5229
 338  172.6359
 339  -128.6777
 340  -796.1828
 341  -306.1909
 342  -229.628
 343  -222.1828
 344  291.8471
 345  127.4299
 346  131.7335
 347  -799.963
 348  -387.762
 349  -425.9143
 350  -458.9941
 351  -479.2449
 352  -109.7476
 353  450.9808
 354  78.23923
 355  180.6254
 356  -321.4019
 357  -130.3624
 358  -240.3391
 359  -635.1506
 360  -708.2162
 361  -556.7938
 362  -54.86436
 363  -202.2575
 364  461.9934
 365  127.5428
 366  -213.2113
 367  -371.8872
 368  -576.5303
 369  -35.10669
 370  -10.22389
 371  399.0784
 372  -18.37249
 373  75.2861
 374  92.41785
 375  -695.8051
 376  -668.5022
 377  -699.4751
 378  -460.3648
 379  -357.1139
 380  -301.1727
 381  -269.3295
 382  87.55384
 383  160.2693
 384  -230.875
 385  -175.373
 386  -45.69139
 387  50.05784
 388  121.8276
 389  487.2149
 390  487.6545
 391  85.0405
 392  -76.49406
 393  -597.4946
 394  -336.89
 395  -250.9082
 396  -362.8008
 397  -441.4354
 398  -316.3349
 399  -328.6514
 400  -409.1619
 401  -404.2633
 402  -390.2512
 403  -184.8316
 404  -282.9327
 405  -469.8163
 406  -300.0168
 407  -57.87428
 408  267.1676
 409  -215.7896
 410  -535.0207
 411  86.4903
 412  -315.0457
 413  -583.3893
 414  -841.8176
 415  -137.2808
 416  -393.1465
 417  -255.4416
 418  -239.3251
 419  -321.834
 420  25.74924
 421  -489.1687
 422  -395.4062
 423  -244.5766
 424  -86.95987
 425  -212.3036
 426  -499.8249
 427  -33.69116
 428  -173.7853
 429  26.68221
 430  -616.1594
 431  -383.2635
 432  -587.6619
 433  -473.8493
 434  -248.0551
 435  215.1001
 436  424.4025
 437  -136.2627
 438  381.0172
 439  -19.43788
 440  -68.04227
 441  -163.7453
 442  84.89479
 443  63.83407
 444  -69.05719
 445  330.2219
 446  -73.98577
 447  293.6059
 448  97.17282
 449  347.9771
 450  6.419106
 451  -585.201
 452  -256.6158
 453  -30.49534
 454  262.5004
 455  241.1767
 456  446.9067
 457  220.7686
 458  -396.3506
 459  -577.734
 460  -183.1194
 461  86.46402
 462  376.1797
 463  219.073
 464  -370.3132
 465  -188.8793
 466  -229.6895
 467  -416.9724
 468  -250.1447
 469  343.7793
 470  582.6252
 471  428.8795
 472  334.0918
 473  426.7402
 474  42.43294
 475  -209.8235
 476  -158.9695
 477  20.70649
 478  -164.0785
 479  -87.99058
 480  224.1228
 481  280.0014
 482  707.0712
 483  743.2626
 484  548.4053
 485  283.5926
 486  215.0525
 487  530.9833
 488  303.8433
 489  653.0256
 490  430.2058
 491  43.16402
 492  87.20715
 493  -161.2555
 494  -476.2137
 495  -353.1607
 496  174.1043
 497  414.9141
 498  422.6385
 499  36.5011
 500  255.0198
 501  423.3012
 502  -22.2508
 503  190.1794
 504  -108.4404
 505  198.3376
 506  216.287
 507  636.7411
 508  393.0745
 509  350.4541
 510  507.9296
 511  103.9228
