# Input file       =  1210824426.118472-PSRB0329-2ms-sampling-dd.dat
# Candidate        =  PSR_0332+5434
# Telescope        =  AR
# Epoch_topo       =  58258.171818500836
# Epoch_bary       =  N/A
# T_sample         =  0.002
# Data Folded      =  7208960
# Data Avg         =  3.90593878111672e-10
# Data StdDev      =  6.64781996359119 
# Profile Bins     =  512
# Profile Avg      =  0.0232781087867963
# Profile StdDev   =  788.82483770351  
# Reduced chi-sqr  =  0.906
# Prob(Noise)      <  0.937   (~0.0 sigma)
# P_topo (ms)      =  714.528510959164  +/- 4.13e-05
# P'_topo (s/s)    =  -0                +/- 2.22e-11
# P''_topo (s/s^2) =  0                 +/- 9.98e-15
# P_bary (ms)      =  N/A
# P'_bary (s/s)    =  N/A
# P''_bary (s/s^2) =  N/A
# P_orb (s)        =  N/A
# asin(i)/c (s)    =  N/A
# eccentricity     =  N/A
# w (rad)          =  N/A
# T_peri           =  N/A
######################################################
   0  358.7956
   1  -692.4943
   2  -516.7177
   3  -508.6988
   4  -210.542
   5  -441.3284
   6  -460.9505
   7  -423.0483
   8  -384.686
   9  -603.3489
  10  -564.6208
  11  81.55767
  12  72.38216
  13  -324.2889
  14  -349.3614
  15  -268.4576
  16  5.762911
  17  -491.0933
  18  -684.3596
  19  -610.8717
  20  -12.29568
  21  -502.7089
  22  -1092.96
  23  -581.4132
  24  -405.0076
  25  -740.0926
  26  -873.6783
  27  -788.0782
  28  -129.6987
  29  284.3247
  30  -375.2552
  31  -453.6868
  32  -227.5879
  33  -405.3571
  34  -794.2986
  35  -805.2445
  36  76.04533
  37  225.0244
  38  -530.1769
  39  -946.4041
  40  -811.2488
  41  -904.3188
  42  -1623.399
  43  -753.9469
  44  -452.0604
  45  -83.01656
  46  431.4515
  47  154.3873
  48  -247.6925
  49  -378.885
  50  -483.1913
  51  -772.1995
  52  -781.0748
  53  -256.1101
  54  -196.9109
  55  -179.6893
  56  -749.1539
  57  -388.6029
  58  -578.7987
  59  -1058.902
  60  -792.4882
  61  -390.1516
  62  363.5011
  63  42.63701
  64  -175.4857
  65  59.94553
  66  -228.4629
  67  -964.3477
  68  -999.1521
  69  -579.3728
  70  -175.7648
  71  -541.5027
  72  -342.9439
  73  -352.8202
  74  -374.062
  75  -894.4904
  76  -542.8542
  77  -478.5414
  78  -118.695
  79  -205.8845
  80  -42.56504
  81  123.1819
  82  12.25263
  83  14.08267
  84  -777.4382
  85  -851.3081
  86  -502.1089
  87  56.52133
  88  -216.2056
  89  -474.4851
  90  -211.4802
  91  -629.837
  92  -503.9099
  93  -156.3089
  94  217.2319
  95  168.3108
  96  -385.3363
  97  316.9859
  98  399.7307
  99  -9.821836
 100  -528.1288
 101  -573.053
 102  -280.1584
 103  204.7273
 104  -173.442
 105  -449.5351
 106  -269.8572
 107  -152.233
 108  -498.2802
 109  -400.8172
 110  -39.31017
 111  284.4905
 112  173.9223
 113  114.1831
 114  346.3667
 115  306.6383
 116  -404.9759
 117  -469.611
 118  -335.3858
 119  597.1313
 120  618.412
 121  -261.7114
 122  -338.3399
 123  -447.3424
 124  -517.6493
 125  -592.6473
 126  184.7547
 127  668.9456
 128  365.2148
 129  579.9126
 130  233.796
 131  47.14504
 132  169.4091
 133  -500.6457
 134  -914.0833
 135  -530.5952
 136  -439.1939
 137  -339.2504
 138  -167.6648
 139  -158.354
 140  -801.3936
 141  -1505.167
 142  -1105.099
 143  -42.36085
 144  506.3163
 145  500.2277
 146  469.3755
 147  142.1816
 148  -463.7402
 149  -1305.628
 150  -1088.035
 151  -799.1045
 152  69.26337
 153  266.3669
 154  9.399265
 155  -43.36515
 156  -183.2314
 157  -112.8581
 158  -609.4274
 159  -580.6102
 160  -99.45156
 161  361.5732
 162  266.4074
 163  219.5032
 164  618.5599
 165  162.2305
 166  -465.6869
 167  -1031.733
 168  -635.0326
 169  -585.5894
 170  -462.7996
 171  -197.2121
 172  -298.5319
 173  72.94386
 174  -182.7077
 175  -549.8564
 176  16.19549
 177  2.474941
 178  -17.73886
 179  717.6927
 180  1195.458
 181  487.079
 182  -105.3606
 183  -516.351
 184  -140.2004
 185  44.72865
 186  331.5361
 187  286.694
 188  -397.321
 189  -21.96884
 190  -55.66673
 191  -397.0568
 192  -206.3512
 193  450.8289
 194  1089.582
 195  573.0793
 196  574.0517
 197  448.4821
 198  26.75502
 199  -623.2333
 200  -268.6136
 201  -62.07788
 202  421.5484
 203  26.85248
 204  -294.6953
 205  -396.9221
 206  -342.928
 207  -608.7438
 208  -392.2036
 209  -122.645
 210  865.8667
 211  1025.277
 212  789.8494
 213  1043.672
 214  781.2412
 215  119.6515
 216  -33.44529
 217  271.2342
 218  922.4972
 219  1180.573
 220  378.6011
 221  477.3319
 222  386.9254
 223  -362.1504
 224  -819.2351
 225  -633.2298
 226  367.341
 227  927.2132
 228  1026.126
 229  909.3864
 230  587.1732
 231  -137.421
 232  -1070.167
 233  -610.5226
 234  -46.2071
 235  200.2559
 236  95.85254
 237  123.8195
 238  188.2524
 239  -100.8553
 240  -216.188
 241  -491.2677
 242  -33.0906
 243  450.2935
 244  342.3678
 245  164.8388
 246  705.3237
 247  877.9469
 248  86.01493
 249  -177.9383
 250  -83.17917
 251  153.7299
 252  214.3774
 253  112.62
 254  -24.27871
 255  226.8047
 256  -251.0542
 257  -682.0853
 258  -407.3838
 259  -201.1702
 260  235.2867
 261  363.8763
 262  822.3112
 263  1143.312
 264  264.7209
 265  -235.6626
 266  -611.4485
 267  -235.5522
 268  -53.61712
 269  -42.33444
 270  -115.2883
 271  -62.17407
 272  235.9647
 273  -325.9405
 274  -594.4112
 275  125.8032
 276  271.2596
 277  737.4033
 278  571.6816
 279  441.7569
 280  541.7256
 281  298.9907
 282  -335.268
 283  145.1978
 284  318.7679
 285  265.2105
 286  149.5256
 287  122.2948
 288  570.2209
 289  -132.1983
 290  -355.6946
 291  -347.2026
 292  -36.41411
 293  1116.957
 294  957.9313
 295  723.3847
 296  455.8689
 297  133.1479
 298  -548.313
 299  -834.8978
 300  -245.4136
 301  133.0615
 302  310.873
 303  164.1647
 304  -73.83064
 305  -305.9524
 306  -680.1298
 307  -634.3171
 308  -396.2834
 309  557.4245
 310  473.1792
 311  -63.46951
 312  -55.58389
 313  167.8384
 314  5.840186
 315  -463.0042
 316  193.6641
 317  200.2875
 318  226.9541
 319  -32.15196
 320  -294.6621
 321  -121.3777
 322  -57.35031
 323  -484.345
 324  -428.3762
 325  15.18638
 326  494.0596
 327  -91.94651
 328  -64.48415
 329  800.0696
 330  550.1464
 331  -491.7501
 332  -659.6924
 333  20.52348
 334  587.7279
 335  30.52526
 336  -73.69485
 337  144.2373
 338  -462.4398
 339  -468.4955
 340  -177.5291
 341  497.337
 342  1255.75
 343  1132.272
 344  992.1083
 345  565.1424
 346  683.4899
 347  585.553
 348  256.607
 349  -150.0397
 350  351.9905
 351  754.2887
 352  515.8058
 353  473.6161
 354  282.5255
 355  310.2832
 356  -297.7239
 357  139.5815
 358  391.313
 359  358.4398
 360  693.2373
 361  945.3887
 362  954.8266
 363  248.5264
 364  322.3683
 365  -361.3423
 366  314.5601
 367  777.8295
 368  495.1371
 369  -171.687
 370  9.406856
 371  293.7791
 372  -702.2535
 373  -956.3404
 374  -441.1489
 375  329.1189
 376  1104.736
 377  448.1583
 378  571.0426
 379  638.2864
 380  -302.3354
 381  -926.5438
 382  -390.2296
 383  552.8134
 384  98.9447
 385  -125.4097
 386  -98.57243
 387  380.1855
 388  185.6569
 389  -636.0224
 390  149.8278
 391  399.3847
 392  407.1429
 393  658.3545
 394  347.6964
 395  514.4766
 396  438.572
 397  256.1232
 398  -162.4216
 399  -150.8745
 400  304.2241
 401  339.4049
 402  -331.3222
 403  -316.0911
 404  52.54197
 405  -238.2771
 406  -373.0967
 407  -194.1207
 408  381.5559
 409  779.447
 410  529.4129
 411  223.7441
 412  110.7043
 413  16.61528
 414  -636.8905
 415  -211.8462
 416  328.3907
 417  517.3983
 418  379.5718
 419  -533.2092
 420  101.579
 421  -668.4619
 422  -1007.154
 423  -659.5903
 424  -112.9063
 425  437.6264
 426  333.9164
 427  264.6009
 428  377.7452
 429  650.268
 430  372.2848
 431  -484.5336
 432  -373.2563
 433  349.3148
 434  372.4812
 435  64.67448
 436  -76.4216
 437  -231.7947
 438  -402.631
 439  -789.3906
 440  -401.4006
 441  113.4134
 442  756.784
 443  597.8672
 444  176.8982
 445  941.0046
 446  537.4166
 447  627.3707
 448  766.0579
 449  1785.979
 450  2278.085
 451  2242.528
 452  2446.225
 453  1658.546
 454  1034.787
 455  136.8953
 456  86.90923
 457  571.6308
 458  816.9868
 459  1145.683
 460  536.5085
 461  298.0607
 462  477.6445
 463  -65.46933
 464  191.9254
 465  356.5953
 466  1107.283
 467  801.7757
 468  224.8015
 469  222.8138
 470  101.8261
 471  -446.8524
 472  -746.142
 473  -199.1693
 474  530.7686
 475  827.3409
 476  489.5848
 477  467.0403
 478  645.4777
 479  17.08996
 480  -891.546
 481  -818.8022
 482  -274.2007
 483  19.8981
 484  5.93614
 485  -175.0257
 486  -3.42401
 487  25.36386
 488  -1177.533
 489  -1087.259
 490  -332.2684
 491  232.8225
 492  265.9948
 493  222.4563
 494  439.2954
 495  109.1815
 496  -173.1092
 497  -373.7432
 498  -93.49609
 499  337.7052
 500  -22.31191
 501  129.4366
 502  -77.96287
 503  -288.2334
 504  -549.0475
 505  -750.0684
 506  -250.7193
 507  -324.0584
 508  183.3691
 509  444.3812
 510  408.4742
 511  819.5916
