# Input file       =  1210666695.126441_cleaned.dat
# Candidate        =  PSR_0332+5434
# Telescope        =  AR
# Epoch_topo       =  58256.346228315291
# Epoch_bary       =  N/A
# T_sample         =  0.002
# Data Folded      =  7340032
# Data Avg         =  0.24291252358983 
# Data StdDev      =  5.4711811520807  
# Profile Bins     =  256
# Profile Avg      =  6964.62421448112 
# Profile StdDev   =  926.424621196121 
# Reduced chi-sqr  =  1.139
# Prob(Noise)      <  0.0628   (~1.5 sigma)
# P_topo (ms)      =  714.530318339442  +/- 0.000744
# P'_topo (s/s)    =  -0                +/- 3.93e-10
# P''_topo (s/s^2) =  0                 +/- 1.73e-13
# P_bary (ms)      =  N/A
# P'_bary (s/s)    =  N/A
# P''_bary (s/s^2) =  N/A
# P_orb (s)        =  N/A
# asin(i)/c (s)    =  N/A
# eccentricity     =  N/A
# w (rad)          =  N/A
# T_peri           =  N/A
######################################################
   0  6520.136
   1  6072.707
   2  6387.107
   3  5950.679
   4  6194.039
   5  7106.897
   6  6918.231
   7  6738.363
   8  6221.066
   9  6481.47
  10  6363.422
  11  5712.601
  12  5782.125
  13  5855.873
  14  5394.743
  15  6113.335
  16  6612.785
  17  6951.455
  18  6704.133
  19  6152.003
  20  6724.157
  21  7403.875
  22  6330.735
  23  6214.713
  24  7451.946
  25  7277.824
  26  6869.018
  27  7084.049
  28  7852.885
  29  7701.58
  30  6064.196
  31  6756.733
  32  6349.018
  33  5960.089
  34  5910.493
  35  5931.64
  36  6381.172
  37  6685.576
  38  8384.574
  39  8147.982
  40  8986.857
  41  8565.557
  42  7889.474
  43  7204.979
  44  7346.938
  45  6565.186
  46  7007.163
  47  7137.373
  48  7100.353
  49  6923.367
  50  6372.132
  51  7706.294
  52  8288.202
  53  7484.618
  54  7880.171
  55  7168.293
  56  7200.703
  57  6831.88
  58  7087.736
  59  6332.702
  60  6695.866
  61  5819.669
  62  6508.131
  63  6301.018
  64  6591.709
  65  5961.42
  66  7178.326
  67  6255.044
  68  6507.781
  69  6673.052
  70  6830.645
  71  6059.557
  72  5756.158
  73  6233.22
  74  6391.474
  75  6352.134
  76  6408.968
  77  6476.62
  78  6522.412
  79  6896.584
  80  6804.726
  81  7132.104
  82  5969.89
  83  6949.144
  84  6598.991
  85  5633.511
  86  6157.604
  87  7040.828
  88  6420.298
  89  6882.135
  90  6678.827
  91  7594.142
  92  7605.891
  93  7147.238
  94  7126.301
  95  7040.643
  96  6883.205
  97  6592.284
  98  6267.26
  99  7096.698
 100  6782.601
 101  5707.854
 102  6225.516
 103  6208.626
 104  6316.484
 105  6744.662
 106  6706.673
 107  6889.571
 108  7228.845
 109  6855.963
 110  6853.26
 111  7092.708
 112  6864.211
 113  7031.175
 114  6930.743
 115  7432.142
 116  7004.054
 117  7377.813
 118  7180.451
 119  7645.005
 120  7391.801
 121  6728.94
 122  7093.129
 123  7160.657
 124  7879.349
 125  8377.15
 126  8224.459
 127  8323.809
 128  7983.926
 129  8012.167
 130  7934.465
 131  7444.11
 132  6624.546
 133  6709.045
 134  7147.347
 135  7266.432
 136  5661.938
 137  6265.49
 138  6063.847
 139  6786.217
 140  6432.674
 141  6673.808
 142  6896.144
 143  6775.197
 144  6359.095
 145  6794.838
 146  7301.901
 147  7337
 148  7948.294
 149  10906.68
 150  10361.53
 151  8851.052
 152  7198.175
 153  6965.766
 154  7304.184
 155  7199.186
 156  6885.413
 157  7067.877
 158  7548.139
 159  7206.185
 160  8154.691
 161  7869.382
 162  7620.308
 163  8412.236
 164  7468.105
 165  7166.345
 166  6935.452
 167  7878.6
 168  7796.687
 169  7560.906
 170  7530.073
 171  7251.955
 172  6717.538
 173  7226.347
 174  7400.802
 175  6456.448
 176  6345.347
 177  7245.769
 178  7068.34
 179  6300.967
 180  7660.967
 181  7359.139
 182  7861.386
 183  7845.793
 184  8134.565
 185  7782.432
 186  7602.052
 187  8578.212
 188  8612.383
 189  7346.777
 190  8487.848
 191  9212.174
 192  8565.441
 193  8779.655
 194  8827.256
 195  8230.021
 196  8045.812
 197  7747.634
 198  8334.757
 199  8042.738
 200  7319.665
 201  7456.058
 202  7893.5
 203  7598.059
 204  5991.861
 205  6749.772
 206  6675.174
 207  6702.981
 208  7404.849
 209  6731.408
 210  6679.7
 211  7344.268
 212  7608.737
 213  7630.774
 214  7439.722
 215  8143.154
 216  7643.085
 217  7881.462
 218  8116.467
 219  7495.973
 220  7112.161
 221  7361.67
 222  6885.458
 223  7104.267
 224  5795.446
 225  5926.563
 226  6318.099
 227  6167.89
 228  5000.51
 229  4936.185
 230  6123.662
 231  5824.077
 232  5722.656
 233  5619.246
 234  5331.315
 235  5839.91
 236  6645.507
 237  5587.381
 238  5908.169
 239  6230.601
 240  6272.87
 241  5785.826
 242  6248.062
 243  6030.014
 244  6171.917
 245  5696.056
 246  5838.449
 247  5661.746
 248  6542.066
 249  5811.333
 250  6126.841
 251  6349.027
 252  6284.284
 253  6292.742
 254  6518.685
 255  6895.878
