# Input file       =  1210509309.128302-PSRB0329-2ms-sampling-dd.dat
# Candidate        =  PSR_0332+5434
# Telescope        =  AR
# Epoch_topo       =  58254.524631114611
# Epoch_bary       =  N/A
# T_sample         =  0.002
# Data Folded      =  7340032
# Data Avg         =  1.8877151323939e-09
# Data StdDev      =  12.2901699341695 
# Profile Bins     =  512
# Profile Avg      =  0.657460392788581
# Profile StdDev   =  1471.53936380455 
# Reduced chi-sqr  =  0.846
# Prob(Noise)      <  0.995   (~0.0 sigma)
# P_topo (ms)      =  714.532439516701  +/- 0.000464
# P'_topo (s/s)    =  -0                +/- 2.45e-10
# P''_topo (s/s^2) =  0                 +/- 1.08e-13
# P_bary (ms)      =  N/A
# P'_bary (s/s)    =  N/A
# P''_bary (s/s^2) =  N/A
# P_orb (s)        =  N/A
# asin(i)/c (s)    =  N/A
# eccentricity     =  N/A
# w (rad)          =  N/A
# T_peri           =  N/A
######################################################
   0  245.4937
   1  151.3674
   2  383.7766
   3  36.85961
   4  285.8172
   5  137.0557
   6  171.0948
   7  255.1847
   8  -225.3369
   9  -399.8982
  10  -323.154
  11  -129.6224
  12  83.05626
  13  -127.222
  14  52.26199
  15  32.05055
  16  129.6335
  17  -285.2169
  18  -440.8807
  19  -422.4739
  20  84.83203
  21  63.49245
  22  -0.08624547
  23  -83.06089
  24  -451.4878
  25  -366.3741
  26  -320.0648
  27  62.4167
  28  43.67783
  29  -393.6659
  30  -329.5873
  31  -614.8564
  32  -666.062
  33  -678.9273
  34  -644.461
  35  -458.7252
  36  -205.3559
  37  -400.7637
  38  -546.7031
  39  -483.4838
  40  -731.6665
  41  22.11821
  42  -99.07257
  43  26.45974
  44  -269.643
  45  -116.2457
  46  261.0018
  47  -107.1842
  48  308.4804
  49  300.6327
  50  536.2678
  51  179.8962
  52  206.5353
  53  253.0927
  54  109.414
  55  453.4247
  56  288.8673
  57  647.0025
  58  694.8954
  59  653.6852
  60  361.0692
  61  65.11275
  62  286.8339
  63  -73.97341
  64  76.41212
  65  50.65829
  66  -97.73505
  67  -158.9645
  68  -130.9762
  69  116.0766
  70  -347.3117
  71  -300.6264
  72  -122.6417
  73  178.3163
  74  -57.41265
  75  -111.4185
  76  -66.7252
  77  36.12963
  78  -91.76499
  79  -346.2614
  80  -506.1736
  81  -572.968
  82  -274.9266
  83  220.8435
  84  -25.50411
  85  -567.6326
  86  -666.5103
  87  -572.0935
  88  -226.4685
  89  -227.6812
  90  -651.9805
  91  -392.7776
  92  -126.6079
  93  -295.7426
  94  -191.9795
  95  -232.9997
  96  -324.9407
  97  -187.1096
  98  -161.5469
  99  -565.5953
 100  -503.0525
 101  -232.6648
 102  38.45928
 103  -31.95823
 104  -249.9007
 105  -741.8265
 106  -992.7971
 107  -1243.725
 108  -1221.21
 109  -841.0166
 110  -330.5134
 111  -405.453
 112  -462.05
 113  -515.5659
 114  -999.8287
 115  -862.1818
 116  -947.3305
 117  -450.3368
 118  -48.98059
 119  -145.6746
 120  -239.6619
 121  -265.7687
 122  119.6669
 123  -240.888
 124  53.05947
 125  4.833088
 126  -201.5141
 127  -26.41743
 128  19.32642
 129  384.3012
 130  282.7478
 131  356.1569
 132  168.8297
 133  -12.02021
 134  -152.6836
 135  -172.2713
 136  46.15199
 137  -396.2161
 138  -323.1221
 139  16.27051
 140  192.637
 141  47.40063
 142  -183.1357
 143  -464.5905
 144  -830.8295
 145  -189.9422
 146  -130.264
 147  -235.6658
 148  -45.94575
 149  -563.5235
 150  -636.9422
 151  -502.2828
 152  -257.0862
 153  -44.28296
 154  -65.2104
 155  32.49716
 156  -349.573
 157  -476.1704
 158  8.004855
 159  66.52504
 160  81.60538
 161  -119.0205
 162  -485.1884
 163  -515.4409
 164  -144.9429
 165  -212.4836
 166  -35.61766
 167  -351.4756
 168  -679.1457
 169  -457.4222
 170  -28.53678
 171  -49.43645
 172  -383.7989
 173  -458.0285
 174  -382.545
 175  -641.456
 176  -371.5511
 177  -292.0471
 178  -152.6302
 179  -329.8557
 180  -13.67591
 181  -402.6349
 182  -663.2441
 183  -113.2963
 184  3.115963
 185  371.9499
 186  175.987
 187  -91.65102
 188  -440.669
 189  -659.8024
 190  -312.3872
 191  93.46673
 192  234.3863
 193  -157.5306
 194  -261.8509
 195  86.97929
 196  253.9066
 197  122.0947
 198  75.38447
 199  -126.5289
 200  -518.6146
 201  -544.7229
 202  -429.1591
 203  7.117692
 204  -85.45606
 205  117.2138
 206  -45.19682
 207  180.618
 208  -32.52814
 209  -542.5959
 210  -133.8043
 211  191.9351
 212  242.4798
 213  -272.6357
 214  -527.8496
 215  -702.0203
 216  -715.6118
 217  -96.67923
 218  -90.28799
 219  86.46543
 220  72.15886
 221  300.4618
 222  138.4084
 223  331.1989
 224  805.3531
 225  1451.924
 226  1607.495
 227  2130.126
 228  2541.012
 229  2203.781
 230  1475.785
 231  838.4485
 232  70.37407
 233  -252.0051
 234  -149.7566
 235  -311.6619
 236  -139.6644
 237  309.3876
 238  29.68072
 239  -97.50543
 240  -82.33594
 241  -187.3836
 242  -198.5309
 243  -393.8316
 244  -117.532
 245  -10.97126
 246  -213.6848
 247  -154.2438
 248  -436.627
 249  -738.2875
 250  -604.1162
 251  -547.1074
 252  -156.9574
 253  54.38381
 254  208.1987
 255  -291.6
 256  -113.9542
 257  34.31884
 258  -22.03962
 259  3.18002
 260  126.1828
 261  119.1201
 262  2.744147
 263  152.2958
 264  160.1957
 265  -75.41616
 266  276.6635
 267  491.8955
 268  341.3205
 269  237.6302
 270  405.1111
 271  31.87323
 272  -388.2011
 273  -142.8409
 274  -130.8458
 275  -190.0275
 276  -174.5346
 277  -254.7726
 278  -194.0411
 279  -221.0488
 280  -440.6376
 281  -486.4655
 282  215.7139
 283  130.3977
 284  -328.1732
 285  -172.5248
 286  10.01532
 287  -38.60703
 288  357.822
 289  430.3729
 290  85.78509
 291  16.4026
 292  87.39342
 293  100.024
 294  101.6495
 295  95.75455
 296  -48.53926
 297  46.62671
 298  153.8517
 299  -462.586
 300  -223.1468
 301  217.2639
 302  -333.4667
 303  -300.6024
 304  -102.8374
 305  151.8737
 306  213.8639
 307  46.7127
 308  -357.4781
 309  -390.2939
 310  -108.6597
 311  -392.1827
 312  -94.70943
 313  61.00764
 314  10.13005
 315  177.7628
 316  360.5644
 317  -334.1916
 318  -696.2514
 319  -654.9685
 320  116.749
 321  165.1407
 322  142.7056
 323  338.306
 324  -7.207013
 325  -27.07903
 326  -60.05651
 327  235.4093
 328  100.0676
 329  -59.8348
 330  38.15177
 331  106.5686
 332  -343.9625
 333  -89.41601
 334  368.9508
 335  506.4214
 336  220.8925
 337  21.68125
 338  -325.0612
 339  -288.6762
 340  -170.5039
 341  205.9252
 342  415.7943
 343  -141.3196
 344  86.55339
 345  -100.5959
 346  -642.8806
 347  -428.6084
 348  96.66136
 349  166.2073
 350  -153.106
 351  -395.5454
 352  -493.7165
 353  252.9169
 354  215.9235
 355  -104.0301
 356  285.639
 357  -318.0616
 358  -865.2861
 359  298.2222
 360  -725.9731
 361  -678.0097
 362  292.511
 363  -1397.523
 364  -643.1537
 365  1249.534
 366  -3785.357
 367  6820.733
 368  17147.37
 369  6858.927
 370  485.7694
 371  -2193.616
 372  1328.846
 373  -838.2491
 374  -832.8721
 375  542.3329
 376  -834.0876
 377  -549.9076
 378  73.34007
 379  -1095.623
 380  -755.5821
 381  -360.1972
 382  -1078.4
 383  -296.3084
 384  -400.739
 385  -878.6614
 386  -371.1038
 387  -113.0843
 388  -84.27671
 389  -25.49783
 390  -118.4405
 391  -287.6249
 392  -271.9879
 393  -448.5985
 394  -351.5642
 395  -387.2062
 396  36.90613
 397  562.5807
 398  643.8936
 399  334.6993
 400  77.32006
 401  85.0146
 402  -192.4567
 403  -207.8071
 404  -58.2634
 405  125.4824
 406  -122.6946
 407  -14.41866
 408  417.0599
 409  98.17609
 410  7.144946
 411  -172.2878
 412  -251.2873
 413  -196.565
 414  511.2322
 415  388.7968
 416  -84.31889
 417  40.45269
 418  73.28078
 419  -337.1833
 420  -376.7442
 421  -96.61317
 422  -190.5342
 423  -43.64214
 424  273.4925
 425  466.9098
 426  124.4093
 427  402.0179
 428  174.0979
 429  60.32234
 430  220.5238
 431  449.7162
 432  391.2003
 433  0.6418567
 434  -206.9087
 435  42.43004
 436  286.0283
 437  157.4576
 438  460.6275
 439  -69.92086
 440  396.6154
 441  261.4852
 442  -213.7595
 443  -270.7914
 444  -69.77218
 445  2.19714
 446  48.54204
 447  167.2835
 448  403.4213
 449  119.7377
 450  -139.3861
 451  -460.0315
 452  -107.1784
 453  15.53448
 454  178.8268
 455  147.6447
 456  382.9737
 457  406.2549
 458  117.0602
 459  78.65862
 460  319.3555
 461  94.76713
 462  116.6892
 463  337.9969
 464  325.4316
 465  449.1227
 466  485.2054
 467  158.9506
 468  28.27391
 469  -121.2483
 470  -140.8064
 471  -63.5726
 472  174.0209
 473  585.4622
 474  346.1345
 475  -66.1994
 476  -199.6595
 477  -148.9544
 478  -54.51427
 479  404.1871
 480  533.0024
 481  402.5312
 482  195.5705
 483  312.1755
 484  311.8842
 485  471.2751
 486  493.868
 487  308.399
 488  373.7587
 489  443.905
 490  807.4182
 491  802.1819
 492  277.04
 493  213.4532
 494  -22.84044
 495  164.2336
 496  -215.6336
 497  26.49286
 498  229.1064
 499  372.4828
 500  546.8624
 501  192.5723
 502  162.1874
 503  306.281
 504  233.0993
 505  145.7437
 506  127.493
 507  369.1881
 508  6.639609
 509  13.20102
 510  -44.31144
 511  150.2144
