# Input file       =  1210652082.108730-PSRB0329-2ms-sampling-dd.dat
# Candidate        =  PSR_0332+5434
# Telescope        =  AR
# Epoch_topo       =  58256.177096165855
# Epoch_bary       =  N/A
# T_sample         =  0.002
# Data Folded      =  7208960
# Data Avg         =  9.14661228020023e-10
# Data StdDev      =  7.27763691587798 
# Profile Bins     =  512
# Profile Avg      =  0.0593045984017911
# Profile StdDev   =  863.558398162653 
# Reduced chi-sqr  =  0.635
# Prob(Noise)      <  1   (~0.0 sigma)
# P_topo (ms)      =  714.53047031653   +/- 4.18e-05
# P'_topo (s/s)    =  -0                +/- 2.25e-11
# P''_topo (s/s^2) =  0                 +/- 1.01e-14
# P_bary (ms)      =  N/A
# P'_bary (s/s)    =  N/A
# P''_bary (s/s^2) =  N/A
# P_orb (s)        =  N/A
# asin(i)/c (s)    =  N/A
# eccentricity     =  N/A
# w (rad)          =  N/A
# T_peri           =  N/A
######################################################
   0  -866.8871
   1  -830.0485
   2  -334.2925
   3  -69.9028
   4  381.817
   5  -8.535613
   6  -484.7474
   7  -814.3472
   8  -833.85
   9  -593.1432
  10  -487.477
  11  -102.3165
  12  464.9887
  13  327.8278
  14  213.4996
  15  326.3906
  16  104.9391
  17  10.77693
  18  -386.4132
  19  -428.7113
  20  -66.67886
  21  159.603
  22  153.9842
  23  396.3479
  24  426.8027
  25  -343.7166
  26  -720.0236
  27  -1070.92
  28  -523.8564
  29  774.1829
  30  991.2025
  31  897.8027
  32  417.4058
  33  850.9652
  34  676.6356
  35  742.5928
  36  1487.432
  37  1960.841
  38  2164.872
  39  928.6515
  40  678.7581
  41  -92.38926
  42  -525.4808
  43  -812.7421
  44  -26.79346
  45  663.55
  46  802.6913
  47  737.7996
  48  -18.15575
  49  -69.06444
  50  -266.1481
  51  -528.214
  52  -486.013
  53  -154.812
  54  -270.3899
  55  -220.5225
  56  -254.9578
  57  -363.4413
  58  135.301
  59  257.5423
  60  -196.0745
  61  -608.172
  62  467.507
  63  748.8468
  64  102.8281
  65  27.93266
  66  -598.8529
  67  -600.9064
  68  -545.0959
  69  -61.09986
  70  331.6416
  71  349.9929
  72  311.6851
  73  -341.7899
  74  -217.3726
  75  -391.6012
  76  261.5304
  77  985.7068
  78  712.5523
  79  830.314
  80  338.9511
  81  -92.77054
  82  -603.3063
  83  -403.8182
  84  -741.2396
  85  -344.693
  86  17.7498
  87  303.0257
  88  311.273
  89  80.94402
  90  -374.8948
  91  -661.0093
  92  -790.1435
  93  -988.2638
  94  51.19541
  95  254.3652
  96  342.4207
  97  90.4914
  98  -317.5251
  99  -420.1689
 100  -742.3004
 101  -607.0409
 102  -563.3409
 103  -90.79011
 104  229.6393
 105  491.254
 106  -319.196
 107  -126.8289
 108  -541.2532
 109  -293.6195
 110  -205.1508
 111  -255.8816
 112  120.3436
 113  38.46366
 114  109.0233
 115  -400.5111
 116  -338.9001
 117  -843.2086
 118  -894.2935
 119  -344.8486
 120  92.0202
 121  565.3992
 122  39.62879
 123  -165.4928
 124  -805.5446
 125  -611.7339
 126  -730.6526
 127  -263.1024
 128  -229.0879
 129  398.1133
 130  325.507
 131  -123.2903
 132  -50.18585
 133  -491.2211
 134  -294.9942
 135  -503.9732
 136  64.65669
 137  160.9112
 138  -130.2616
 139  239.542
 140  -58.86559
 141  125.3303
 142  193.2904
 143  334.3589
 144  238.5479
 145  115.7254
 146  261.1329
 147  -375.5216
 148  -644.6086
 149  -696.8241
 150  -494.4965
 151  -742.826
 152  60.72151
 153  31.54255
 154  -134.4943
 155  -461.7167
 156  -304.183
 157  -302.8112
 158  -739.3026
 159  -239.5657
 160  -163.5832
 161  149.7341
 162  523.7297
 163  303.975
 164  -461.4977
 165  -1121.186
 166  -894.1345
 167  -1071.034
 168  -593.414
 169  -564.1527
 170  -248.7803
 171  47.47598
 172  -37.26296
 173  -301.5669
 174  -677.1539
 175  -615.5965
 176  -426.7033
 177  -186.9956
 178  -61.74325
 179  581.2005
 180  89.11425
 181  -387.9193
 182  -435.5175
 183  -236.646
 184  -244.02
 185  24.79694
 186  750.6429
 187  474.3116
 188  298.3804
 189  -915.2322
 190  -566.8474
 191  -432.4444
 192  42.35372
 193  84.99306
 194  338.9349
 195  585
 196  -187.9362
 197  -708.1638
 198  -908.5986
 199  -963.4932
 200  -627.2864
 201  -117.5219
 202  368.8537
 203  463.088
 204  613.1964
 205  367.0692
 206  387.7963
 207  -416.9016
 208  -357.6379
 209  -82.05405
 210  750.7153
 211  822.9234
 212  749.9009
 213  626.433
 214  129.1348
 215  677.1713
 216  -139.9242
 217  -412.1514
 218  -119.0962
 219  38.31314
 220  205.33
 221  -79.89646
 222  -139.677
 223  -220.9629
 224  42.32457
 225  24.33876
 226  458.5902
 227  583.4819
 228  422.2783
 229  258.4634
 230  231.5384
 231  396.877
 232  -231.5859
 233  -288.2197
 234  -17.09175
 235  519.9458
 236  269.3195
 237  -66.3878
 238  97.59712
 239  27.90228
 240  -63.49647
 241  161.5292
 242  665.5566
 243  1092.693
 244  1392.36
 245  757.8832
 246  407.6104
 247  -32.58608
 248  -273.4276
 249  298.1898
 250  703.743
 251  845.235
 252  508.661
 253  821.772
 254  53.38444
 255  -610.6333
 256  -898.0042
 257  -840.1342
 258  -432.1587
 259  38.97429
 260  572.5661
 261  587.472
 262  214.0011
 263  -741.7748
 264  -835.4407
 265  -578.3688
 266  -376.514
 267  217.272
 268  225.4091
 269  591.3535
 270  373.8731
 271  -105.0152
 272  -695.6505
 273  -453.7366
 274  -383.9932
 275  240.971
 276  705.3134
 277  556.0161
 278  4.42943
 279  -338.2112
 280  -521.0109
 281  -813.2992
 282  -169.9563
 283  -122.088
 284  115.1666
 285  287.6262
 286  406.7784
 287  169.3657
 288  -99.5703
 289  179.0824
 290  -244.8196
 291  -55.92753
 292  437.1918
 293  1123.807
 294  1495.787
 295  803.0364
 296  207.0379
 297  -263.9722
 298  -106.3097
 299  -559.4144
 300  -888.9346
 301  -301.2207
 302  752.3862
 303  1039.245
 304  514.4271
 305  560.8428
 306  -250.8921
 307  4.959256
 308  2.046724
 309  313.6107
 310  857.4297
 311  1025.378
 312  1126.837
 313  258.4662
 314  454.1809
 315  86.41493
 316  -28.3351
 317  -198.5075
 318  248.8793
 319  -33.61966
 320  -221.1536
 321  -392.887
 322  -332.1767
 323  198.7431
 324  -19.38402
 325  572.2069
 326  555.4812
 327  434.0314
 328  69.0032
 329  -262.8854
 330  8.668226
 331  -531.7283
 332  -253.6113
 333  22.08011
 334  558.2095
 335  880.3782
 336  560.6248
 337  151.2614
 338  -386.9398
 339  -375.1895
 340  -594.1247
 341  -51.92291
 342  574.9518
 343  596.5925
 344  1061.79
 345  331.4041
 346  -292.6674
 347  -556.6519
 348  -277.4684
 349  9.881466
 350  634.267
 351  873.6543
 352  448.0543
 353  -186.8506
 354  -436.2356
 355  -315.395
 356  -198.0778
 357  -384.5561
 358  -118.2234
 359  442.4428
 360  562.2792
 361  419.412
 362  143.5896
 363  -172.685
 364  -338.2359
 365  -499.9152
 366  -326.774
 367  152.703
 368  692.1656
 369  350.9928
 370  283.0259
 371  23.85754
 372  -268.1015
 373  -686.4537
 374  -57.99684
 375  771.1086
 376  1395.908
 377  1323.15
 378  597.8615
 379  306.5508
 380  -399.8999
 381  -364.3391
 382  -19.02202
 383  639.2005
 384  679.6874
 385  531.318
 386  319.8463
 387  -267.8159
 388  -173.2178
 389  -756.7275
 390  -319.9841
 391  -268.2902
 392  184.7153
 393  646.4081
 394  507.6214
 395  428.6635
 396  -195.6064
 397  -377.494
 398  -730.3361
 399  -201.4812
 400  151.9059
 401  112.433
 402  39.51604
 403  169.6268
 404  459.2333
 405  -117.4647
 406  -27.63684
 407  -16.65633
 408  331.9668
 409  205.4218
 410  -210.4465
 411  -201.3082
 412  -201.6273
 413  55.71719
 414  -356.8778
 415  128.5516
 416  -436.8789
 417  -16.94007
 418  -198.5493
 419  32.04906
 420  134.738
 421  -427.054
 422  -763.5339
 423  -307.4598
 424  -53.47467
 425  -26.06395
 426  216.2765
 427  -286.0637
 428  -649.8569
 429  -596.8327
 430  -929.5087
 431  -117.8496
 432  156.9722
 433  529.418
 434  598.4312
 435  342.6551
 436  -610.7584
 437  -222.1444
 438  -367.2717
 439  417.1838
 440  365.2504
 441  490.5607
 442  779.3371
 443  -21.20189
 444  -204.1056
 445  -310.2373
 446  -75.53191
 447  -298.5571
 448  -644.1674
 449  -354.7629
 450  85.88032
 451  697.2015
 452  282.748
 453  145.5019
 454  -227.2875
 455  -459.0925
 456  -953.7673
 457  -427.2365
 458  -158.1592
 459  782.4973
 460  679.8585
 461  172.6428
 462  298.5074
 463  -411.8047
 464  -498.022
 465  -493.6628
 466  379.9397
 467  682.3625
 468  619.8459
 469  147.6215
 470  -465.7051
 471  -279.6913
 472  -526.9
 473  -23.26477
 474  221.7874
 475  650.2293
 476  450.2269
 477  12.19161
 478  -304.787
 479  -265.7922
 480  -68.20013
 481  -542.9968
 482  -239.0609
 483  -354.9468
 484  -448.5149
 485  262.7562
 486  -90.17442
 487  35.03255
 488  -384.1491
 489  -125.2163
 490  -846.776
 491  -259.5548
 492  237.1687
 493  221.3467
 494  363.497
 495  34.40667
 496  48.26975
 497  -693.2148
 498  -602.7057
 499  -628.3809
 500  -611.1113
 501  -430.2206
 502  -64.9366
 503  219.8471
 504  -24.03976
 505  -299.781
 506  -266.562
 507  440.7474
 508  697.0422
 509  348.8221
 510  -111.6473
 511  -661.9946
