# Input file       =  1210595454.117564_cleaned.dat
# Candidate        =  PSR_0332+5434
# Telescope        =  AR
# Epoch_topo       =  58255.521679601436
# Epoch_bary       =  N/A
# T_sample         =  0.002
# Data Folded      =  7340032
# Data Avg         =  0.279093918173333
# Data StdDev      =  5.46745835108926 
# Profile Bins     =  512
# Profile Avg      =  4001.09766962138 
# Profile StdDev   =  654.635389639424 
# Reduced chi-sqr  =  0.994
# Prob(Noise)      <  0.532   (~0.0 sigma)
# P_topo (ms)      =  714.531462543888  +/- 0.000201
# P'_topo (s/s)    =  -0                +/- 1.06e-10
# P''_topo (s/s^2) =  0                 +/- 4.68e-14
# P_bary (ms)      =  N/A
# P'_bary (s/s)    =  N/A
# P''_bary (s/s^2) =  N/A
# P_orb (s)        =  N/A
# asin(i)/c (s)    =  N/A
# eccentricity     =  N/A
# w (rad)          =  N/A
# T_peri           =  N/A
######################################################
   0  3221.616
   1  2956.771
   2  3181.555
   3  3275.231
   4  3695.638
   5  4190.028
   6  4999.37
   7  5996.023
   8  6292.279
   9  5796.391
  10  5152.336
  11  4441.926
  12  4100.842
  13  4317.701
  14  4563.45
  15  4484.818
  16  4198.544
  17  3750.874
  18  3375.102
  19  3416.531
  20  4156.532
  21  4733.736
  22  4879.852
  23  4920.967
  24  4270.28
  25  3601.493
  26  3874.64
  27  4065.254
  28  4185.625
  29  4103.335
  30  4160.38
  31  3771.666
  32  3418.328
  33  3469.111
  34  3162.744
  35  3524.358
  36  3602.952
  37  4005.865
  38  3969.699
  39  3512.592
  40  3181.907
  41  3185.367
  42  3700.282
  43  3800.279
  44  3943.577
  45  4070.661
  46  3932.742
  47  3989.591
  48  3793.593
  49  3086.106
  50  3040.99
  51  3690.698
  52  3799.8
  53  3788.901
  54  4044.448
  55  3543.688
  56  3602.018
  57  3807.094
  58  3727.964
  59  4143.098
  60  4440.114
  61  3649.06
  62  3665.219
  63  4190.884
  64  4384.229
  65  4067.701
  66  4159.596
  67  4112.149
  68  4213.698
  69  4559.269
  70  4319.148
  71  4357.341
  72  3905.699
  73  3524.183
  74  3444.927
  75  3721.357
  76  3694.915
  77  3725.417
  78  4138.191
  79  3855.4
  80  3157.729
  81  3054.085
  82  3089.235
  83  3303.497
  84  3463.862
  85  3995.184
  86  3797.026
  87  3833.609
  88  3443.661
  89  3624.396
  90  3440.5
  91  3681.963
  92  3563.603
  93  3555.073
  94  3737.047
  95  3629.93
  96  3908.185
  97  3739.441
  98  3844.944
  99  4016.265
 100  4031.806
 101  4464.315
 102  4479.058
 103  4394.463
 104  4154.348
 105  3955.059
 106  4204.942
 107  4441.889
 108  4820.784
 109  4490.255
 110  4420.032
 111  4353.759
 112  4507.284
 113  4397.639
 114  4428.135
 115  4831.079
 116  4288.65
 117  3567.852
 118  3843.732
 119  3763.893
 120  3908.693
 121  3677.2
 122  3760.607
 123  3493.892
 124  3444.93
 125  3109.182
 126  3015.333
 127  3398.431
 128  3532.666
 129  3550.175
 130  3413.45
 131  3443.058
 132  3311.436
 133  3309.004
 134  3748.297
 135  3523.723
 136  3516.229
 137  3757.047
 138  3460.22
 139  3628.127
 140  3575.118
 141  3588.522
 142  3835.243
 143  4017.837
 144  4282.491
 145  4167.193
 146  4337.349
 147  4426.208
 148  4082.167
 149  4369.777
 150  5027.174
 151  4417.922
 152  3817.962
 153  4373.819
 154  4421.026
 155  4482.508
 156  4262.033
 157  4249.446
 158  4471.064
 159  4579.736
 160  4855.279
 161  4576.062
 162  4228.651
 163  4009.205
 164  3724.647
 165  3652.037
 166  3215.615
 167  3762.228
 168  3759.502
 169  4014.562
 170  4452.124
 171  4054.434
 172  4383.008
 173  3744.079
 174  3687.373
 175  3808.54
 176  3721.479
 177  4048.048
 178  4044.702
 179  4274.706
 180  3665.107
 181  4020.933
 182  3735.47
 183  3543.011
 184  3697.495
 185  3953.633
 186  4353.339
 187  4269.191
 188  4002.966
 189  3856.218
 190  3414.981
 191  3898.894
 192  4354.507
 193  4301.695
 194  4229.243
 195  4640.865
 196  4675.916
 197  4553.021
 198  4733.161
 199  4806.692
 200  4732.717
 201  4780.7
 202  4535.698
 203  4707.243
 204  4988.921
 205  4295.504
 206  3736.419
 207  3795.936
 208  3822.545
 209  4177.011
 210  3793.75
 211  3321.641
 212  3394.633
 213  3517.116
 214  3263.3
 215  3371.459
 216  4006.586
 217  3812.758
 218  3618.395
 219  3684.346
 220  3813.473
 221  3428.041
 222  3763.296
 223  3733.384
 224  3833.938
 225  4273.464
 226  4036.007
 227  4123.371
 228  4390.556
 229  4323.157
 230  4439.469
 231  4176.448
 232  4307.291
 233  4164.648
 234  4280.582
 235  4232.674
 236  4339.664
 237  4144.183
 238  4031.546
 239  3854.487
 240  4109.773
 241  4228.213
 242  4883.237
 243  5030.604
 244  4831.389
 245  5076.148
 246  4950.469
 247  4675.44
 248  4029.239
 249  4273.584
 250  4718.965
 251  4804.243
 252  4936.246
 253  4644.292
 254  4833.973
 255  4468.781
 256  4571.144
 257  4695.509
 258  4486.748
 259  4478.856
 260  4817.712
 261  4615.481
 262  3875.276
 263  3824.712
 264  3457.493
 265  3804.017
 266  4128.908
 267  3946.033
 268  4444.518
 269  4425.07
 270  4301.085
 271  4325.511
 272  4536.177
 273  4370.758
 274  4174.311
 275  4882.496
 276  4828.867
 277  4949.936
 278  5176.664
 279  4683.009
 280  4329.659
 281  4233.256
 282  4786.465
 283  4595.197
 284  4737.148
 285  4970.116
 286  4592.794
 287  4462.932
 288  4342.315
 289  4088.336
 290  3780.117
 291  3725.406
 292  4300.048
 293  4719.274
 294  4897.729
 295  4203.459
 296  4103.37
 297  3946.15
 298  3544.954
 299  3625.86
 300  3511.136
 301  3573.973
 302  3278.366
 303  3891.236
 304  3568.545
 305  3647.656
 306  3428.282
 307  3615.73
 308  4280.167
 309  3779.233
 310  3306.35
 311  3401.456
 312  3506.769
 313  3630.611
 314  3792.875
 315  4308.318
 316  4410.894
 317  4718.814
 318  4677.797
 319  4130.515
 320  3990.648
 321  3831.329
 322  3856.413
 323  4305.64
 324  4177.949
 325  3975.13
 326  3656.282
 327  3905.086
 328  3644.662
 329  3519.052
 330  3770.345
 331  3708.753
 332  3790.514
 333  3791.048
 334  4083.051
 335  4235.356
 336  3982.385
 337  3351.979
 338  3236.812
 339  3066.03
 340  3511.012
 341  3910.225
 342  3710.736
 343  3423.176
 344  3299.339
 345  3272.566
 346  3839.037
 347  3469.503
 348  3516.846
 349  3736.921
 350  3519.308
 351  3859.416
 352  3818.157
 353  3362.278
 354  3674.677
 355  3798.193
 356  3795.643
 357  3994.479
 358  4045.975
 359  4058.132
 360  3902.004
 361  4200.438
 362  4104.547
 363  4040.878
 364  4040.344
 365  3929.479
 366  3889.955
 367  4066.01
 368  4146.939
 369  4101.217
 370  3977.53
 371  3617.187
 372  3518.414
 373  3870.834
 374  4094.983
 375  4326.092
 376  4592.075
 377  4541.739
 378  3875.794
 379  4004.673
 380  3454.765
 381  3297.544
 382  3374.231
 383  3612.703
 384  3334.074
 385  3868.221
 386  3592.512
 387  3710.132
 388  3265.927
 389  3648.908
 390  3982.873
 391  3959.087
 392  3791.795
 393  3834.737
 394  3879.375
 395  4087.245
 396  3840.903
 397  3811.647
 398  4070.443
 399  3962.392
 400  4154.102
 401  4341.267
 402  4410.735
 403  4478.089
 404  4278.081
 405  4180.406
 406  4309.178
 407  4601.255
 408  5013.705
 409  4717.168
 410  4684.927
 411  4335.864
 412  4337.506
 413  4306.533
 414  4594.984
 415  4776.054
 416  4589.465
 417  4252.527
 418  3704.589
 419  3473.311
 420  3975.521
 421  3924.417
 422  4171.774
 423  4237.929
 424  4384.971
 425  3953.864
 426  4095.507
 427  4000.534
 428  4015.019
 429  3721.86
 430  3620.194
 431  3556.791
 432  3258.92
 433  3685.409
 434  3714.217
 435  4067.578
 436  4115.127
 437  3882.563
 438  3938.579
 439  4089.308
 440  3977.697
 441  3662.129
 442  3489.898
 443  3997.927
 444  4562.71
 445  4490.389
 446  4371.712
 447  3982.572
 448  3963.233
 449  4132.223
 450  4227.725
 451  3952.187
 452  3842.067
 453  4120.605
 454  3890.995
 455  4139.776
 456  4210.162
 457  4552.894
 458  4357.962
 459  4327.118
 460  4016.129
 461  3860.839
 462  3773.811
 463  4142.27
 464  4094.798
 465  4251.108
 466  4332.428
 467  4146.475
 468  3501.086
 469  3395.528
 470  3810.269
 471  3950.07
 472  3736.557
 473  3438.117
 474  2813.277
 475  2873.667
 476  3407.135
 477  3565.722
 478  3629.152
 479  3688.834
 480  3502.82
 481  3433.386
 482  3427.036
 483  3697.085
 484  3703.427
 485  3745.052
 486  4166.569
 487  4031.692
 488  4008.056
 489  3811.738
 490  3890.429
 491  4000.501
 492  3953.348
 493  4070.235
 494  4227.146
 495  3631.591
 496  3486.852
 497  4016.361
 498  3911.994
 499  4114.704
 500  4667.827
 501  4967.916
 502  4084.795
 503  3710.495
 504  3984.855
 505  3829.798
 506  3468.171
 507  3562.562
 508  3543.183
 509  3962.702
 510  3541.332
 511  3255.128
