# Input file       =  1210595454.117564_cleaned.dat
# Candidate        =  PSR_0332+5434
# Telescope        =  AR
# Epoch_topo       =  58255.521679601436
# Epoch_bary       =  N/A
# T_sample         =  0.002
# Data Folded      =  7340032
# Data Avg         =  0.0408627542356087
# Data StdDev      =  1.00012303114914 
# Profile Bins     =  512
# Profile Avg      =  585.812167133528 
# Profile StdDev   =  119.747767269821 
# Reduced chi-sqr  =  1.451
# Prob(Noise)      <  9.76e-11   (~6.4 sigma)
# P_topo (ms)      =  714.531462543888  +/- 0.000249
# P'_topo (s/s)    =  -0                +/- 1.31e-10
# P''_topo (s/s^2) =  0                 +/- 5.81e-14
# P_bary (ms)      =  N/A
# P'_bary (s/s)    =  N/A
# P''_bary (s/s^2) =  N/A
# P_orb (s)        =  N/A
# asin(i)/c (s)    =  N/A
# eccentricity     =  N/A
# w (rad)          =  N/A
# T_peri           =  N/A
######################################################
   0  551.6105
   1  567.9031
   2  624.6271
   3  599.388
   4  690.099
   5  793.4316
   6  956.17
   7  1195.568
   8  1382.202
   9  1283.488
  10  1031.454
  11  862.6015
  12  773.7866
  13  657.8474
  14  589.087
  15  563.3329
  16  593.0385
  17  602.8539
  18  585.4769
  19  582.5323
  20  677.5787
  21  774.0677
  22  741.6301
  23  740.8408
  24  707.3928
  25  599.0853
  26  671.7198
  27  690.7758
  28  677.5375
  29  605.2115
  30  541.8918
  31  493.8006
  32  454.7662
  33  500.2271
  34  461.2502
  35  534.5684
  36  470.0364
  37  598.9652
  38  572.5239
  39  439.9723
  40  356.6324
  41  407.9331
  42  486.2065
  43  488.0412
  44  600.0986
  45  629.738
  46  562.1906
  47  577.686
  48  523.4069
  49  390.3952
  50  397.413
  51  607.9484
  52  562.6807
  53  483.5959
  54  532.9301
  55  477.7361
  56  521.9466
  57  580.9718
  58  586.937
  59  592.0192
  60  648.2121
  61  534.2156
  62  479.5236
  63  558.6045
  64  668.0944
  65  621.9399
  66  595.0667
  67  550.5923
  68  585.7608
  69  636.0967
  70  535.6254
  71  556.0782
  72  508.1087
  73  438.0716
  74  409.7335
  75  452.437
  76  382.6559
  77  441.0106
  78  593.5148
  79  552.0495
  80  449.934
  81  436.6231
  82  416.844
  83  418.4036
  84  419.492
  85  596.3467
  86  549.7376
  87  599.8552
  88  571.9088
  89  609.6566
  90  546.4921
  91  494.3788
  92  487.5413
  93  479.3638
  94  515.1728
  95  513.8537
  96  557.3727
  97  476.7982
  98  564.7569
  99  561.7632
 100  546.4376
 101  691.5533
 102  679.3312
 103  597.7615
 104  512.6373
 105  503.4541
 106  593.8248
 107  616.4173
 108  721.4777
 109  630.0395
 110  619.5198
 111  538.9735
 112  549.2236
 113  542.4807
 114  614.895
 115  719.468
 116  636.599
 117  458.142
 118  603.4402
 119  600.7903
 120  581.8551
 121  537.3775
 122  503.4948
 123  523.8011
 124  496.5781
 125  450.0609
 126  440.3738
 127  396.4742
 128  458.6405
 129  471.6249
 130  531.7422
 131  599.7084
 132  578.0496
 133  574.6588
 134  588.8614
 135  574.6097
 136  519.8853
 137  561.0741
 138  510.7139
 139  538.2977
 140  493.8168
 141  479.1077
 142  562.902
 143  619.4689
 144  642.925
 145  632.3386
 146  605.5676
 147  609.342
 148  593.7808
 149  655.2682
 150  814.576
 151  652.205
 152  469.0153
 153  549.6976
 154  599.581
 155  622.5253
 156  590.4155
 157  646.605
 158  702.1987
 159  684.3281
 160  686.5048
 161  626.9495
 162  536.816
 163  523.5242
 164  532.9446
 165  576.1574
 166  518.6747
 167  492.2077
 168  486.1292
 169  537.2329
 170  703.6969
 171  581.4895
 172  703.2736
 173  603.5784
 174  482.1461
 175  502.891
 176  489.3162
 177  572.1666
 178  532.314
 179  537.3547
 180  459.464
 181  632.1141
 182  587.67
 183  513.8032
 184  512.3917
 185  537.0627
 186  566.8375
 187  604.5461
 188  541.3094
 189  492.9678
 190  469.531
 191  532.8681
 192  627.8188
 193  512.9143
 194  559.3705
 195  679.9683
 196  635.3803
 197  599.3191
 198  644.4295
 199  684.7317
 200  642.8924
 201  602.7039
 202  530.3055
 203  575.8738
 204  624.0529
 205  529.3987
 206  491.0348
 207  476.6091
 208  482.535
 209  517.7485
 210  479.0843
 211  450.7954
 212  512.3782
 213  535.5833
 214  463.4622
 215  482.9001
 216  589.4348
 217  525.05
 218  466.3418
 219  450.3717
 220  547.8185
 221  455.9933
 222  552.7996
 223  524.876
 224  534.2606
 225  641.6424
 226  552.8981
 227  620.0454
 228  645.6647
 229  607.4827
 230  692.3637
 231  638.6934
 232  658.0917
 233  589.5943
 234  676.7058
 235  632.1267
 236  604.8503
 237  554.8914
 238  548.3931
 239  517.2437
 240  577.6509
 241  500.2991
 242  603.0901
 243  652.7866
 244  589.3853
 245  716.618
 246  741.3815
 247  732.9194
 248  585.8399
 249  565.6997
 250  693.9255
 251  686.1463
 252  672.6331
 253  624.669
 254  725.5342
 255  699.2878
 256  663.1827
 257  752.857
 258  698.9954
 259  684.7932
 260  690.4313
 261  639.4097
 262  582.2609
 263  575.5349
 264  509.2913
 265  621.6807
 266  669.52
 267  575.9851
 268  635.1357
 269  628.7282
 270  597.2232
 271  603.4307
 272  664.9875
 273  693.0546
 274  618.3661
 275  671.826
 276  646.4803
 277  671.643
 278  807.24
 279  700.847
 280  615.9131
 281  682.6636
 282  768.3293
 283  678.7701
 284  712.2322
 285  729.2055
 286  642.8941
 287  576.0685
 288  658.4719
 289  595.835
 290  486.5677
 291  499.306
 292  580.7039
 293  699.7581
 294  721.2017
 295  559.9913
 296  624.2102
 297  631.6309
 298  521.4589
 299  431.0905
 300  418.3769
 301  444.3906
 302  428.5562
 303  610.5818
 304  502.4281
 305  516.5234
 306  400.245
 307  485.8112
 308  658.7932
 309  555.8965
 310  457.7153
 311  442.8554
 312  529.103
 313  498.7501
 314  548.3886
 315  586.4922
 316  597.9636
 317  617.0762
 318  607.2287
 319  526.2206
 320  575.9509
 321  557.7682
 322  538.936
 323  586.8527
 324  548.6256
 325  500.2395
 326  455.5665
 327  563.2852
 328  490.4828
 329  509.9329
 330  530.0777
 331  501.5919
 332  547.9818
 333  528.6378
 334  590.1829
 335  656.1716
 336  642.8062
 337  507.6189
 338  473.421
 339  463.6353
 340  496.2797
 341  596.2732
 342  586.7744
 343  498.8509
 344  439.2075
 345  536.4335
 346  653.3427
 347  542.4597
 348  504.6428
 349  487.3673
 350  485.8188
 351  583.6382
 352  582.5251
 353  468.5821
 354  540.2003
 355  609.5206
 356  524.5593
 357  596.533
 358  535.5716
 359  538.3869
 360  592.8606
 361  613.947
 362  578.056
 363  512.7464
 364  529.0822
 365  494.4332
 366  492.4401
 367  561.99
 368  588.0479
 369  561.9776
 370  491.1315
 371  464.2686
 372  541.3073
 373  614.2822
 374  549.4281
 375  580.5026
 376  652.2519
 377  642.6369
 378  516.0255
 379  608.9628
 380  454.3944
 381  497.2652
 382  418.4254
 383  424.4303
 384  389.5646
 385  554.7416
 386  598.2872
 387  648.8213
 388  540.1064
 389  556.4791
 390  585.4918
 391  571.4123
 392  532.5169
 393  593.9579
 394  591.7815
 395  687.4317
 396  664.6705
 397  604.4782
 398  661.2966
 399  628.3394
 400  684.6187
 401  736.0569
 402  787.9802
 403  825.2999
 404  738.6598
 405  711.0348
 406  675.4928
 407  700.6328
 408  748.4559
 409  731.401
 410  648.198
 411  593.2805
 412  717.0879
 413  677.6863
 414  758.5696
 415  754.6916
 416  728.3202
 417  655.5618
 418  533.0953
 419  507.2016
 420  607.1061
 421  670.5281
 422  739.4282
 423  673.9035
 424  731.8285
 425  631.7809
 426  615.0831
 427  665.1384
 428  658.3906
 429  551.7816
 430  635.5421
 431  569.429
 432  551.2775
 433  652.7073
 434  654.9303
 435  749.7351
 436  695.1193
 437  640.3546
 438  662.8613
 439  656.9116
 440  634.94
 441  475.7758
 442  496.3675
 443  610.0274
 444  745.8904
 445  716.9203
 446  664.55
 447  522.1287
 448  496.4446
 449  604.7531
 450  638.6688
 451  577.0441
 452  519.6926
 453  599.0949
 454  552.3643
 455  653.8595
 456  594.2007
 457  622.2228
 458  607.4072
 459  611.1678
 460  563.472
 461  535.1835
 462  573.8392
 463  608.7653
 464  536.2642
 465  574.5794
 466  735.2807
 467  701.2861
 468  503.9233
 469  473.8346
 470  508.0383
 471  611.9185
 472  541.2494
 473  475.0121
 474  395.3119
 475  426.6844
 476  483.9412
 477  555.1926
 478  606.5621
 479  591.4313
 480  594.2515
 481  561.4403
 482  611.9976
 483  601.6801
 484  469.214
 485  495.9256
 486  614.8854
 487  651.6898
 488  622.4026
 489  612.5862
 490  614.043
 491  606.5979
 492  594.6128
 493  588.0637
 494  655.8976
 495  457.9609
 496  479.3853
 497  658.9051
 498  664.7786
 499  691.706
 500  702.796
 501  783.3079
 502  562.6053
 503  527.5504
 504  652.6591
 505  547.5316
 506  510.2618
 507  509.9009
 508  572.8871
 509  682.2766
 510  588.3121
 511  482.3834
