# Input file       =  1210839012.112088_cleaned.dat
# Candidate        =  PSR_0332+5434
# Telescope        =  AR
# Epoch_topo       =  58258.340637871392
# Epoch_bary       =  N/A
# T_sample         =  0.002
# Data Folded      =  7340032
# Data Avg         =  0.255232830735622
# Data StdDev      =  4.35868899128191 
# Profile Bins     =  512
# Profile Avg      =  3659.12950531457 
# Profile StdDev   =  521.879067548167 
# Reduced chi-sqr  =  1.321
# Prob(Noise)      <  1.39e-06   (~4.7 sigma)
# P_topo (ms)      =  714.528358851179  +/- 0.000302
# P'_topo (s/s)    =  -0                +/- 1.59e-10
# P''_topo (s/s^2) =  0                 +/- 7.03e-14
# P_bary (ms)      =  N/A
# P'_bary (s/s)    =  N/A
# P''_bary (s/s^2) =  N/A
# P_orb (s)        =  N/A
# asin(i)/c (s)    =  N/A
# eccentricity     =  N/A
# w (rad)          =  N/A
# T_peri           =  N/A
######################################################
   0  3586.627
   1  3829.439
   2  3765.5
   3  3533.124
   4  3626.424
   5  3335.38
   6  3551.795
   7  3784.326
   8  3331.073
   9  3356.734
  10  3436.17
  11  3145.027
  12  3298.471
  13  3653.326
  14  3696.576
  15  3529.438
  16  3555.26
  17  3554.788
  18  3564.404
  19  3755.434
  20  3747.725
  21  3957.79
  22  4204.582
  23  3848.923
  24  3775.625
  25  3796.492
  26  3804.991
  27  4261.219
  28  4362.214
  29  4213.243
  30  4022.231
  31  4100.828
  32  3918.471
  33  3997.185
  34  4092.325
  35  3944.421
  36  3824.05
  37  3700.487
  38  3471.244
  39  3611.939
  40  3613.659
  41  3473.419
  42  3502.63
  43  3385.427
  44  3839.927
  45  3689.039
  46  3536.086
  47  3525.586
  48  3709.929
  49  3725.105
  50  3577.113
  51  3500.108
  52  3631.668
  53  3479.849
  54  3502.581
  55  3610.689
  56  3504.123
  57  3358.843
  58  3203.17
  59  3339.461
  60  3440.653
  61  3628.407
  62  3879.689
  63  3927.319
  64  3810.021
  65  4209.702
  66  3928.957
  67  3960.339
  68  4053.118
  69  4380.687
  70  4227.662
  71  4010.795
  72  3621.589
  73  3470.178
  74  3571.572
  75  3603.414
  76  3853.286
  77  3536.086
  78  3401.312
  79  3745.49
  80  3621.883
  81  3847.76
  82  3510.625
  83  3588.197
  84  3494.967
  85  3605.71
  86  3087.501
  87  3135.726
  88  3647.901
  89  3418.042
  90  3018.277
  91  2991.278
  92  3085.372
  93  3414.894
  94  3583.14
  95  3305.19
  96  3336.531
  97  3428.585
  98  3920.642
  99  3613.16
 100  3892.71
 101  3864.861
 102  3734.583
 103  3693.519
 104  3418.733
 105  3531.435
 106  3596.753
 107  3588.808
 108  3875.02
 109  3689.93
 110  3315.234
 111  3465.258
 112  3552.698
 113  3466.063
 114  3227.734
 115  3539.02
 116  3362.032
 117  3388.585
 118  3617.71
 119  3465.03
 120  3165.279
 121  2766.853
 122  2808.927
 123  2921.755
 124  2799.911
 125  2780.296
 126  2821.652
 127  2537.654
 128  2671.596
 129  2775.062
 130  2818.537
 131  2807.451
 132  2620.017
 133  2839.949
 134  3032.837
 135  2940.259
 136  3151.854
 137  3393.084
 138  3309.421
 139  3357.146
 140  3392.873
 141  3728.876
 142  3747.133
 143  3478.863
 144  3723.869
 145  3559.827
 146  3853.655
 147  3615.41
 148  3450.385
 149  3741.986
 150  3633.553
 151  3600.473
 152  3445.528
 153  3416.296
 154  3761.871
 155  3856.417
 156  3466.724
 157  3555.141
 158  3598.387
 159  3523.811
 160  3303.239
 161  3462.675
 162  3497.064
 163  3685.571
 164  3732.576
 165  3282.175
 166  3091.292
 167  3475.555
 168  3310.338
 169  2915.874
 170  2885.181
 171  3153.211
 172  3080.564
 173  2795.904
 174  2930.275
 175  3071.875
 176  2722.265
 177  3010.689
 178  2759.323
 179  2834.755
 180  3298.797
 181  3277.633
 182  3085.108
 183  3258.386
 184  3584.611
 185  3271.656
 186  3124.922
 187  3462.719
 188  3276.001
 189  3298.333
 190  3496.837
 191  3594.265
 192  3616.973
 193  3806.079
 194  3740.053
 195  3726.122
 196  3924.908
 197  4002.306
 198  4259.981
 199  4117.843
 200  3941.023
 201  3599.545
 202  3880.954
 203  3895.117
 204  3603.181
 205  3878.053
 206  3681.649
 207  3273.947
 208  3189.061
 209  3530.187
 210  3597.288
 211  3633.809
 212  3559.75
 213  3256.119
 214  3927.756
 215  4626.016
 216  5031.04
 217  5515.99
 218  6001.776
 219  5605.002
 220  5174.948
 221  4609.778
 222  4046.333
 223  3374.742
 224  3560.834
 225  3407.043
 226  3283.631
 227  3822.127
 228  3713.671
 229  3775.992
 230  3923.952
 231  4415.016
 232  4632.438
 233  4556.076
 234  4321.973
 235  4092.501
 236  4175.042
 237  4206.388
 238  4510.642
 239  4436.143
 240  4144.607
 241  4233.96
 242  4240.807
 243  4287.189
 244  4126.259
 245  4414.603
 246  4554.184
 247  4374.308
 248  3993.924
 249  3919.861
 250  3866.346
 251  3691.76
 252  3492.205
 253  3376.518
 254  3504.084
 255  3320.069
 256  3507.26
 257  3594.146
 258  3717.498
 259  3593.809
 260  3541.881
 261  3666.081
 262  3814.729
 263  3737.487
 264  3854.239
 265  3672.244
 266  3637.69
 267  3850.892
 268  3815.323
 269  3901.361
 270  3897.228
 271  3912.971
 272  3311.102
 273  3567.095
 274  3966.913
 275  3709.82
 276  3934.973
 277  4074.566
 278  4105.018
 279  4183.662
 280  4239.232
 281  4284.931
 282  4221.715
 283  4001.132
 284  4225.397
 285  4225.485
 286  4130.06
 287  3945.6
 288  3776.718
 289  3459.829
 290  3332.024
 291  3151.484
 292  3438.899
 293  3772.724
 294  3672.152
 295  3626.038
 296  3091.488
 297  3378.239
 298  3333.619
 299  3338.974
 300  3500.31
 301  3516.189
 302  3657.319
 303  3803.642
 304  3491.606
 305  3509.306
 306  3784.315
 307  3790.704
 308  3539.461
 309  3451.14
 310  3832.686
 311  4122.035
 312  3840.972
 313  3693.218
 314  3823.084
 315  4234.168
 316  4445.85
 317  4454.852
 318  3938.475
 319  4122.313
 320  4294.676
 321  4164.699
 322  4306.093
 323  4262.3
 324  4114.626
 325  4381.821
 326  4276.14
 327  3717.892
 328  4087.724
 329  4312.644
 330  3913.721
 331  3756.027
 332  4273.632
 333  4250.493
 334  3531.906
 335  3303.006
 336  3549.67
 337  3547.463
 338  4097.008
 339  4129.373
 340  4152.219
 341  3800.244
 342  3768.836
 343  3807.047
 344  3704.575
 345  3716.86
 346  3815.134
 347  3676.897
 348  3397.487
 349  3593.325
 350  3312.658
 351  3404.209
 352  3723.384
 353  3532.895
 354  3083.434
 355  3243.437
 356  3071.615
 357  3617.871
 358  3771.3
 359  3795.757
 360  3706.819
 361  3150.854
 362  3086.785
 363  3538.251
 364  3646.772
 365  3471.853
 366  3068.741
 367  3480.318
 368  3859.392
 369  3782.606
 370  3614.407
 371  3484.008
 372  3354.467
 373  3598.731
 374  3385.307
 375  3198.101
 376  3255.547
 377  2889.683
 378  2841.483
 379  3046.143
 380  2861.916
 381  3050.841
 382  3121.496
 383  2830.323
 384  2758.939
 385  2627.817
 386  2676.281
 387  2997.998
 388  3016.787
 389  2822.026
 390  2876.623
 391  2881.106
 392  3145.268
 393  3461.729
 394  3567.744
 395  3360.057
 396  3128.222
 397  3281.301
 398  3219.428
 399  3671.53
 400  3814.437
 401  3839.623
 402  3615.296
 403  3491.819
 404  3764.402
 405  3532.362
 406  3766.577
 407  4469.848
 408  4414.418
 409  4495.561
 410  4553.77
 411  4629.147
 412  4253.897
 413  4147.544
 414  4537.784
 415  4457.785
 416  4336.859
 417  4529.758
 418  4355.754
 419  3891.028
 420  3569.629
 421  3595.606
 422  3428.522
 423  3413.3
 424  3620.519
 425  3662.5
 426  3622.281
 427  3566.475
 428  3406.828
 429  3708.614
 430  3605.594
 431  3171.725
 432  2944.916
 433  3401.333
 434  3923.415
 435  3873.273
 436  3587.942
 437  3502.153
 438  3654.421
 439  3749.167
 440  3500.898
 441  3633.449
 442  3738.458
 443  3787.881
 444  3578.812
 445  3818.97
 446  3484.898
 447  3635.209
 448  3510.268
 449  3619.89
 450  3805.406
 451  4134.217
 452  4024.636
 453  3857.208
 454  3643.243
 455  3649.572
 456  3525.937
 457  3125.88
 458  3495.474
 459  3967.076
 460  3630.42
 461  3628.174
 462  3741.827
 463  3871.71
 464  3713.121
 465  3494.77
 466  3627.374
 467  3780.101
 468  3758.051
 469  3735.731
 470  3572.496
 471  3561.768
 472  3749.957
 473  3920.294
 474  3942.652
 475  3763.154
 476  3897.74
 477  4223.492
 478  3628.625
 479  3525.313
 480  3712.607
 481  3847.257
 482  3890.295
 483  3830.949
 484  3400.917
 485  3459.875
 486  3685.611
 487  3585.413
 488  3593.794
 489  3555.028
 490  3511.64
 491  3560.531
 492  3638.652
 493  3585.364
 494  3889.955
 495  4116
 496  3957.757
 497  3791.379
 498  3842.86
 499  3987.929
 500  4048.901
 501  4214.312
 502  4367.37
 503  4036.537
 504  3828.389
 505  3544.812
 506  3577.655
 507  3302.082
 508  3766.46
 509  3890.789
 510  3978.432
 511  3464.694
