# Input file       =  1210767789.121276_cleaned.dat
# Candidate        =  PSR_0332+5434
# Telescope        =  AR
# Epoch_topo       =  58257.516297699949
# Epoch_bary       =  N/A
# T_sample         =  0.002
# Data Folded      =  7340032
# Data Avg         =  0.179394462801741
# Data StdDev      =  4.40408173590674 
# Profile Bins     =  512
# Profile Avg      =  2571.80178457131 
# Profile StdDev   =  527.314078691573 
# Reduced chi-sqr  =  0.850
# Prob(Noise)      <  0.994   (~0.0 sigma)
# P_topo (ms)      =  714.529504609743  +/- 0.000476
# P'_topo (s/s)    =  -0                +/- 2.51e-10
# P''_topo (s/s^2) =  0                 +/- 1.11e-13
# P_bary (ms)      =  N/A
# P'_bary (s/s)    =  N/A
# P''_bary (s/s^2) =  N/A
# P_orb (s)        =  N/A
# asin(i)/c (s)    =  N/A
# eccentricity     =  N/A
# w (rad)          =  N/A
# T_peri           =  N/A
######################################################
   0  2432.195
   1  2459.439
   2  2510.194
   3  2412.827
   4  2597.132
   5  2580.96
   6  2664.712
   7  2533.841
   8  2690.242
   9  2988.366
  10  2958.206
  11  2944.538
  12  2918.94
  13  2823.153
  14  2508.364
  15  2232.909
  16  2240.533
  17  2522.575
  18  2307.312
  19  2891.222
  20  2784.15
  21  2636.299
  22  2417.927
  23  2558.144
  24  2837.337
  25  2614.638
  26  2727.336
  27  2687.618
  28  2734.17
  29  2971.61
  30  3071.6
  31  2942.413
  32  2656.34
  33  2522.399
  34  2072.722
  35  2323.411
  36  2648.179
  37  2967.483
  38  2769.583
  39  2493.722
  40  2852.984
  41  3051.415
  42  2851.205
  43  2860.79
  44  3060.501
  45  2911.391
  46  2790.346
  47  2478.306
  48  2730.435
  49  3017.54
  50  3045.602
  51  2794.106
  52  2584.274
  53  2592.427
  54  2737.647
  55  3288.558
  56  3125.831
  57  3019.565
  58  2977.024
  59  2739.202
  60  2522.484
  61  2466.139
  62  2456.272
  63  2709.957
  64  2472.46
  65  2381.566
  66  2376.74
  67  2549.537
  68  1998.857
  69  1488.582
  70  1899.772
  71  2034.58
  72  2241.605
  73  2320.591
  74  2352.389
  75  2058.333
  76  2109.652
  77  2342.055
  78  2471.27
  79  2580.148
  80  2205.958
  81  1993.336
  82  2332.89
  83  2374.554
  84  2311.708
  85  2250.531
  86  2290.719
  87  2372.351
  88  2103.743
  89  2167.078
  90  2769.877
  91  2675.295
  92  2355.449
  93  2355.195
  94  2368.204
  95  2176.355
  96  2339.317
  97  2634.743
  98  2715.608
  99  2837.935
 100  2557.726
 101  1982.589
 102  2243.179
 103  2507.54
 104  2408.603
 105  2686.441
 106  2340.358
 107  2495.355
 108  2265.739
 109  2562.069
 110  2480.303
 111  2018.987
 112  1992.137
 113  2232.975
 114  2181.818
 115  2133.266
 116  2465.519
 117  2154.641
 118  1989.183
 119  1870.356
 120  1966.111
 121  2064.795
 122  2155.519
 123  2101.465
 124  2115.283
 125  2212.259
 126  2203.034
 127  2215.188
 128  2279.051
 129  2230.792
 130  2453.661
 131  2440.381
 132  2445.404
 133  2111.198
 134  1957.962
 135  2135.234
 136  2049.591
 137  2096.521
 138  2385.787
 139  2508.774
 140  2336.91
 141  2614.94
 142  2652.412
 143  2304.72
 144  2121.19
 145  2386.772
 146  2474.38
 147  2354.576
 148  2596.145
 149  2686.628
 150  2562.74
 151  2340.055
 152  2022.704
 153  2108.79
 154  2142.971
 155  2405.234
 156  2615.675
 157  2569.487
 158  2526.716
 159  2458.495
 160  2944.064
 161  2798.24
 162  2996.963
 163  2926.452
 164  2982.536
 165  2838.104
 166  2874.433
 167  2768.148
 168  2388.704
 169  2232.045
 170  2396.548
 171  2575.635
 172  2602.749
 173  2477.491
 174  2582.281
 175  2529.438
 176  2538.086
 177  2170.969
 178  2186.355
 179  2197.671
 180  2050.998
 181  2294.143
 182  2422.723
 183  2661.402
 184  2655.102
 185  2754.03
 186  2918.058
 187  2708.155
 188  2961.445
 189  3047.456
 190  3093.866
 191  3019.897
 192  2981.149
 193  2747.452
 194  3057.422
 195  3289.545
 196  3154.546
 197  3142.306
 198  2767.445
 199  2494.905
 200  2438.963
 201  2604.84
 202  2877.337
 203  2704.996
 204  2686.247
 205  2780.619
 206  2489.22
 207  2414.094
 208  2424.74
 209  2492.72
 210  2531.416
 211  3028.302
 212  3153.406
 213  2965.911
 214  2698.194
 215  2503.281
 216  2825.191
 217  3057.231
 218  2901.1
 219  2159.755
 220  2354.042
 221  2601.044
 222  2115.641
 223  2040.779
 224  2158.38
 225  2238.821
 226  2001.866
 227  2625.61
 228  2657.241
 229  2576.104
 230  2442.383
 231  2447.743
 232  2434.698
 233  2231.802
 234  2251.955
 235  2518.239
 236  2642.043
 237  2374.092
 238  2533.849
 239  2770.293
 240  2636.65
 241  2663.795
 242  2606.01
 243  2712.815
 244  2706.561
 245  2371.41
 246  2367.115
 247  2618.061
 248  2572.121
 249  2463.122
 250  2298.799
 251  2172.71
 252  1953.947
 253  2470.094
 254  2407.524
 255  2221.45
 256  2392.569
 257  2184.7
 258  2190.239
 259  2538.526
 260  2653.572
 261  2453.633
 262  2021.76
 263  1820.267
 264  2020.488
 265  2389.536
 266  2477.376
 267  2353.128
 268  2122.878
 269  2180.958
 270  2306.045
 271  2420.073
 272  2448.434
 273  2231.829
 274  2128.065
 275  1999.292
 276  1989.623
 277  1756.979
 278  1907.979
 279  2214.749
 280  2371.914
 281  2472.26
 282  2298.892
 283  1785.622
 284  1993.616
 285  1820.282
 286  1925.725
 287  1719.442
 288  1822.38
 289  2012.522
 290  1906.019
 291  2331.541
 292  2323.284
 293  2239.258
 294  2474.041
 295  2603.478
 296  2835.5
 297  3267.834
 298  3726.998
 299  4131.308
 300  3975.823
 301  3483.995
 302  2955.133
 303  2754.797
 304  2325.683
 305  2205.552
 306  2469.169
 307  2815.219
 308  2881.847
 309  2795.921
 310  2980.18
 311  2602.179
 312  2644.794
 313  2941.49
 314  2963.98
 315  2789.434
 316  3093.089
 317  2771.094
 318  2746.595
 319  3119.702
 320  3097.136
 321  3212.139
 322  3180.786
 323  3269.225
 324  2949
 325  2947.007
 326  3181.055
 327  3192.799
 328  2589.132
 329  2737.946
 330  3075.686
 331  2689.106
 332  2767.971
 333  3056.195
 334  2804.349
 335  2490.814
 336  2559.502
 337  2688.061
 338  2756.114
 339  2791.846
 340  2796.854
 341  2638.289
 342  2330.128
 343  2438.775
 344  2584.097
 345  2839.73
 346  2645.76
 347  2606.971
 348  2697.831
 349  2388.074
 350  2698.11
 351  2743.217
 352  2742.296
 353  2829.985
 354  2941.765
 355  3313.81
 356  3365.292
 357  2743.359
 358  2861.394
 359  3058.418
 360  3097.666
 361  2994.594
 362  2826.32
 363  2510.47
 364  2921.191
 365  2862.513
 366  2638.885
 367  2588.57
 368  2655.739
 369  2890.413
 370  2908.57
 371  3160.642
 372  2633.286
 373  2814.867
 374  2818.796
 375  2803.894
 376  2852.074
 377  2911.227
 378  2905.46
 379  2798.245
 380  2822.961
 381  3003.639
 382  3088.698
 383  2972.4
 384  2917.336
 385  2302.589
 386  2779.245
 387  3052.082
 388  2912.351
 389  2646.414
 390  2684.606
 391  2767.682
 392  3010.168
 393  2720.755
 394  2525.743
 395  2562.059
 396  2728.589
 397  2786.024
 398  2667.708
 399  2744.02
 400  2855.129
 401  2567.274
 402  2488.507
 403  2559.945
 404  3115.149
 405  2848.949
 406  2737.613
 407  2802.579
 408  2604.431
 409  2637.276
 410  2716.961
 411  2389.826
 412  2655.78
 413  2581.655
 414  2304.088
 415  2240.266
 416  1876.008
 417  2146.897
 418  2328.013
 419  2586.053
 420  2804.285
 421  2592.759
 422  2280.523
 423  2017.414
 424  1944.949
 425  2332.545
 426  2407.635
 427  2451.881
 428  2671.569
 429  2417.393
 430  2374.599
 431  2150.217
 432  2050.693
 433  2229.643
 434  2389.061
 435  2372.525
 436  2879.559
 437  3144.069
 438  2983.465
 439  2884.171
 440  2490.244
 441  2179.648
 442  2711.101
 443  2824.946
 444  2718.376
 445  2429.299
 446  2266.48
 447  1871.118
 448  1902.399
 449  2685.43
 450  2843.248
 451  2587.47
 452  2477.253
 453  2545.452
 454  2542.446
 455  2655.341
 456  2739.701
 457  2511.324
 458  2219.591
 459  2423.01
 460  2692.374
 461  2969.903
 462  3298.538
 463  3195.217
 464  3060.602
 465  2834.636
 466  2823.321
 467  2812.847
 468  2529.405
 469  2665.869
 470  2914.503
 471  3199.636
 472  3207.015
 473  3159.331
 474  2983.515
 475  2613.664
 476  2548.531
 477  2531.445
 478  2613.658
 479  2816.618
 480  3272.531
 481  3155.537
 482  2921.894
 483  2736.18
 484  2625.215
 485  2541.832
 486  2559.832
 487  2930.471
 488  2909.57
 489  2644.824
 490  2916.753
 491  2843.354
 492  1923.445
 493  2092.538
 494  2566.128
 495  2673.224
 496  2647.188
 497  2511.329
 498  2304.068
 499  2065.45
 500  2052.885
 501  2275.303
 502  2380.155
 503  2334.969
 504  2395.474
 505  2500.778
 506  2200.816
 507  2035.253
 508  2127.574
 509  2511.999
 510  2807.228
 511  2782.669
