# Input file       =  1210824426.118472_cleaned.dat
# Candidate        =  PSR_0332+5434
# Telescope        =  AR
# Epoch_topo       =  58258.171818500836
# Epoch_bary       =  N/A
# T_sample         =  0.002
# Data Folded      =  7143424
# Data Avg         =  0.165351387715702
# Data StdDev      =  5.23392571127538 
# Profile Bins     =  256
# Profile Avg      =  4613.70950870607 
# Profile StdDev   =  874.300618729323 
# Reduced chi-sqr  =  1.408
# Prob(Noise)      <  1.84e-05   (~4.1 sigma)
# P_topo (ms)      =  714.528510845236  +/- 4.24e-05
# P'_topo (s/s)    =  -0                +/- 2.3e-11
# P''_topo (s/s^2) =  0                 +/- 1.04e-14
# P_bary (ms)      =  N/A
# P'_bary (s/s)    =  N/A
# P''_bary (s/s^2) =  N/A
# P_orb (s)        =  N/A
# asin(i)/c (s)    =  N/A
# eccentricity     =  N/A
# w (rad)          =  N/A
# T_peri           =  N/A
######################################################
   0  4790.553
   1  3930.763
   2  4096.432
   3  2932.196
   4  4465.483
   5  4868.418
   6  4895.667
   7  3452.803
   8  3822.952
   9  3889.227
  10  3929.977
  11  3715.12
  12  4593.386
  13  4725.395
  14  5485.522
  15  3946.176
  16  3952.964
  17  4740.609
  18  3829.696
  19  4634.799
  20  4739.555
  21  5725.71
  22  5182.669
  23  4591.793
  24  4041.919
  25  4752.556
  26  3889.375
  27  3746.764
  28  4087.775
  29  6280.351
  30  5161.621
  31  4731.703
  32  4148.682
  33  6108.747
  34  4771.096
  35  4626.562
  36  3188.753
  37  5376.238
  38  6199.048
  39  5275.643
  40  3166.943
  41  4872.944
  42  4703.957
  43  4625.05
  44  3929.01
  45  4798.517
  46  5575.963
  47  5565.895
  48  4607.02
  49  4778.843
  50  5244.357
  51  4606.435
  52  4164.209
  53  3993.985
  54  5048.167
  55  6013.267
  56  5575.303
  57  4310.667
  58  4445.971
  59  4375
  60  4998.283
  61  3586.211
  62  5416.357
  63  5315.704
  64  4748.766
  65  3623.279
  66  5316.879
  67  5007.363
  68  5021.645
  69  4149.751
  70  5283.166
  71  6323.746
  72  5463.02
  73  4151.395
  74  4400.892
  75  5187.25
  76  4490.841
  77  3781.133
  78  4217.969
  79  5185.074
  80  4764.88
  81  4617.736
  82  4462.66
  83  5061.695
  84  4046.79
  85  4263.127
  86  4027.897
  87  5341.221
  88  5009.305
  89  5201.18
  90  3782.055
  91  5176.816
  92  4125.989
  93  3869.594
  94  4287.26
  95  6076.043
  96  5996.978
  97  5718.69
  98  4534.047
  99  4819.078
 100  5507.803
 101  5250.23
 102  4342.088
 103  5104.193
 104  5527.163
 105  5556.05
 106  4571.849
 107  4683.883
 108  4595.267
 109  3997.956
 110  3508.809
 111  4000.056
 112  5677.018
 113  5141.069
 114  4075.107
 115  3977.375
 116  4494.798
 117  3958.117
 118  4458.54
 119  4429.53
 120  5384.75
 121  5377.741
 122  5406.316
 123  4344.436
 124  4772.263
 125  3667.128
 126  4182.103
 127  3766.586
 128  4991.484
 129  5387.27
 130  4860.379
 131  3422.969
 132  4958.086
 133  5310.014
 134  4724.345
 135  3222.062
 136  4430.248
 137  5561.496
 138  5746.232
 139  4811.97
 140  4283.797
 141  5270.22
 142  4235.708
 143  3590.803
 144  4011.282
 145  5905.42
 146  5705.048
 147  5932.153
 148  6673.072
 149  8872.993
 150  9087.147
 151  6009.323
 152  5563.658
 153  6632.636
 154  5771.133
 155  5923.593
 156  4999.37
 157  6584.765
 158  5227.03
 159  4723.449
 160  3580.457
 161  5685.259
 162  5781.978
 163  5851.994
 164  3400.841
 165  4719.502
 166  4756.836
 167  5081.375
 168  2651.881
 169  4494.009
 170  6200.812
 171  5804.854
 172  3893.224
 173  4690.587
 174  5049.445
 175  4735.217
 176  3153.803
 177  4035.13
 178  5143.727
 179  5676.361
 180  4952.159
 181  3792.025
 182  4475.957
 183  3804.729
 184  4047.398
 185  3995.832
 186  5085.869
 187  4551.581
 188  5048.715
 189  3436.351
 190  4680.12
 191  2938.139
 192  3985.475
 193  2988.224
 194  4757.94
 195  3999.887
 196  4482.293
 197  3757.848
 198  5036.65
 199  3924.359
 200  3644.439
 201  2853.243
 202  3951.023
 203  5443.296
 204  4671.917
 205  3708.423
 206  3308.338
 207  4400.594
 208  3613.03
 209  3081.833
 210  2814.733
 211  5257.501
 212  4960.947
 213  3613.076
 214  2954.497
 215  4417.389
 216  4083.361
 217  3495.508
 218  3276.016
 219  4432.722
 220  4422.36
 221  4907.139
 222  3625.33
 223  4128.11
 224  4014.981
 225  4174.297
 226  3788.813
 227  5085.43
 228  4304.056
 229  4947.301
 230  3574.811
 231  4625.748
 232  4287.293
 233  4205.139
 234  4209.64
 235  4847.006
 236  4947.434
 237  4978.589
 238  4368.796
 239  4106.476
 240  4778.665
 241  4026.212
 242  3556.879
 243  4795.215
 244  5314.706
 245  5034.021
 246  4844.878
 247  3475.501
 248  4523.205
 249  4331.121
 250  2754.873
 251  3329.989
 252  5951.563
 253  5228.48
 254  3616.625
 255  3122.876
