# Input file       =  1210336979.122326-PSRB0329-2ms-sampling-dd.dat
# Candidate        =  PSR_0332+5434
# Telescope        =  AR
# Epoch_topo       =  58252.530070860252
# Epoch_bary       =  N/A
# T_sample         =  0.002
# Data Folded      =  7340032
# Data Avg         =  5.96427342307259e-09
# Data StdDev      =  51.9494510070674 
# Profile Bins     =  512
# Profile Avg      =  -0.468723106108508
# Profile StdDev   =  6220.06550718224 
# Reduced chi-sqr  =  1.305
# Prob(Noise)      <  3.89e-06   (~4.5 sigma)
# P_topo (ms)      =  714.534385195041  +/- 0.00122
# P'_topo (s/s)    =  -0                +/- 6.42e-10
# P''_topo (s/s^2) =  0                 +/- 2.83e-13
# P_bary (ms)      =  N/A
# P'_bary (s/s)    =  N/A
# P''_bary (s/s^2) =  N/A
# P_orb (s)        =  N/A
# asin(i)/c (s)    =  N/A
# eccentricity     =  N/A
# w (rad)          =  N/A
# T_peri           =  N/A
######################################################
   0  -3620.631
   1  -3049.816
   2  -3220.298
   3  -2947.375
   4  -1466.397
   5  -362.815
   6  -1987.495
   7  -3906.341
   8  -4740.531
   9  -2009.918
  10  -1426.179
  11  -87.8738
  12  293.3566
  13  -281.699
  14  452.4021
  15  496.4967
  16  -365.4826
  17  -777.1468
  18  -1096.946
  19  -0.1574833
  20  474.9931
  21  1.687669
  22  1702.099
  23  3354.613
  24  5045.059
  25  5740.049
  26  6543.256
  27  6244.256
  28  2362.274
  29  2628.346
  30  3354.511
  31  3070.158
  32  2494.347
  33  2185.957
  34  2701.344
  35  1698.77
  36  1570.354
  37  -255.8106
  38  762.6556
  39  2140.169
  40  3628.731
  41  2943.947
  42  3009.364
  43  4818.425
  44  6253.661
  45  5831.667
  46  5752.042
  47  5938.769
  48  6162.744
  49  5324.852
  50  2765.631
  51  4850.13
  52  5285.711
  53  5283.531
  54  4621.713
  55  4678.001
  56  5150.905
  57  4175.345
  58  3786.459
  59  3815.85
  60  4750.615
  61  4053.387
  62  4156.695
  63  4977.78
  64  3838.289
  65  3779.204
  66  4103.059
  67  734.4081
  68  -1986.383
  69  -4371.39
  70  -2990.124
  71  -234.5397
  72  3125.146
  73  4080.223
  74  3073.155
  75  3035.843
  76  3791.272
  77  2574.797
  78  2234.144
  79  2568.301
  80  2617.069
  81  2683.754
  82  2692.269
  83  2642.727
  84  2279.097
  85  2664.798
  86  2532.731
  87  3017.965
  88  2607.677
  89  1954.985
  90  4613.822
  91  4807.705
  92  4055.109
  93  -1055.626
  94  202.2464
  95  134.2157
  96  -1852.351
  97  -157.462
  98  -45.01046
  99  157.4441
 100  3888.407
 101  2641.559
 102  3015.686
 103  1320.737
 104  7318.882
 105  9936.245
 106  11982.24
 107  12314.18
 108  11175.75
 109  10750.72
 110  10441.71
 111  8825.32
 112  7317.241
 113  7199.378
 114  7991.751
 115  8442.394
 116  4867.297
 117  4156.591
 118  4506.938
 119  3481.387
 120  2899.828
 121  2842.619
 122  2003.718
 123  5705.928
 124  5132.857
 125  4423.932
 126  1711.824
 127  1681.279
 128  4762.013
 129  3874
 130  4241.185
 131  3590.375
 132  5418.729
 133  3268.314
 134  1082.771
 135  -1561.829
 136  -324.6685
 137  -13.76402
 138  1589.265
 139  3384.563
 140  2533.232
 141  2132.931
 142  1715.077
 143  786.3594
 144  1098.509
 145  1530.15
 146  2165.159
 147  2311.974
 148  2985.6
 149  3231.441
 150  1245.966
 151  1309.025
 152  2419.162
 153  2601.352
 154  3383.838
 155  3830.751
 156  4071.89
 157  9898.115
 158  14079.92
 159  14968.27
 160  15396.63
 161  15818.46
 162  15538.88
 163  17600.15
 164  16229.56
 165  15244.8
 166  9123.656
 167  10036.77
 168  10772.37
 169  13039.09
 170  13220.63
 171  11182.28
 172  10776.44
 173  11389.36
 174  9695.989
 175  8168.216
 176  9029.61
 177  8867.01
 178  6858.999
 179  7402.996
 180  8278.646
 181  8295.994
 182  7620.181
 183  7513.804
 184  9235.433
 185  8657.334
 186  8994.936
 187  10004.33
 188  10954.14
 189  10512.15
 190  10453.26
 191  11386.71
 192  11334.57
 193  10587.05
 194  9151.922
 195  8437.638
 196  7912.401
 197  5509.637
 198  7226.938
 199  7527.548
 200  6260.191
 201  4923.22
 202  5384.182
 203  5786.239
 204  5005.693
 205  6066.783
 206  5683.422
 207  4808.892
 208  6137.519
 209  6461.626
 210  5360.423
 211  5505.876
 212  5566.911
 213  5306.649
 214  5107.757
 215  5546.433
 216  5746.355
 217  3861.317
 218  2974.621
 219  1068.412
 220  -3507.691
 221  -3157.365
 222  -3117.426
 223  -2158.281
 224  -1567.117
 225  -1524.509
 226  -1672.424
 227  -1283.719
 228  -1671.109
 229  -916.6698
 230  -424.9673
 231  -116.2095
 232  -247.8951
 233  -435.9575
 234  969.418
 235  1130.216
 236  1810.896
 237  1900.42
 238  1773.254
 239  1118.976
 240  -1056.033
 241  -1048.123
 242  -1381.772
 243  -3211.93
 244  -3985.607
 245  -3672.928
 246  -3303.156
 247  -3484.218
 248  -3216.418
 249  -3256.13
 250  -3593.198
 251  -3463.451
 252  -3529.536
 253  -3316.765
 254  -2558.947
 255  -2271.958
 256  -2316.199
 257  -2473.071
 258  -2504.77
 259  -2311.353
 260  -2943.885
 261  -2654.29
 262  -2044.344
 263  -1584.079
 264  -1907.73
 265  -1547.653
 266  -1385.895
 267  -982.3268
 268  -1302.503
 269  -1316.996
 270  -444.5435
 271  -7.844481
 272  556.1791
 273  464.1712
 274  535.4224
 275  731.7987
 276  688.0003
 277  2149.868
 278  1041.049
 279  769.6848
 280  1255.113
 281  1979.495
 282  1682.76
 283  812.1047
 284  1392.152
 285  866.3661
 286  -139.7762
 287  62.86385
 288  333.6271
 289  15.90466
 290  -1352.962
 291  -1691.022
 292  -2210.484
 293  -4841.117
 294  -3085.506
 295  -3087.659
 296  -3860.111
 297  -6928.156
 298  -7113.726
 299  -7483.928
 300  -6689.146
 301  -7078.983
 302  -7316.229
 303  -7533.588
 304  -7186.18
 305  -6881.299
 306  -6989.79
 307  -7082.314
 308  -7207.114
 309  -7406.661
 310  -7675.11
 311  -7899.533
 312  -7634.279
 313  -7440.775
 314  -7538.992
 315  -7699.904
 316  -7819.587
 317  -8094.702
 318  -7761.589
 319  -7583.326
 320  -6774.715
 321  -6952.492
 322  -6845.355
 323  -6852.083
 324  -7241.629
 325  -7249.476
 326  -7061.675
 327  -6594.035
 328  -6576.967
 329  -6503.655
 330  -6429.526
 331  -6869.162
 332  -6653.313
 333  -6353.537
 334  -6340.469
 335  -6374.442
 336  -6416.634
 337  -6424.413
 338  -6598.73
 339  -6056.036
 340  -6019.091
 341  -6191.209
 342  -5999.943
 343  -5959.988
 344  -5444.077
 345  -5222.774
 346  -5303.905
 347  -5046.123
 348  -4862.969
 349  -5188.82
 350  -5402.423
 351  -6071.683
 352  -5878.584
 353  -5359.527
 354  -5400.848
 355  -5493.526
 356  -5771.832
 357  -5328.392
 358  -5659.15
 359  -5541.524
 360  -5267.864
 361  -5392.179
 362  -5179.237
 363  -5387.818
 364  -6142.522
 365  -4447.75
 366  -2848.669
 367  -1536.698
 368  -2146.775
 369  -2188.17
 370  -2444.839
 371  -3284.982
 372  -4098.631
 373  -4512.375
 374  -4751.448
 375  -4879.854
 376  -4990.619
 377  -4524.863
 378  -4563.151
 379  -4812.157
 380  -5396.782
 381  -5101.382
 382  -4879.938
 383  -4996.629
 384  -4974.837
 385  -5021.808
 386  -4646.368
 387  -4555.379
 388  -5218.58
 389  -5137.845
 390  -4908.297
 391  -4851.29
 392  -4466.934
 393  -4346.767
 394  -3039.608
 395  -4557.151
 396  -5053.781
 397  -4784.873
 398  -5231.624
 399  -5100.583
 400  -4601.582
 401  -4642.68
 402  -3802.695
 403  -2775.864
 404  -1752.706
 405  -2559.39
 406  -3040.721
 407  -2593.412
 408  -2564.359
 409  -2526.013
 410  -2571.081
 411  -2550.019
 412  -2798.24
 413  -3462.511
 414  -3344.751
 415  -3984.516
 416  -3893.54
 417  -3853.077
 418  -3575.886
 419  -2784.756
 420  -1427.347
 421  -922.4157
 422  174.8329
 423  882.025
 424  863.3627
 425  267.8322
 426  -4.124803
 427  -713.6666
 428  -1396.167
 429  -1816.686
 430  -3275.521
 431  -3750.333
 432  -4170.517
 433  -3802.952
 434  -3253.739
 435  -3036.655
 436  -2733.223
 437  -2380.738
 438  -1986.052
 439  -2026.687
 440  -1658.838
 441  -822.8948
 442  -728.4033
 443  -1104.351
 444  97.04319
 445  -261.6729
 446  -892.3016
 447  -1664.422
 448  -1864.269
 449  -1578.749
 450  -1837.707
 451  -2098.652
 452  -1995.025
 453  -2776.238
 454  -1687.676
 455  -1394.331
 456  -1554.109
 457  -131.2239
 458  -467.76
 459  -942.926
 460  -2253.178
 461  -3423.043
 462  -2710.104
 463  -1140.529
 464  -3793.086
 465  -4304.789
 466  -4748.702
 467  -4932.343
 468  -4471.353
 469  -3670.822
 470  -2980.276
 471  -260.2752
 472  1380.242
 473  1747.515
 474  399.0348
 475  524.5616
 476  -636.6609
 477  -3975.522
 478  -1742.533
 479  -596.7805
 480  351.252
 481  -7.747365
 482  -145.4758
 483  55.36275
 484  -2060.548
 485  -2957.276
 486  -4438.151
 487  -4214.06
 488  -3085.104
 489  -2636.861
 490  -4257.83
 491  -5807.861
 492  -6473.443
 493  -5489.208
 494  -6306.544
 495  -6895.999
 496  -6983.14
 497  -7166.539
 498  -6856.528
 499  -6217.412
 500  -6146.54
 501  -6105.918
 502  -6072.683
 503  -4906.488
 504  -4990.45
 505  -5120.79
 506  -4888.801
 507  -4854.363
 508  -4513.899
 509  -4603.661
 510  -4280.683
 511  -3658.167
