# Input file       =  1210752853.118745_cleaned.dat
# Candidate        =  PSR_0332+5434
# Telescope        =  AR
# Epoch_topo       =  58257.343427300293
# Epoch_bary       =  N/A
# T_sample         =  0.002
# Data Folded      =  7340032
# Data Avg         =  0.0144849221044234
# Data StdDev      =  1.0000173575572  
# Profile Bins     =  512
# Profile Avg      =  207.631380614912 
# Profile StdDev   =  119.735114649794 
# Reduced chi-sqr  =  1.263
# Prob(Noise)      <  4.64e-05   (~3.9 sigma)
# P_topo (ms)      =  714.529338849699  +/- 0.000458
# P'_topo (s/s)    =  -0                +/- 2.42e-10
# P''_topo (s/s^2) =  0                 +/- 1.07e-13
# P_bary (ms)      =  N/A
# P'_bary (s/s)    =  N/A
# P''_bary (s/s^2) =  N/A
# P_orb (s)        =  N/A
# asin(i)/c (s)    =  N/A
# eccentricity     =  N/A
# w (rad)          =  N/A
# T_peri           =  N/A
######################################################
   0  204.8963
   1  263.6107
   2  216.9141
   3  182.3933
   4  194.9735
   5  207.8658
   6  259.5509
   7  257.8561
   8  226.4644
   9  192.0334
  10  220.7817
  11  231.1186
  12  162.6367
  13  258.8433
  14  343.61
  15  290.5811
  16  260.0509
  17  278.8978
  18  313.4755
  19  255.0978
  20  267.0411
  21  244.9374
  22  194.9476
  23  189.2537
  24  182.5737
  25  274.5761
  26  146.147
  27  69.25803
  28  91.6973
  29  110.7864
  30  99.88147
  31  84.16925
  32  183.8484
  33  205.0072
  34  112.583
  35  141.9918
  36  131.5268
  37  20.15418
  38  -33.41536
  39  2.08419
  40  54.20101
  41  49.87036
  42  -64.48458
  43  15.86693
  44  -7.518729
  45  -9.866449
  46  32.88799
  47  22.40426
  48  131.6863
  49  81.90172
  50  44.62206
  51  48.20217
  52  53.65264
  53  49.34539
  54  25.47486
  55  90.68745
  56  54.59412
  57  42.66356
  58  102.908
  59  74.627
  60  102.561
  61  115.696
  62  123.1419
  63  166.2303
  64  219.5526
  65  166.2877
  66  139.9127
  67  104.6538
  68  133.4599
  69  151.2277
  70  210.3398
  71  203.3447
  72  119.9648
  73  136.0938
  74  124.974
  75  152.3413
  76  233.4185
  77  204.1323
  78  55.04108
  79  8.59381
  80  52.06551
  81  116.5906
  82  112.6773
  83  150.8833
  84  195.3645
  85  157.078
  86  120.5296
  87  149.6777
  88  215.7764
  89  192.4807
  90  145.3697
  91  139.4132
  92  189.0496
  93  213.898
  94  236.6119
  95  207.6543
  96  211.7574
  97  161.5409
  98  198.1557
  99  248.5782
 100  228.7718
 101  177.3641
 102  250.389
 103  194.7131
 104  287.9946
 105  277.5449
 106  328.5897
 107  287.9777
 108  270.9605
 109  300.1508
 110  295.8885
 111  197.7651
 112  229.9083
 113  246.3061
 114  192.9845
 115  242.4095
 116  264.6478
 117  247.9093
 118  220.549
 119  205.0807
 120  206.3098
 121  199.278
 122  236.0799
 123  274.4737
 124  274.1468
 125  201.0518
 126  178.0318
 127  181.9424
 128  217.1498
 129  136.5526
 130  148.5545
 131  180.6342
 132  260.6217
 133  206.3257
 134  167.981
 135  199.8295
 136  222.2607
 137  185.0386
 138  228.6487
 139  268.5462
 140  323.1052
 141  265.4028
 142  154.9293
 143  149.497
 144  195.3246
 145  250.1645
 146  224.3327
 147  209.3572
 148  359.7654
 149  323.5231
 150  272.6669
 151  256.2511
 152  277.9517
 153  292.9277
 154  294.8808
 155  344.1707
 156  306.7898
 157  242.9603
 158  318.0944
 159  317.0151
 160  231.4848
 161  127.8582
 162  106.0018
 163  113.0375
 164  143.42
 165  131.8196
 166  69.27601
 167  79.92314
 168  109.9929
 169  42.23586
 170  98.57311
 171  235.2772
 172  211.5589
 173  185.4854
 174  149.6992
 175  172.7224
 176  110.504
 177  156.9134
 178  152.4212
 179  229.9668
 180  159.9846
 181  164.5127
 182  191.4641
 183  261.1974
 184  287.1779
 185  313.3073
 186  252.813
 187  213.369
 188  214.2331
 189  225.6672
 190  251.1845
 191  222.4748
 192  265.33
 193  237.0146
 194  186.3224
 195  262.4625
 196  246.2939
 197  221.9347
 198  204.7162
 199  122.5879
 200  176.0363
 201  217.5961
 202  122.5946
 203  135.2934
 204  214.8644
 205  100.0186
 206  37.16471
 207  145.1483
 208  143.4164
 209  116.9899
 210  133.7935
 211  148.5843
 212  115.8481
 213  65.45691
 214  147.606
 215  186.4646
 216  175.9671
 217  -4.346353
 218  16.92222
 219  99.88126
 220  86.95913
 221  78.58109
 222  97.86545
 223  150.6671
 224  138.3496
 225  211.7422
 226  240.1173
 227  224.7979
 228  171.6947
 229  195.6221
 230  260.0911
 231  279.3217
 232  217.854
 233  102.8292
 234  74.92786
 235  232.0906
 236  286.5212
 237  168.6849
 238  187.2247
 239  252.364
 240  189.1776
 241  100.7868
 242  189.2318
 243  169.3636
 244  214.128
 245  125.1383
 246  127.099
 247  173.8468
 248  115.8942
 249  89.0952
 250  99.27396
 251  143.9977
 252  248.289
 253  253.3339
 254  200.2276
 255  204.6636
 256  123.48
 257  111.4052
 258  135.4764
 259  178.4657
 260  160.6291
 261  207.1091
 262  183.9353
 263  203.0311
 264  265.1872
 265  304.7433
 266  228.5174
 267  273.4546
 268  288.9431
 269  246.9135
 270  194.4924
 271  240.2802
 272  300.2236
 273  328.3254
 274  310.991
 275  223.3381
 276  296.5784
 277  298.5457
 278  243.1045
 279  222.746
 280  253.4596
 281  381.659
 282  378.3161
 283  342.4158
 284  297.7909
 285  265.0305
 286  227.2281
 287  235.0424
 288  267.0636
 289  217.8403
 290  214.3352
 291  247.3063
 292  274.6483
 293  158.6354
 294  144.6563
 295  245.3988
 296  202.7927
 297  140.499
 298  160.143
 299  48.94016
 300  27.32011
 301  145.8961
 302  236.3082
 303  214.9218
 304  240.132
 305  209.0481
 306  151.865
 307  167.1088
 308  60.4718
 309  103.4796
 310  113.9432
 311  171.7308
 312  112.0259
 313  110.0449
 314  213.2806
 315  146.9774
 316  132.8778
 317  148.6974
 318  120.3941
 319  130.332
 320  221.9023
 321  272.6067
 322  241.8872
 323  197.2713
 324  113.9192
 325  88.33498
 326  74.3738
 327  63.94703
 328  191.6659
 329  195.621
 330  80.54108
 331  72.70654
 332  114.3921
 333  128.5656
 334  139.5662
 335  166.2901
 336  115.4189
 337  110.3869
 338  150.5338
 339  58.76326
 340  68.11933
 341  172.078
 342  140.4229
 343  96.45103
 344  188.4793
 345  108.4857
 346  162.1564
 347  242.6299
 348  289.0038
 349  267.7961
 350  192.2314
 351  219.0475
 352  218.5667
 353  318.2958
 354  362.9756
 355  308.3581
 356  317.115
 357  312.8451
 358  308.0366
 359  314.4444
 360  210.9455
 361  323.8174
 362  289.0094
 363  315.7775
 364  229.101
 365  241.3891
 366  369.222
 367  344.2514
 368  418.8887
 369  337.8859
 370  170.0685
 371  224.741
 372  255.5736
 373  260.6422
 374  337.1248
 375  280.2439
 376  270.9125
 377  258.2621
 378  269.3575
 379  310.7892
 380  245.7961
 381  364.6918
 382  267.7374
 383  299.7543
 384  353.2614
 385  281.6528
 386  327.6552
 387  419.6428
 388  402.702
 389  334.5962
 390  311.9585
 391  389.7508
 392  423.3067
 393  379.6006
 394  371.4489
 395  318.9662
 396  486.2161
 397  410.2466
 398  318.507
 399  329.7166
 400  366.8709
 401  312.913
 402  212.1218
 403  249.8387
 404  312.9697
 405  318.9478
 406  313.5217
 407  327.909
 408  314.4412
 409  276.7207
 410  196.8851
 411  272.7933
 412  313.2323
 413  192.4695
 414  205.518
 415  341.7932
 416  293.1739
 417  271.8667
 418  245.8391
 419  194.4048
 420  227.2985
 421  260.1541
 422  189.8672
 423  194.3591
 424  147.0051
 425  173.3184
 426  197.6886
 427  139.7393
 428  159.2462
 429  177.2988
 430  197.4706
 431  139.6014
 432  101.5201
 433  156.9906
 434  173.2259
 435  209.9991
 436  213.9196
 437  236.6725
 438  141.7318
 439  99.07305
 440  127.5356
 441  122.8165
 442  199.1312
 443  183.5531
 444  214.5837
 445  160.3911
 446  91.96301
 447  43.04612
 448  119.2769
 449  131.325
 450  196.8222
 451  217.9937
 452  277.4195
 453  267.331
 454  282.5454
 455  192.4866
 456  69.69282
 457  153.5092
 458  181.1534
 459  129.084
 460  99.0582
 461  90.00759
 462  70.63168
 463  226.9213
 464  203.0197
 465  168.2819
 466  100.5754
 467  143.804
 468  316.3543
 469  483.6535
 470  593.2308
 471  700.1976
 472  722.0856
 473  588.7646
 474  527.0553
 475  377.0636
 476  211.8702
 477  217.9188
 478  214.1045
 479  122.6917
 480  172.785
 481  272.2648
 482  321.659
 483  310.8608
 484  276.409
 485  327.5428
 486  294.9855
 487  329.0315
 488  381.6537
 489  387.0093
 490  323.1959
 491  324.9752
 492  282.7345
 493  292.3967
 494  279.2851
 495  290.5445
 496  237.626
 497  276.9453
 498  273.0693
 499  294.6005
 500  352.5256
 501  305.1688
 502  220.4351
 503  258.7877
 504  239.7417
 505  138.4369
 506  178.3271
 507  237.2501
 508  279.8562
 509  278.4918
 510  255.2465
 511  232.2547
