# Input file       =  1210767789.121276-PSRB0329-2ms-sampling-dd.dat
# Candidate        =  PSR_0332+5434
# Telescope        =  AR
# Epoch_topo       =  58257.516297699949
# Epoch_bary       =  N/A
# T_sample         =  0.002
# Data Folded      =  7340032
# Data Avg         =  -1.05905276880773e-09
# Data StdDev      =  6.45468324359261 
# Profile Bins     =  512
# Profile Avg      =  0.053720000538351
# Profile StdDev   =  772.838823605577 
# Reduced chi-sqr  =  0.636
# Prob(Noise)      <  1   (~0.0 sigma)
# P_topo (ms)      =  714.52950462154   +/- 0.00066
# P'_topo (s/s)    =  -0                +/- 3.48e-10
# P''_topo (s/s^2) =  0                 +/- 1.54e-13
# P_bary (ms)      =  N/A
# P'_bary (s/s)    =  N/A
# P''_bary (s/s^2) =  N/A
# P_orb (s)        =  N/A
# asin(i)/c (s)    =  N/A
# eccentricity     =  N/A
# w (rad)          =  N/A
# T_peri           =  N/A
######################################################
   0  215.2431
   1  531.3861
   2  400.8142
   3  -41.8135
   4  -144.5211
   5  -234.4514
   6  -269.5005
   7  77.7994
   8  740.3805
   9  505.4035
  10  158.2904
  11  430.8675
  12  277.3347
  13  -490.8708
  14  -98.99464
  15  115.4366
  16  326.6871
  17  215.5703
  18  43.80727
  19  -241.1996
  20  -684.4693
  21  -516.4722
  22  -523.0159
  23  -271.615
  24  -306.0795
  25  -43.23028
  26  -158.4767
  27  -365.3977
  28  -658.1093
  29  -543.3967
  30  -95.90846
  31  205.059
  32  65.11581
  33  -185.008
  34  272.5303
  35  -4.596884
  36  -407.6268
  37  -254.3471
  38  228.5636
  39  331.5575
  40  407.4998
  41  765.5115
  42  870.7706
  43  304.6588
  44  453.5655
  45  444.2435
  46  556.7587
  47  147.0018
  48  548.9137
  49  544.3194
  50  474.3934
  51  470.9548
  52  632.8039
  53  323.1457
  54  -1.064352
  55  47.43424
  56  303.4639
  57  500.6449
  58  276.2591
  59  439.705
  60  216.3533
  61  198.5202
  62  436.3155
  63  253.9565
  64  -23.00496
  65  -114.4057
  66  -603.4776
  67  -407.2046
  68  -310.3106
  69  106.2789
  70  -75.91309
  71  -53.26592
  72  -324.8156
  73  76.53109
  74  385.312
  75  254.517
  76  535.1701
  77  237.9811
  78  2.309455
  79  -342.3674
  80  -298.1848
  81  -14.83549
  82  474.0012
  83  382.4222
  84  -40.19598
  85  -168.0915
  86  -298.9372
  87  166.7766
  88  585.4781
  89  592.2825
  90  523.9263
  91  286.0043
  92  -146.5723
  93  -238.1038
  94  -479.2846
  95  -517.8879
  96  -639.7148
  97  -583.6203
  98  -710.7543
  99  -542.4961
 100  -694.2844
 101  -1295.767
 102  -1350.121
 103  -1290.75
 104  -1086.671
 105  -1057.205
 106  -763.6448
 107  -937.3311
 108  -867.6436
 109  -859.2783
 110  -724.8785
 111  -554.398
 112  -792.6651
 113  -1186.773
 114  -1192.059
 115  -679.4404
 116  -658.0082
 117  -469.3836
 118  -395.7699
 119  -384.4188
 120  -569.2711
 121  -757.7776
 122  -234.7777
 123  161.037
 124  -200.9786
 125  -478.0981
 126  -440.2632
 127  -642.0256
 128  -768.9381
 129  -568.3483
 130  -206.4871
 131  -95.72304
 132  89.97667
 133  -290.2807
 134  -484.0334
 135  -276.3885
 136  -614.2806
 137  -670.5104
 138  -551.6833
 139  -375.9514
 140  -627.1345
 141  -490.7157
 142  -309.7771
 143  -527.8583
 144  -878.6376
 145  -595.6584
 146  -540.3958
 147  -556.629
 148  -361.1633
 149  -36.04819
 150  -327.8627
 151  -334.4847
 152  -151.2659
 153  -95.73991
 154  136.0286
 155  136.7458
 156  -277.0793
 157  40.52915
 158  -116.7817
 159  -46.63262
 160  2.979866
 161  -111.0463
 162  34.15343
 163  107.8133
 164  107.9596
 165  -276.2211
 166  -800.4837
 167  -843.0947
 168  -918.372
 169  -819.7291
 170  -519.7162
 171  -144.6038
 172  -324.8735
 173  -300.2916
 174  -194.293
 175  -537.2433
 176  -792.54
 177  -709.1721
 178  -341.6534
 179  -371.8893
 180  -231.5568
 181  17.54948
 182  140.6491
 183  -369.1704
 184  -486.1906
 185  -700.5212
 186  -357.9143
 187  -216.5749
 188  -16.25638
 189  -85.17216
 190  -495.3503
 191  -289.9692
 192  -43.01068
 193  216.6768
 194  -5.415755
 195  191.9192
 196  231.5246
 197  70.81672
 198  69.7599
 199  2.443624
 200  -75.61819
 201  -553.865
 202  -683.2495
 203  -581.245
 204  -255.827
 205  -341.3812
 206  -23.91479
 207  -304.1736
 208  -152.3791
 209  -645.5479
 210  -928.3265
 211  -730.0927
 212  -648.6453
 213  -457.0659
 214  -280.9363
 215  -202.2028
 216  -23.91887
 217  100.2699
 218  286.3614
 219  382.2149
 220  90.29529
 221  399.6162
 222  324.604
 223  409.6072
 224  242.2129
 225  8.234409
 226  126.1454
 227  242.6221
 228  414.1234
 229  313.4841
 230  389.7191
 231  -62.33069
 232  -329.4218
 233  -347.4413
 234  -202.4981
 235  -190.725
 236  -31.81441
 237  429.2077
 238  337.5082
 239  100.7536
 240  -122.2566
 241  -75.89389
 242  -383.2994
 243  18.39119
 244  328.1705
 245  388.9619
 246  243.6177
 247  -16.10041
 248  147.8892
 249  209.8247
 250  251.6621
 251  -137.0445
 252  -352.0166
 253  292.2161
 254  380.8707
 255  -316.2379
 256  -322.481
 257  -106.0849
 258  5.888928
 259  -67.4895
 260  265.6434
 261  53.28105
 262  -141.4196
 263  101.8719
 264  -277.7836
 265  6.750167
 266  -88.1842
 267  279.5089
 268  331.4919
 269  -120.3535
 270  -93.48655
 271  76.41736
 272  312.0753
 273  365.5111
 274  301.4417
 275  277.496
 276  92.67039
 277  -34.11889
 278  -291.9317
 279  -154.7391
 280  192.5848
 281  116.9994
 282  351.146
 283  182.773
 284  43.91378
 285  -5.235827
 286  628.5166
 287  515.6456
 288  227.8503
 289  176.6974
 290  11.55692
 291  -7.57052
 292  276.7258
 293  183.1174
 294  -0.6618386
 295  -323.2717
 296  -452.8211
 297  -334.9305
 298  -107.191
 299  340.2034
 300  331.9615
 301  -203.9392
 302  -199.7021
 303  -377.8733
 304  -180.9659
 305  -397.6089
 306  -493.8077
 307  -499.2558
 308  -698.5643
 309  -928.6317
 310  -1320.035
 311  -725.489
 312  -470.6012
 313  -280.8497
 314  87.87528
 315  48.66145
 316  -254.0087
 317  -296.5493
 318  -547.1522
 319  -446.8588
 320  -520.5814
 321  -286.6156
 322  -197.0655
 323  24.55134
 324  169.4696
 325  -284.0788
 326  -186.2303
 327  209.947
 328  446.7351
 329  728.3117
 330  1076.207
 331  1384.091
 332  1420.56
 333  1092.691
 334  651.7953
 335  594.9752
 336  474.0405
 337  367.4051
 338  -125.1123
 339  124.3847
 340  300.7133
 341  566.4601
 342  488.7032
 343  703.9572
 344  292.9663
 345  218.9337
 346  424.8762
 347  269.1491
 348  397.7812
 349  501.8463
 350  356.7446
 351  448.6115
 352  850.7628
 353  834.7375
 354  879.0391
 355  832.7763
 356  1109.59
 357  849.5685
 358  901.9669
 359  860.0427
 360  235.5076
 361  -119.9554
 362  100.0439
 363  255.7897
 364  -90.08436
 365  394.4534
 366  660.8745
 367  130.6364
 368  -52.24268
 369  40.15178
 370  136.6354
 371  -116.8438
 372  83.23574
 373  84.64581
 374  -88.61378
 375  -251.3471
 376  41.50213
 377  13.05244
 378  157.3657
 379  -173.7939
 380  -125.8697
 381  152.7735
 382  357.9644
 383  626.5629
 384  340.2312
 385  448.0047
 386  333.0851
 387  280.8157
 388  808.7647
 389  527.1975
 390  183.2915
 391  332.3067
 392  483.4029
 393  381.7257
 394  353.3682
 395  243.1105
 396  360.9277
 397  617.7726
 398  425.1142
 399  359.2217
 400  445.0155
 401  576.31
 402  608.972
 403  833.7078
 404  554.4102
 405  62.45937
 406  435.049
 407  295.0028
 408  136.6114
 409  69.7311
 410  171.5122
 411  42.17107
 412  -173.422
 413  70.11853
 414  211.3227
 415  342.461
 416  564.5771
 417  300.2086
 418  -9.749969
 419  185.0807
 420  559.399
 421  114.2223
 422  218.992
 423  253.4278
 424  693.5198
 425  319.7094
 426  -0.7480444
 427  -124.8777
 428  118.5106
 429  14.08826
 430  -73.29483
 431  -80.72974
 432  388.8197
 433  346.2859
 434  55.14516
 435  -115.4948
 436  66.50885
 437  509.7455
 438  153.1492
 439  170.3532
 440  267.1643
 441  -192.687
 442  -179.4018
 443  -334.431
 444  -286.7946
 445  134.5506
 446  -259.4378
 447  -217.3365
 448  -456.0422
 449  -453.4841
 450  -288.2423
 451  -93.00184
 452  198.5853
 453  279.4632
 454  2.901533
 455  -123.4424
 456  -382.9595
 457  -375.3118
 458  -369.9321
 459  -395.615
 460  -313.523
 461  -118.726
 462  -236.9005
 463  -189.6055
 464  -396.6563
 465  -484.4397
 466  -532.4506
 467  -595.9379
 468  -349.2787
 469  299.2548
 470  671.0053
 471  594.7205
 472  229.9653
 473  -452.3151
 474  -709.5839
 475  -96.80318
 476  103.8253
 477  -51.48914
 478  -24.88678
 479  -49.64061
 480  -329.6534
 481  -479.0208
 482  76.3751
 483  -99.67101
 484  -77.05143
 485  355.3702
 486  325.9319
 487  671.6786
 488  794.8832
 489  1058.625
 490  726.6087
 491  272.4563
 492  282.8087
 493  63.74922
 494  761.6492
 495  1197.52
 496  933.8917
 497  824.4821
 498  811.004
 499  116.2163
 500  224.3263
 501  -45.87849
 502  575.9571
 503  758.2562
 504  831.9153
 505  741.7399
 506  627.139
 507  453.7831
 508  -276.8281
 509  -97.14963
 510  -187.2894
 511  -79.40041
