# Input file       =  1210681615.114721_cleaned.dat
# Candidate        =  PSR_0332+5434
# Telescope        =  AR
# Epoch_topo       =  58256.518913364824
# Epoch_bary       =  N/A
# T_sample         =  0.002
# Data Folded      =  7340032
# Data Avg         =  0.27663097455661 
# Data StdDev      =  4.81883297712141 
# Profile Bins     =  512
# Profile Avg      =  3965.76897735845 
# Profile StdDev   =  576.973504143238 
# Reduced chi-sqr  =  0.844
# Prob(Noise)      <  0.996   (~0.0 sigma)
# P_topo (ms)      =  714.530483831504  +/- 0.000188
# P'_topo (s/s)    =  -0                +/- 9.9e-11
# P''_topo (s/s^2) =  0                 +/- 4.37e-14
# P_bary (ms)      =  N/A
# P'_bary (s/s)    =  N/A
# P''_bary (s/s^2) =  N/A
# P_orb (s)        =  N/A
# asin(i)/c (s)    =  N/A
# eccentricity     =  N/A
# w (rad)          =  N/A
# T_peri           =  N/A
######################################################
   0  3790.625
   1  3772.908
   2  4215.751
   3  4275.078
   4  4348.502
   5  4464.592
   6  4194.615
   7  4711.831
   8  5124.308
   9  5312.104
  10  5825.572
  11  5479.44
  12  4813.827
  13  4309.103
  14  3592.868
  15  3216.087
  16  3284.614
  17  3317.371
  18  3356.728
  19  3658.783
  20  3842.369
  21  3600.136
  22  3717.486
  23  3823.331
  24  4024.705
  25  4012.406
  26  3896.32
  27  4359.714
  28  4198.406
  29  4188.213
  30  4599.521
  31  4372.48
  32  3989.045
  33  4186.229
  34  4111.33
  35  4220.779
  36  4257.197
  37  3877.753
  38  3559.764
  39  3695.529
  40  3749.076
  41  3811.302
  42  4014.282
  43  3740.355
  44  3789.333
  45  3747.246
  46  4020.016
  47  4151.955
  48  4379.303
  49  4190.683
  50  4099
  51  4075.895
  52  4471.588
  53  4415.76
  54  3898.541
  55  3605.024
  56  3906.676
  57  3947.47
  58  3730.71
  59  3445.82
  60  3874.685
  61  4122.708
  62  4300.292
  63  3969.262
  64  3765.603
  65  3651.547
  66  3602.482
  67  3895.873
  68  3839.339
  69  4079.485
  70  3830.691
  71  3664.588
  72  3965.179
  73  3856.236
  74  3919.615
  75  3683.534
  76  3930.576
  77  4254.915
  78  3427.053
  79  3418.203
  80  3431.408
  81  3656.554
  82  3718.208
  83  3931.385
  84  4241.301
  85  3889.49
  86  3720.669
  87  3767.038
  88  3816.524
  89  3981.011
  90  3568.776
  91  3883.615
  92  3990.632
  93  3896.047
  94  3686.506
  95  3780.847
  96  3516.803
  97  3666.207
  98  3904.095
  99  3758.115
 100  3457.61
 101  3422.092
 102  3748.154
 103  3975.959
 104  4142.783
 105  4093.382
 106  3937.821
 107  3806.902
 108  3714.822
 109  4244.039
 110  4455.006
 111  4441.914
 112  4424.526
 113  4315.146
 114  4304.13
 115  4327.38
 116  4682.865
 117  4244.037
 118  4168.101
 119  4354.812
 120  4235.041
 121  4456.857
 122  4450.197
 123  4572.214
 124  4278.379
 125  4040.623
 126  4185.281
 127  3959.79
 128  4072.831
 129  4216.841
 130  4328.382
 131  4402.293
 132  4403.473
 133  4264.833
 134  4021.797
 135  3761.145
 136  3578.186
 137  3567.497
 138  3678.478
 139  3849.537
 140  3749.541
 141  3976.896
 142  3524.234
 143  3930.52
 144  4092.153
 145  3583.695
 146  3314.517
 147  3373.743
 148  3274.448
 149  3333.74
 150  3865.262
 151  3741.615
 152  3393.098
 153  4240.385
 154  3892.25
 155  3614.008
 156  3505.532
 157  3909.564
 158  3611.832
 159  3414.154
 160  3872.111
 161  4015.244
 162  4055.136
 163  3872.399
 164  3979.909
 165  3801.037
 166  3678.915
 167  3729.573
 168  3603.152
 169  3254.732
 170  3162.498
 171  3552.223
 172  3314.534
 173  3526.343
 174  3572.63
 175  3754.979
 176  3415.141
 177  3349.288
 178  3439.13
 179  3761.255
 180  3578.617
 181  3459.357
 182  3475.835
 183  3679.242
 184  3914.312
 185  3829.957
 186  3668.174
 187  3585.963
 188  3600.969
 189  3554.459
 190  3557.505
 191  3869.356
 192  3718.634
 193  3700.206
 194  3930.666
 195  3818.939
 196  3749.477
 197  4043.163
 198  4103.854
 199  4106.124
 200  4392.281
 201  3816.369
 202  3715.501
 203  3265.492
 204  3473.473
 205  3160.846
 206  3173.188
 207  3579.401
 208  3619.987
 209  3879.389
 210  3652.058
 211  3513.218
 212  2952.946
 213  2430.349
 214  2798.636
 215  2820.719
 216  3072.356
 217  3534.293
 218  3404.033
 219  3149.174
 220  3264.045
 221  3563.314
 222  3414.146
 223  3956.8
 224  3688.702
 225  4150.312
 226  3834.42
 227  3607.445
 228  3771.29
 229  3402.643
 230  3697.27
 231  3720.058
 232  3832.14
 233  3998.441
 234  4309.465
 235  4096.156
 236  4185.23
 237  3649.399
 238  3809.371
 239  4094.681
 240  3847.774
 241  4109.312
 242  4425.838
 243  4115.21
 244  3508.73
 245  4069.794
 246  4586.422
 247  4209.431
 248  4022.255
 249  4452.817
 250  4782.7
 251  4113.65
 252  3589.327
 253  3501.602
 254  3561.912
 255  3901.432
 256  3872.653
 257  3698.833
 258  3584.292
 259  3784.94
 260  3732.955
 261  3805.104
 262  3541.515
 263  3828.419
 264  4201.875
 265  4298.016
 266  4016.984
 267  4453.256
 268  4125.927
 269  3848.41
 270  3996.824
 271  4294.429
 272  4283.482
 273  4251.351
 274  4556.56
 275  4261.892
 276  4054.312
 277  3958.856
 278  4059.504
 279  4231.869
 280  4264.312
 281  4502.066
 282  4214.366
 283  4150.019
 284  3985.903
 285  4054.237
 286  4105.361
 287  3866.696
 288  4035.943
 289  4311.518
 290  4414.093
 291  4683.926
 292  4421.18
 293  4135.94
 294  4387.737
 295  4101.753
 296  4071.495
 297  4114.375
 298  3927.611
 299  3961.226
 300  4356.627
 301  4388.169
 302  4197.83
 303  3584.553
 304  3547.776
 305  3592.384
 306  3754.422
 307  3948.428
 308  4617.236
 309  4265.9
 310  4005.948
 311  3945.969
 312  3868.419
 313  4002.058
 314  3904.542
 315  4180.198
 316  4521.37
 317  4208.405
 318  3749.84
 319  3670.188
 320  3707.509
 321  3637.929
 322  3813.489
 323  4496.873
 324  4302.376
 325  4169.425
 326  3971.514
 327  3840.362
 328  3494.087
 329  4023.093
 330  4237.728
 331  3671.563
 332  3674.273
 333  3991.872
 334  4050.857
 335  3681.481
 336  3664.188
 337  3494.563
 338  3894.814
 339  3602.705
 340  3455.372
 341  3210.782
 342  3410.733
 343  3275.168
 344  3316.428
 345  3568.319
 346  3849.973
 347  3878.163
 348  4114.807
 349  4554.838
 350  3940.165
 351  3760.683
 352  4091.158
 353  4108.159
 354  4160.314
 355  4420.425
 356  4158.139
 357  4395.047
 358  4846.629
 359  4394.495
 360  4188.817
 361  4152.781
 362  4406.015
 363  3983.811
 364  4235.977
 365  4191.493
 366  3874.719
 367  3695.375
 368  3806.081
 369  4230.488
 370  3894.262
 371  4052.471
 372  4042.348
 373  4107.37
 374  3974.604
 375  4092.107
 376  4496.694
 377  4261.033
 378  3790.103
 379  3823.745
 380  4092.398
 381  4403.908
 382  4368.749
 383  4832.981
 384  4855.424
 385  5063.253
 386  4941.628
 387  4507.666
 388  4557.19
 389  4478.306
 390  4320.444
 391  4144.68
 392  4542.921
 393  4367.182
 394  4174.712
 395  3888.455
 396  3636.962
 397  4136.673
 398  4111.28
 399  4120.259
 400  4317.525
 401  4135.938
 402  3960.496
 403  3916.958
 404  4189.195
 405  3835.949
 406  3716.358
 407  4288.178
 408  3775.66
 409  3883.546
 410  4223.756
 411  3856.001
 412  4154.702
 413  4478.115
 414  4607.817
 415  4654.715
 416  4500.801
 417  4439.25
 418  4388.808
 419  4296.572
 420  4120.331
 421  4002.291
 422  4102.011
 423  4109.923
 424  4317.124
 425  4525.535
 426  4266.375
 427  4305.896
 428  3844.252
 429  3864.113
 430  3786.423
 431  4072.736
 432  4511.044
 433  4408.687
 434  4142.744
 435  3945.044
 436  4075.235
 437  4082.276
 438  4290.24
 439  4721.854
 440  4494.14
 441  4099.621
 442  3851.452
 443  3872.298
 444  4058.801
 445  4238.681
 446  4084.351
 447  4230.682
 448  4674.982
 449  4420.799
 450  4088.022
 451  3883.152
 452  4065.668
 453  4231.124
 454  3758.219
 455  3712.094
 456  4154.188
 457  4358.275
 458  4587.02
 459  4209.539
 460  4191.786
 461  4084.455
 462  3481.699
 463  3665.121
 464  3671.325
 465  3635.609
 466  3770.435
 467  3738.721
 468  3417.646
 469  3613.504
 470  3639.286
 471  3744.024
 472  3855.87
 473  4193.207
 474  4073.648
 475  4037.878
 476  3666.484
 477  3494.728
 478  3710.869
 479  3856.012
 480  3671.727
 481  3863.748
 482  4106.188
 483  3914.322
 484  3790.561
 485  3573.552
 486  3846.994
 487  4008.479
 488  3863.981
 489  3548.159
 490  3875.264
 491  3774.831
 492  3597.547
 493  3739.436
 494  4000.336
 495  4159.748
 496  4072.122
 497  3756.692
 498  3678.28
 499  4262.529
 500  4464.598
 501  4381.455
 502  3878.943
 503  3919.371
 504  4007.042
 505  4114.727
 506  4837.749
 507  4228.306
 508  4023.256
 509  4283.334
 510  4257.548
 511  3831.684
