# Input file       =  1210322039.121345_cleaned.dat
# Candidate        =  PSR_0332+5434
# Telescope        =  AR
# Epoch_topo       =  58252.357154182231
# Epoch_bary       =  N/A
# T_sample         =  0.002
# Data Folded      =  7340032
# Data Avg         =  0.107893688790292
# Data StdDev      =  4.7131964183068  
# Profile Bins     =  256
# Profile Avg      =  3093.37127351447 
# Profile StdDev   =  798.076518594569 
# Reduced chi-sqr  =  2.217
# Prob(Noise)      <  1.43e-25   (~10.4 sigma)
# P_topo (ms)      =  714.534217745638  +/- 0.000809
# P'_topo (s/s)    =  -0                +/- 4.27e-10
# P''_topo (s/s^2) =  0                 +/- 1.88e-13
# P_bary (ms)      =  N/A
# P'_bary (s/s)    =  N/A
# P''_bary (s/s^2) =  N/A
# P_orb (s)        =  N/A
# asin(i)/c (s)    =  N/A
# eccentricity     =  N/A
# w (rad)          =  N/A
# T_peri           =  N/A
######################################################
   0  3163.629
   1  3067.178
   2  3231.943
   3  2737.287
   4  2197.702
   5  2332.338
   6  2120.908
   7  2254.829
   8  3028.038
   9  2604.302
  10  2494.31
  11  2561.33
  12  2453.468
  13  2860.889
  14  3001.802
  15  4043.818
  16  3222.252
  17  2815.192
  18  2407.836
  19  2874.987
  20  2004.943
  21  2494.315
  22  2444.675
  23  2476.056
  24  3106.75
  25  3373.269
  26  2624.059
  27  2709.032
  28  2985.436
  29  3095.98
  30  2885.814
  31  2899.965
  32  3571.868
  33  3180.147
  34  3154.842
  35  3848.371
  36  4030.545
  37  3500.768
  38  2963.155
  39  3263.173
  40  3592.239
  41  2925.239
  42  1968.389
  43  2708.899
  44  3118.833
  45  1960.32
  46  1527.064
  47  2067.423
  48  2808.101
  49  2537.253
  50  2259.041
  51  2276.119
  52  2511.178
  53  2612.103
  54  1555.556
  55  1494.934
  56  3051.937
  57  3121.099
  58  2380.199
  59  2329.755
  60  2071.703
  61  2633.566
  62  3070.642
  63  2573.097
  64  2902.425
  65  3794.877
  66  2559.733
  67  1753.242
  68  2843.987
  69  2888.847
  70  2371.994
  71  1916.575
  72  2376.413
  73  2701.266
  74  2808.932
  75  2407.166
  76  2020.359
  77  2851.451
  78  3325.821
  79  2631.101
  80  3398.245
  81  3649.965
  82  2664.165
  83  2840.637
  84  2640.974
  85  2800.767
  86  2738.121
  87  2758.171
  88  1879.424
  89  2008.113
  90  1995.619
  91  1742.921
  92  933.2123
  93  1927.438
  94  1938.978
  95  1149.343
  96  1355.657
  97  1931.037
  98  1859.472
  99  2188.751
 100  1550.661
 101  1412.821
 102  1554.828
 103  1283.741
 104  898.4831
 105  1359.778
 106  1791.846
 107  1889.31
 108  2140.805
 109  1982.291
 110  1919.78
 111  2158.966
 112  2511.365
 113  2098.108
 114  1817.799
 115  1982.253
 116  2103.972
 117  2031.566
 118  2000.444
 119  1764.363
 120  1889.071
 121  1763.394
 122  2456.527
 123  2031.144
 124  2337.838
 125  2738.249
 126  2546.595
 127  2520.673
 128  2021.661
 129  1491.154
 130  1829.338
 131  2427.318
 132  2878.932
 133  2564.581
 134  2928.096
 135  2806.709
 136  2861.922
 137  2818.441
 138  3339.374
 139  3519.964
 140  2268.919
 141  2740.899
 142  3316.444
 143  3306.289
 144  3138.465
 145  3942.138
 146  4044.105
 147  4373.118
 148  4699.892
 149  8183.475
 150  8180.353
 151  5780.122
 152  4078.001
 153  3373.787
 154  3547.478
 155  4247.529
 156  4248.901
 157  4752.561
 158  4130.75
 159  3255.204
 160  3697.053
 161  3098.036
 162  3578.568
 163  3644.356
 164  4271.991
 165  4107.512
 166  4257.031
 167  4536.573
 168  3997.55
 169  3442.416
 170  3604.841
 171  3824.21
 172  3008.523
 173  3796.004
 174  3169.16
 175  2745.393
 176  2923.12
 177  2969.847
 178  2800.993
 179  3190.412
 180  3180.117
 181  2943.499
 182  2597.2
 183  3031.729
 184  2962.396
 185  3272.079
 186  3427.7
 187  2611.554
 188  3299.527
 189  3349.338
 190  3297.46
 191  3333.577
 192  3264.735
 193  2701.563
 194  2774.548
 195  3239.896
 196  3889.632
 197  3039.505
 198  3359.636
 199  3345.183
 200  3824.406
 201  3860.018
 202  4101.514
 203  4023.664
 204  3775.541
 205  4822.562
 206  4331.12
 207  4391.933
 208  4709.722
 209  4533.667
 210  4751.394
 211  5061.49
 212  4944.701
 213  4775.042
 214  5387.551
 215  5535.146
 216  4715.946
 217  4687.993
 218  4548.132
 219  4623.167
 220  4859.031
 221  4956.922
 222  3766.166
 223  4053.182
 224  4031.849
 225  3976.168
 226  4711.535
 227  4258.539
 228  3999.549
 229  5087.311
 230  4790.804
 231  4734.815
 232  4263.095
 233  4399.774
 234  3677.322
 235  3827.767
 236  3771.698
 237  3703.135
 238  3950.298
 239  3222.86
 240  3470.865
 241  3753.647
 242  2778.419
 243  3056.897
 244  3000.948
 245  2935.061
 246  2664.646
 247  2327.495
 248  3128.458
 249  2984.027
 250  2963.054
 251  3267.574
 252  3131.755
 253  3374.162
 254  3194.274
 255  3411.1
