# Input file       =  1210580531.111079_cleaned.dat
# Candidate        =  PSR_0332+5434
# Telescope        =  AR
# Epoch_topo       =  58255.348959618968
# Epoch_bary       =  N/A
# T_sample         =  0.002
# Data Folded      =  7340032
# Data Avg         =  0.0190157745802896
# Data StdDev      =  1.00006669823203 
# Profile Bins     =  512
# Profile Avg      =  272.609005207151 
# Profile StdDev   =  119.741022358609 
# Reduced chi-sqr  =  1.111
# Prob(Noise)      <  0.0409   (~1.7 sigma)
# P_topo (ms)      =  714.531296182388  +/- 0.000738
# P'_topo (s/s)    =  -0                +/- 3.89e-10
# P''_topo (s/s^2) =  0                 +/- 1.72e-13
# P_bary (ms)      =  N/A
# P'_bary (s/s)    =  N/A
# P''_bary (s/s^2) =  N/A
# P_orb (s)        =  N/A
# asin(i)/c (s)    =  N/A
# eccentricity     =  N/A
# w (rad)          =  N/A
# T_peri           =  N/A
######################################################
   0  630.1262
   1  574.9477
   2  374.6544
   3  224.8237
   4  225.0641
   5  192.7972
   6  189.1806
   7  158.3328
   8  169.8806
   9  243.2351
  10  223.0046
  11  238.0574
  12  179.7411
  13  163.5044
  14  214.4766
  15  267.1744
  16  260.8848
  17  306.5609
  18  254.7745
  19  327.2491
  20  317.0779
  21  281.2334
  22  237.0547
  23  119.6721
  24  174.5796
  25  271.2079
  26  275.3523
  27  328.9912
  28  279.9696
  29  250.3149
  30  328.4149
  31  336.5721
  32  233.7377
  33  222.684
  34  268.2327
  35  254.1199
  36  209.4942
  37  220.3567
  38  279.9251
  39  218.3639
  40  211.9074
  41  189.6376
  42  276.2873
  43  213.3882
  44  271.6187
  45  306.5132
  46  333.5969
  47  371.8121
  48  380.0722
  49  426.4596
  50  475.501
  51  497.0727
  52  417.4244
  53  365.4141
  54  381.7201
  55  430.8426
  56  399.2022
  57  370.7072
  58  368.4212
  59  398.3198
  60  432.9087
  61  404.4216
  62  383.8386
  63  431.678
  64  382.8252
  65  366.7331
  66  385.019
  67  476.3269
  68  431.2796
  69  408.1428
  70  357.937
  71  296.0776
  72  345.3098
  73  357.6296
  74  402.2459
  75  407.5417
  76  366.4471
  77  409.3935
  78  399.1689
  79  348.2108
  80  362.9385
  81  333.5853
  82  338.3561
  83  340.1271
  84  374.4185
  85  332.0673
  86  420.7493
  87  428.9787
  88  259.1687
  89  346.8507
  90  313.8633
  91  330.9896
  92  301.5979
  93  309.4341
  94  311.1517
  95  383.1411
  96  454.2911
  97  453.2855
  98  433.2673
  99  426.5843
 100  380.2458
 101  428.2997
 102  487.21
 103  424.3572
 104  450.175
 105  501.5958
 106  484.3196
 107  397.493
 108  390.3449
 109  446.9312
 110  402.8139
 111  393.4789
 112  365.2104
 113  296.4534
 114  375.117
 115  355.0233
 116  319.4171
 117  377.6635
 118  415.4927
 119  310.3839
 120  275.1113
 121  249.3732
 122  272.6666
 123  319.719
 124  326.7617
 125  393.6137
 126  365.9498
 127  311.6646
 128  270.2344
 129  306.8404
 130  275.4132
 131  296.5808
 132  323.3337
 133  329.8207
 134  303.3974
 135  305.8875
 136  301.9682
 137  261.16
 138  333.4776
 139  276.2069
 140  230.4401
 141  334.8221
 142  367.114
 143  362.6552
 144  436.1737
 145  365.9836
 146  243.2902
 147  297.0753
 148  356.6225
 149  371.3085
 150  404.128
 151  333.4272
 152  288.656
 153  268.6578
 154  387.6283
 155  353.8397
 156  288.4792
 157  332.8764
 158  320.4356
 159  344.0788
 160  323.2401
 161  312.1405
 162  291.389
 163  344.5997
 164  323.4828
 165  313.0038
 166  268.8596
 167  247.7064
 168  337.2878
 169  348.8003
 170  283.2628
 171  329.3673
 172  292.5269
 173  271.4306
 174  285.0724
 175  297.2742
 176  288.0323
 177  263.2286
 178  359.8759
 179  382.507
 180  349.3916
 181  416.3609
 182  455.2937
 183  397.0046
 184  314.7678
 185  333.6012
 186  382.3112
 187  310.6817
 188  318.4117
 189  416.8132
 190  450.4778
 191  392.3745
 192  407.7038
 193  408.1111
 194  436.2827
 195  366.9935
 196  341.4671
 197  405.6558
 198  326.6307
 199  365.7285
 200  363.0851
 201  273.5333
 202  298.3065
 203  315.5154
 204  272.2077
 205  264.8577
 206  210.9352
 207  265.3033
 208  313.8431
 209  219.1027
 210  177.2238
 211  190.3522
 212  228.6768
 213  247.8015
 214  340.264
 215  476.4989
 216  322.5728
 217  286.3329
 218  327.2975
 219  281.7742
 220  312.8267
 221  277.7452
 222  350.5442
 223  370.4941
 224  318.8645
 225  301.6067
 226  300.0421
 227  331.3269
 228  284.5443
 229  304.9582
 230  301.2038
 231  291.373
 232  312.5346
 233  378.988
 234  332.8681
 235  211.8798
 236  324.9448
 237  341.1681
 238  251.0408
 239  316.3889
 240  415.4432
 241  290.2822
 242  351.1694
 243  355.1915
 244  262.4027
 245  223.6401
 246  287.9037
 247  270.8186
 248  276.6245
 249  227.9261
 250  173.8628
 251  175.1139
 252  204.78
 253  246.7897
 254  323.933
 255  261.9211
 256  321.3849
 257  282.6621
 258  212.0162
 259  195.1742
 260  291.4167
 261  234.906
 262  179.4637
 263  190.9395
 264  202.4072
 265  238.0227
 266  188.6771
 267  197.7157
 268  189.9098
 269  231.7194
 270  227.682
 271  227.7237
 272  215.5956
 273  124.0273
 274  271.6776
 275  312.3159
 276  282.8777
 277  179.6254
 278  205.6542
 279  253.8744
 280  210.2016
 281  201.2606
 282  284.6387
 283  321.1415
 284  276.6771
 285  213.672
 286  201.1544
 287  216.1782
 288  255.58
 289  336.0662
 290  289.4182
 291  207.3202
 292  237.6506
 293  236.7928
 294  326.8416
 295  284.0144
 296  306.0614
 297  245.91
 298  160.0386
 299  202.2535
 300  189.6926
 301  107.815
 302  162.2569
 303  219.5193
 304  251.4601
 305  175.7383
 306  207.8138
 307  260.0223
 308  239.1699
 309  260.4858
 310  244.0707
 311  204.0238
 312  179.5185
 313  196.969
 314  252.0447
 315  192.1919
 316  280.6061
 317  226.7255
 318  261.5692
 319  310.4879
 320  273.7449
 321  199.7063
 322  245.2218
 323  343.3342
 324  296.4945
 325  289.3834
 326  293.6406
 327  195.9284
 328  226.9543
 329  233.194
 330  149.201
 331  157.4555
 332  115.5454
 333  129.9553
 334  158.6294
 335  237.7558
 336  173.5562
 337  196.2918
 338  243.6779
 339  254.6011
 340  239.8943
 341  171.8718
 342  269.9589
 343  209.388
 344  146.8486
 345  176.9681
 346  266.8422
 347  257.04
 348  131.0488
 349  142.3968
 350  264.9243
 351  228.4395
 352  268.8957
 353  348.3078
 354  337.8461
 355  189.7256
 356  250.3788
 357  318.3623
 358  270.7926
 359  273.9337
 360  350.1935
 361  360.8879
 362  399.7455
 363  281.1677
 364  247.2037
 365  239.857
 366  210.9264
 367  270.439
 368  264.653
 369  318.3257
 370  250.6112
 371  315.2341
 372  304.163
 373  317.3828
 374  276.7167
 375  239.0953
 376  165.1945
 377  216.4616
 378  221.429
 379  187.3958
 380  195.5011
 381  283.8802
 382  288.7402
 383  145.9376
 384  151.7511
 385  167.0249
 386  202.994
 387  234.854
 388  211.6173
 389  122.4842
 390  121.9572
 391  104.0379
 392  190.5825
 393  174.5701
 394  130.9792
 395  155.4172
 396  225.8154
 397  204.0227
 398  278.8324
 399  296.069
 400  285.3838
 401  245.1616
 402  202.2195
 403  263.1808
 404  262.2313
 405  210.8142
 406  187.7226
 407  180.3362
 408  282.3268
 409  268.0286
 410  237.944
 411  327.1201
 412  322.1576
 413  218.0782
 414  179.8048
 415  217.3314
 416  231.7141
 417  281.9922
 418  196.2705
 419  306.8285
 420  235.2455
 421  174.3931
 422  281.9549
 423  208.1236
 424  173.9937
 425  90.9503
 426  192.1767
 427  204.5641
 428  195.7989
 429  80.1254
 430  89.0754
 431  106.5773
 432  170.8988
 433  210.8346
 434  208.5508
 435  255.1913
 436  328.6165
 437  224.8285
 438  277.2307
 439  277.845
 440  165.8173
 441  159.3796
 442  190.1431
 443  216.9849
 444  218.2791
 445  289.0231
 446  260.6091
 447  239.6005
 448  211.8158
 449  116.0925
 450  196.9103
 451  239.7908
 452  180.6108
 453  135.0146
 454  156.0399
 455  154.1314
 456  183.7558
 457  216.896
 458  220.1997
 459  214.832
 460  138.581
 461  131.9159
 462  140.5118
 463  186.7478
 464  190.0181
 465  202.1691
 466  170.5589
 467  155.4319
 468  142.0051
 469  106.5578
 470  92.36526
 471  47.03819
 472  209.8019
 473  207.8122
 474  196.7167
 475  140.7383
 476  123.7506
 477  154.9158
 478  226.7128
 479  221.562
 480  143.9751
 481  177.9664
 482  221.4577
 483  239.4828
 484  179.6647
 485  190.0668
 486  170.1202
 487  233.3448
 488  245.2068
 489  183.062
 490  136.286
 491  200.2682
 492  229.5859
 493  274.9359
 494  217.0893
 495  185.9003
 496  163.2471
 497  128.6574
 498  131.2419
 499  119.0757
 500  96.27644
 501  114.1941
 502  151.0365
 503  89.39529
 504  134.2918
 505  50.49799
 506  72.52387
 507  215.3261
 508  374.4597
 509  461.6415
 510  535.832
 511  623.0257
