# Input file       =  1210149676.126379_cleaned.dat
# Candidate        =  PSR_0332+5434
# Telescope        =  AR
# Epoch_topo       =  58250.362212110871
# Epoch_bary       =  N/A
# T_sample         =  0.002
# Data Folded      =  7340032
# Data Avg         =  -0.401312949961201
# Data StdDev      =  5.11394694337209 
# Profile Bins     =  512
# Profile Avg      =  -5752.69666238297
# Profile StdDev   =  612.308395399622 
# Reduced chi-sqr  =  0.964
# Prob(Noise)      <  0.714   (~0.0 sigma)
# P_topo (ms)      =  714.536146870019  +/- 0.000962
# P'_topo (s/s)    =  -0                +/- 5.08e-10
# P''_topo (s/s^2) =  0                 +/- 2.24e-13
# P_bary (ms)      =  N/A
# P'_bary (s/s)    =  N/A
# P''_bary (s/s^2) =  N/A
# P_orb (s)        =  N/A
# asin(i)/c (s)    =  N/A
# eccentricity     =  N/A
# w (rad)          =  N/A
# T_peri           =  N/A
######################################################
   0  -5514.982
   1  -5389.988
   2  -5546.966
   3  -5588.678
   4  -5324.659
   5  -5469.79
   6  -5557.422
   7  -5418.668
   8  -5607.841
   9  -5265.6
  10  -5589.281
  11  -5826.52
  12  -5778.032
  13  -5579.058
  14  -5669.843
  15  -5727.503
  16  -5674.776
  17  -5716.096
  18  -5668.301
  19  -5459.792
  20  -5166.816
  21  -5367.065
  22  -5413.005
  23  -5627.14
  24  -5751.776
  25  -5640.696
  26  -5758.645
  27  -5769.667
  28  -5874.136
  29  -5683.375
  30  -5649.903
  31  -5873.667
  32  -5748.621
  33  -5862.736
  34  -6050.525
  35  -5999.27
  36  -5872.172
  37  -5712.715
  38  -5840.935
  39  -5814.254
  40  -5745.083
  41  -5626.166
  42  -5693.317
  43  -5649.068
  44  -6160.391
  45  -6433.679
  46  -6170.199
  47  -6453.19
  48  -6357.493
  49  -6030.751
  50  -6063.612
  51  -6171.881
  52  -6198.378
  53  -6232.957
  54  -6507.342
  55  -6254.561
  56  -6293.608
  57  -6440.321
  58  -6380.114
  59  -6015.752
  60  -6125.157
  61  -6119.31
  62  -6183.167
  63  -5870.377
  64  -5888.85
  65  -5931.606
  66  -5943.646
  67  -5972.762
  68  -6302.299
  69  -6073.211
  70  -5797.126
  71  -5501.457
  72  -5749.652
  73  -5983.526
  74  -6067.272
  75  -6215.182
  76  -6071.767
  77  -6010.901
  78  -5994.043
  79  -6017.945
  80  -5962.104
  81  -6015.943
  82  -6400.913
  83  -6350.715
  84  -6080.598
  85  -6085.272
  86  -6047.977
  87  -6206.441
  88  -5947.659
  89  -5811.969
  90  -5630.409
  91  -5835.688
  92  -5802.006
  93  -5946.255
  94  -5640.566
  95  -5549.709
  96  -5431.609
  97  -5670.718
  98  -5654.844
  99  -5708.422
 100  -5748.292
 101  -5846.106
 102  -5549.689
 103  -5507.618
 104  -5608.098
 105  -5557.103
 106  -5509.662
 107  -5564.48
 108  -5382.633
 109  -5288.268
 110  -5830.693
 111  -5942.08
 112  -5442.598
 113  -5187.461
 114  -5353.082
 115  -5540.953
 116  -5425
 117  -5437.659
 118  -5321.562
 119  -5251.119
 120  -5280.104
 121  -5838.027
 122  -5787.371
 123  -5661.022
 124  -5435.191
 125  -5312.064
 126  -5387.476
 127  -5508.7
 128  -5679.888
 129  -5614.817
 130  -5357.01
 131  -5582.367
 132  -5607.01
 133  -5453.764
 134  -5341.889
 135  -5749.464
 136  -5675.008
 137  -5097.167
 138  -5388.671
 139  -5448.743
 140  -5396.464
 141  -5525.062
 142  -5303.98
 143  -5229.58
 144  -5470.878
 145  -5621.199
 146  -5497.834
 147  -5577.308
 148  -5659.942
 149  -5486.981
 150  -5436.746
 151  -5506.518
 152  -5556.553
 153  -5491.006
 154  -5089.367
 155  -5356.162
 156  -5473.497
 157  -5298.16
 158  -5440.707
 159  -5651.018
 160  -5446.707
 161  -5177.069
 162  -5149.641
 163  -5484.643
 164  -5365.778
 165  -5425.239
 166  -5064.592
 167  -5228.679
 168  -5404.588
 169  -5411.874
 170  -5744.823
 171  -5529.488
 172  -5680.123
 173  -5338.174
 174  -5158.325
 175  -5292.226
 176  -5514.907
 177  -5329.198
 178  -5366.693
 179  -5345.18
 180  -5455
 181  -5240.432
 182  -5166.057
 183  -5651.683
 184  -5264.105
 185  -5516.289
 186  -5645.67
 187  -5459.329
 188  -5393.401
 189  -5376.465
 190  -5432.954
 191  -5437.46
 192  -5449.292
 193  -5478.411
 194  -5354.579
 195  -5342.939
 196  -5552.63
 197  -5909.472
 198  -6009.907
 199  -5576.864
 200  -5506.468
 201  -5744.396
 202  -6052.602
 203  -5898.638
 204  -5730.053
 205  -5593.774
 206  -5629.342
 207  -5966.623
 208  -5774.419
 209  -5927.681
 210  -6210.581
 211  -5989.463
 212  -5641.822
 213  -5461.35
 214  -5758.212
 215  -5821.227
 216  -5813.362
 217  -5944.348
 218  -6147.268
 219  -6083.151
 220  -5946.829
 221  -6073.787
 222  -6230.871
 223  -6213.319
 224  -5907.307
 225  -5845.479
 226  -6043.39
 227  -6026.515
 228  -5814.531
 229  -5468.798
 230  -5898.536
 231  -6024.221
 232  -6157.132
 233  -6361.609
 234  -6254.566
 235  -6223.826
 236  -6229.508
 237  -5939.423
 238  -5700.175
 239  -5843.307
 240  -5845.045
 241  -5703.318
 242  -5914.553
 243  -5869.578
 244  -5806.835
 245  -5770.233
 246  -5837.33
 247  -5598.801
 248  -5361.004
 249  -5406.234
 250  -5374.764
 251  -5562.929
 252  -5832.717
 253  -5958.91
 254  -5729.793
 255  -5725.281
 256  -5609.002
 257  -5676.969
 258  -5449.637
 259  -5735.665
 260  -6076.495
 261  -5973.289
 262  -6177.039
 263  -6094.923
 264  -5836.905
 265  -5755.103
 266  -5936.931
 267  -5969.847
 268  -6002.697
 269  -6209.839
 270  -6384.157
 271  -6251.834
 272  -6276.99
 273  -6452.37
 274  -6072.51
 275  -5873.429
 276  -5865.062
 277  -5927.335
 278  -6003.306
 279  -6025.308
 280  -5873.258
 281  -5750.659
 282  -5722.33
 283  -5817.895
 284  -6039.401
 285  -6101.394
 286  -6352.678
 287  -6339.755
 288  -6326.531
 289  -5924.049
 290  -5903.207
 291  -6173.64
 292  -6026.813
 293  -5756.405
 294  -5605.761
 295  -5637.656
 296  -5319.557
 297  -4951.428
 298  -4525.645
 299  -3957.273
 300  -3644.206
 301  -3626.029
 302  -4424.22
 303  -5435.431
 304  -5877.748
 305  -6170.561
 306  -6152.869
 307  -6248.124
 308  -6076.346
 309  -6066.188
 310  -5999.565
 311  -5924.42
 312  -6109.242
 313  -5902.27
 314  -5552.013
 315  -5843.097
 316  -6156.145
 317  -6281.004
 318  -6168.625
 319  -6068.281
 320  -6063.887
 321  -6088.619
 322  -5814.856
 323  -5743.893
 324  -5957.097
 325  -6272.737
 326  -6335.393
 327  -6466.894
 328  -6254.447
 329  -6258.924
 330  -6156.579
 331  -6058.809
 332  -6380.376
 333  -6288.598
 334  -6334.626
 335  -6105.017
 336  -6255.729
 337  -6333.263
 338  -6353.835
 339  -6515.8
 340  -6612.484
 341  -6597.953
 342  -6385.932
 343  -6190.289
 344  -6345.656
 345  -6578.95
 346  -6427.472
 347  -6495.456
 348  -6199.818
 349  -6140.859
 350  -6235.187
 351  -6242.991
 352  -6570.174
 353  -6733.666
 354  -6455.877
 355  -6440.749
 356  -6217.438
 357  -6125.078
 358  -6378.585
 359  -6566.631
 360  -6543.458
 361  -6339.135
 362  -6472.23
 363  -6714.199
 364  -6384.423
 365  -6352.916
 366  -6570.968
 367  -6705.002
 368  -6506.106
 369  -6317.053
 370  -6474
 371  -6553.487
 372  -6305.521
 373  -6313.976
 374  -6438.906
 375  -6223.082
 376  -6344.206
 377  -6424.052
 378  -6370.562
 379  -6080.423
 380  -6104.442
 381  -6315.846
 382  -6000.914
 383  -5954.235
 384  -6312.234
 385  -6314.969
 386  -6136.979
 387  -6079.308
 388  -6132.38
 389  -6136.787
 390  -5648.952
 391  -5773.649
 392  -6224.505
 393  -6052.957
 394  -6010.751
 395  -6099.606
 396  -6029.969
 397  -5798.133
 398  -5984.5
 399  -5972.456
 400  -6008.231
 401  -5927.556
 402  -5833.706
 403  -5711.424
 404  -5712.845
 405  -5801.226
 406  -5970.078
 407  -5812.42
 408  -5981.019
 409  -6152.141
 410  -5962.519
 411  -6073.501
 412  -6245.85
 413  -6267.067
 414  -6018.607
 415  -5912.228
 416  -6011.314
 417  -6069.141
 418  -5985.079
 419  -5776.724
 420  -5773.442
 421  -5753.389
 422  -5761.557
 423  -5407.822
 424  -5349.044
 425  -5544.608
 426  -5540.573
 427  -5618.355
 428  -5814.875
 429  -5780.806
 430  -5851.005
 431  -5732.449
 432  -5898.98
 433  -5949.97
 434  -5733.691
 435  -5628.509
 436  -5596.121
 437  -5496.911
 438  -5331.016
 439  -5350.118
 440  -5725.115
 441  -5509.407
 442  -5536.474
 443  -5602.71
 444  -5330.919
 445  -5352.573
 446  -5483.277
 447  -5389.668
 448  -5491.745
 449  -5595.003
 450  -5290.777
 451  -5312.172
 452  -5192.996
 453  -5103.87
 454  -5203.767
 455  -5237.782
 456  -4994.78
 457  -5155.762
 458  -5169.412
 459  -5196.611
 460  -5228.467
 461  -5383.215
 462  -5361.192
 463  -5357.639
 464  -5267.342
 465  -5059.179
 466  -5170.444
 467  -5406.915
 468  -5505.03
 469  -5114.807
 470  -4982.093
 471  -5226.158
 472  -5464.89
 473  -5391.973
 474  -5114.498
 475  -5133.506
 476  -5250.77
 477  -5179.894
 478  -5262.377
 479  -5166.192
 480  -4941.567
 481  -4982.464
 482  -4611.731
 483  -5042.405
 484  -5094.951
 485  -5134.768
 486  -5120.974
 487  -5264.16
 488  -5001.79
 489  -5009.003
 490  -5265.615
 491  -5358.192
 492  -5185.41
 493  -4925.551
 494  -5051.306
 495  -4768.708
 496  -4673.744
 497  -4742.111
 498  -5077.117
 499  -4993.891
 500  -4977.677
 501  -5283.396
 502  -5637.896
 503  -5734.755
 504  -5474.076
 505  -5466.47
 506  -5301.3
 507  -5554.81
 508  -5826.776
 509  -5935.273
 510  -5853.937
 511  -5812.438
