# Input file       =  1210250771.112735_cleaned.dat
# Candidate        =  PSR_0332+5434
# Telescope        =  AR
# Epoch_topo       =  58251.532292971468
# Epoch_bary       =  N/A
# T_sample         =  0.002
# Data Folded      =  7340032
# Data Avg         =  0.0311693048197865
# Data StdDev      =  1.0000666502102  
# Profile Bins     =  512
# Profile Avg      =  446.706624473268 
# Profile StdDev   =  119.741016608808 
# Reduced chi-sqr  =  1.465
# Prob(Noise)      <  3.22e-11   (~6.5 sigma)
# P_topo (ms)      =  714.535351387225  +/- 0.000459
# P'_topo (s/s)    =  -0                +/- 2.42e-10
# P''_topo (s/s^2) =  0                 +/- 1.07e-13
# P_bary (ms)      =  N/A
# P'_bary (s/s)    =  N/A
# P''_bary (s/s^2) =  N/A
# P_orb (s)        =  N/A
# asin(i)/c (s)    =  N/A
# eccentricity     =  N/A
# w (rad)          =  N/A
# T_peri           =  N/A
######################################################
   0  1180.012
   1  1054.733
   2  896.3641
   3  612.3928
   4  517.7442
   5  428.3465
   6  378.2882
   7  471.1966
   8  573.5491
   9  600.2327
  10  521.2319
  11  525.3823
  12  567.4963
  13  682.1317
  14  537.9735
  15  478.0129
  16  553.9599
  17  516.5304
  18  431.357
  19  475.1175
  20  499.8243
  21  501.9227
  22  460.2291
  23  397.8438
  24  353.1828
  25  389.7879
  26  418.3025
  27  355.7762
  28  431.847
  29  422.6259
  30  382.1158
  31  429.0512
  32  326.7139
  33  374.8341
  34  423.1844
  35  478.6125
  36  429.8915
  37  421.896
  38  492.4497
  39  487.7254
  40  474.9264
  41  444.7238
  42  400.1636
  43  471.2937
  44  519.9698
  45  476.7318
  46  498.1952
  47  633.2648
  48  452.6669
  49  444.6534
  50  422.4274
  51  494.9335
  52  467.3636
  53  440.0382
  54  424.8788
  55  460.5176
  56  447.9633
  57  539.3013
  58  529.7041
  59  459.6635
  60  436.087
  61  332.2569
  62  455.9938
  63  431.0562
  64  302.9764
  65  372.2356
  66  464.097
  67  418.9719
  68  326.6918
  69  347.8338
  70  406.1392
  71  346.5845
  72  304.5722
  73  200.7734
  74  291.5865
  75  323.0442
  76  457.4566
  77  440.3322
  78  364.8269
  79  403.7379
  80  301.7194
  81  308.1884
  82  319.0643
  83  266.7346
  84  326.9577
  85  313.7507
  86  327.6492
  87  443.1022
  88  377.0903
  89  342.7773
  90  507.4689
  91  448.8323
  92  349.9592
  93  392.4558
  94  448.6392
  95  493.1722
  96  408.4032
  97  433.132
  98  497.8762
  99  534.4147
 100  585.9791
 101  502.6488
 102  448.9989
 103  515.0538
 104  503.7558
 105  443.2739
 106  462.8235
 107  519.6791
 108  521.4803
 109  500.0377
 110  373.749
 111  307.3063
 112  386.5018
 113  479.9375
 114  458.4952
 115  378.1725
 116  370.1327
 117  409.8413
 118  392.8203
 119  451.8888
 120  446.0083
 121  409.9095
 122  316.7223
 123  350.2642
 124  444.1957
 125  436.4934
 126  463.0136
 127  506.8698
 128  346.8873
 129  308.5155
 130  529.1218
 131  637.3337
 132  524.6752
 133  441.4417
 134  399.4183
 135  412.1579
 136  535.1372
 137  520.8276
 138  492.8738
 139  459.3278
 140  537.164
 141  561.6144
 142  405.9308
 143  527.8209
 144  553.564
 145  489.303
 146  545.4033
 147  470.9539
 148  388.5638
 149  462.8832
 150  484.0976
 151  438.517
 152  298.638
 153  414.7437
 154  447.4168
 155  437.6483
 156  414.6682
 157  360.5995
 158  342.0062
 159  357.7076
 160  392.5182
 161  369.8215
 162  339.4232
 163  408.8192
 164  350.1079
 165  368.8608
 166  470.3574
 167  357.2379
 168  371.327
 169  451.0659
 170  450.3545
 171  455.9704
 172  323.8929
 173  408.5059
 174  445.7679
 175  435.8178
 176  387.6633
 177  503.3199
 178  593.5372
 179  636.7852
 180  510.3951
 181  418.2437
 182  363.1932
 183  414.8441
 184  454.9126
 185  512.738
 186  454.3054
 187  456.8389
 188  393.6073
 189  461.3915
 190  484.8657
 191  409.1001
 192  424.343
 193  484.6307
 194  386.1578
 195  420.6292
 196  504.853
 197  537.1901
 198  510.088
 199  519.5232
 200  641.795
 201  595.8111
 202  445.5103
 203  436.7723
 204  464.3448
 205  518.7402
 206  485.5992
 207  333.1531
 208  354.7256
 209  370.1753
 210  425.7776
 211  347.7478
 212  440.4069
 213  350.5056
 214  249.2168
 215  371.2472
 216  411.7592
 217  379.6698
 218  287.6599
 219  508.2281
 220  580.3766
 221  469.6559
 222  433.3978
 223  494.1594
 224  470.7942
 225  474.9098
 226  496.338
 227  399.801
 228  465.8427
 229  597.8376
 230  564.118
 231  507.4612
 232  482.8294
 233  497.6275
 234  482.636
 235  475.593
 236  486.3861
 237  552.9603
 238  571.4391
 239  492.0846
 240  570.5253
 241  564.8394
 242  516.932
 243  509.9377
 244  485.2687
 245  561.4058
 246  399.3328
 247  270.4302
 248  228.6398
 249  386.0464
 250  450.902
 251  411.5256
 252  380.7372
 253  474.0288
 254  401.8167
 255  243.1078
 256  337.0735
 257  460.1088
 258  437.399
 259  433.4611
 260  410.1446
 261  405.2127
 262  438.5114
 263  482.291
 264  577.368
 265  614.4026
 266  547.3551
 267  514.5261
 268  457.498
 269  407.1703
 270  502.6849
 271  544.5338
 272  416.5385
 273  444.277
 274  426.1966
 275  532.4871
 276  419.824
 277  427.8568
 278  417.353
 279  505.5913
 280  563.496
 281  479.1183
 282  501.0475
 283  288.7993
 284  399.1759
 285  420.3676
 286  382.9037
 287  404.7215
 288  425.0161
 289  416.0123
 290  497.5446
 291  536.8849
 292  544.0449
 293  467.7198
 294  598.9954
 295  482.6687
 296  402.926
 297  441.5191
 298  404.2291
 299  402.5822
 300  484.5132
 301  565.113
 302  471.9923
 303  399.4133
 304  554.3497
 305  441.6597
 306  490.7359
 307  556.8645
 308  471.7731
 309  412.2375
 310  442.132
 311  457.3916
 312  429.7303
 313  471.9932
 314  617.0142
 315  542.6723
 316  525.099
 317  534.8173
 318  565.9957
 319  511.9769
 320  550.0944
 321  503.7839
 322  535.1141
 323  587.8779
 324  523.1901
 325  367.2474
 326  425.5024
 327  487.7288
 328  433.9592
 329  458.0203
 330  511.0413
 331  424.4062
 332  423.5938
 333  389.5299
 334  330.8324
 335  247.819
 336  408.6661
 337  528.3538
 338  284.2715
 339  331.686
 340  520.9809
 341  505.8416
 342  405.8459
 343  293.4438
 344  338.0914
 345  404.2156
 346  364.1691
 347  413.9253
 348  402.3906
 349  430.012
 350  453.7552
 351  442.1493
 352  452.0097
 353  459.6154
 354  457.3129
 355  563.6187
 356  567.6329
 357  425.9582
 358  316.4894
 359  361.7295
 360  500.9747
 361  519.9202
 362  485.5972
 363  499.2943
 364  473.0692
 365  491.6602
 366  482.4855
 367  394.722
 368  316.1988
 369  317.434
 370  309.1585
 371  331.8801
 372  415.6277
 373  330.1317
 374  292.5442
 375  384.2502
 376  289.6942
 377  284.8558
 378  357.6242
 379  328.5372
 380  325.6127
 381  372.621
 382  316.5496
 383  266.3071
 384  309.869
 385  318.3486
 386  330.5267
 387  303.5789
 388  288.0711
 389  220.0005
 390  332.1279
 391  466.6532
 392  320.8109
 393  400.2102
 394  503.5228
 395  485.0562
 396  412.6662
 397  446.4939
 398  439.4118
 399  379.6998
 400  398.7486
 401  536.5336
 402  383.2003
 403  306.4231
 404  413.7446
 405  467.0251
 406  403.2881
 407  363.837
 408  373.9381
 409  332.1019
 410  264.5434
 411  320.2649
 412  291.8682
 413  412.663
 414  338.0837
 415  490.5895
 416  464.797
 417  364.3269
 418  416.3621
 419  392.6917
 420  344.9736
 421  332.7691
 422  343.8625
 423  395.0276
 424  363.3333
 425  393.1533
 426  322.2515
 427  314.6314
 428  342.0312
 429  402.3277
 430  466.8609
 431  477.4878
 432  478.2444
 433  621.7998
 434  573.6121
 435  557.9384
 436  460.5697
 437  427.7877
 438  430.9157
 439  464.4324
 440  562.2303
 441  566.0895
 442  579.2954
 443  492.9901
 444  405.4681
 445  406.4015
 446  475.2335
 447  496.5272
 448  483.2397
 449  450.1949
 450  452.6939
 451  443.9342
 452  388.4162
 453  543.3085
 454  484.0039
 455  459.7574
 456  524.5038
 457  543.7628
 458  491.0199
 459  398.8739
 460  415.7502
 461  431.9969
 462  325.7759
 463  418.1336
 464  637.6063
 465  478.905
 466  487.1027
 467  361.1005
 468  374.9742
 469  406.572
 470  399.7228
 471  450.2279
 472  337.1553
 473  453.6294
 474  468.2634
 475  401.3123
 476  310.6923
 477  405.2921
 478  347.5277
 479  383.8384
 480  474.7099
 481  361.8188
 482  420.1725
 483  367.6747
 484  397.9868
 485  396.8946
 486  417.4082
 487  434.9017
 488  567.3945
 489  548.0271
 490  439.2426
 491  383.427
 492  514.299
 493  553.2059
 494  471.4628
 495  489.2226
 496  431.6767
 497  499.1208
 498  397.2919
 499  341.2703
 500  416.8748
 501  590.3828
 502  623.876
 503  534.5597
 504  479.3931
 505  408.6084
 506  564.6678
 507  597.6342
 508  693.5952
 509  819.3363
 510  1054.542
 511  1189.251
