# Input file       =  1210149676.126379-PSRB0329-2ms-sampling-dd.dat
# Candidate        =  PSR_0332+5434
# Telescope        =  AR
# Epoch_topo       =  58250.362212110871
# Epoch_bary       =  N/A
# T_sample         =  0.002
# Data Folded      =  7340032
# Data Avg         =  9.39085793509815e-10
# Data StdDev      =  5.668843141746   
# Profile Bins     =  512
# Profile Avg      =  3.59948080975934 
# Profile StdDev   =  678.747802104854 
# Reduced chi-sqr  =  0.842
# Prob(Noise)      <  0.996   (~0.0 sigma)
# P_topo (ms)      =  714.536146945048  +/- 0.000913
# P'_topo (s/s)    =  -0                +/- 4.82e-10
# P''_topo (s/s^2) =  0                 +/- 2.13e-13
# P_bary (ms)      =  N/A
# P'_bary (s/s)    =  N/A
# P''_bary (s/s^2) =  N/A
# P_orb (s)        =  N/A
# asin(i)/c (s)    =  N/A
# eccentricity     =  N/A
# w (rad)          =  N/A
# T_peri           =  N/A
######################################################
   0  -140.6383
   1  -211.7655
   2  -75.74218
   3  -202.1275
   4  -87.82858
   5  176.243
   6  191.7076
   7  168.8053
   8  29.67064
   9  -21.31376
  10  -78.59727
  11  241.5386
  12  20.77173
  13  -423.4395
  14  -256.1178
  15  316.2462
  16  388.8228
  17  213.8079
  18  120.3278
  19  395.4131
  20  220.65
  21  300.5106
  22  447.988
  23  157.8917
  24  -100.5625
  25  -60.66147
  26  103.1589
  27  343.8173
  28  201.0312
  29  150.968
  30  113.4197
  31  -6.235668
  32  239.1461
  33  215.6834
  34  120.8699
  35  227.2041
  36  371.956
  37  259.3983
  38  -115.4409
  39  343.1066
  40  540.9567
  41  299.2268
  42  305.6183
  43  347.9074
  44  347.0347
  45  539.2149
  46  501.3578
  47  255.4505
  48  378.4616
  49  421.106
  50  249.1095
  51  353.2909
  52  567.7647
  53  457.1485
  54  401.1493
  55  459.7398
  56  674.6297
  57  839.0281
  58  464.4797
  59  503.4301
  60  516.9512
  61  325.5026
  62  191.8784
  63  505.0773
  64  820.3121
  65  688.4175
  66  433.1697
  67  458.0054
  68  448.5471
  69  722.0923
  70  480.9042
  71  614.8076
  72  333.9456
  73  159.7247
  74  377.9517
  75  395.1754
  76  663.3474
  77  669.1691
  78  356.1201
  79  278.7917
  80  370.2241
  81  339.0591
  82  392.2061
  83  415.5105
  84  717.2371
  85  516.1589
  86  361.7211
  87  498.0596
  88  21.49195
  89  305.7979
  90  449.5411
  91  606.256
  92  424.7116
  93  561.4692
  94  567.8152
  95  539.2211
  96  442.6586
  97  683.2184
  98  524.7635
  99  206.3236
 100  -149.0239
 101  148.2254
 102  391.0884
 103  367.6803
 104  142.4935
 105  -107.5146
 106  85.51797
 107  208.5233
 108  169.3172
 109  -114.035
 110  -161.5902
 111  42.7734
 112  -245.0393
 113  -280.0367
 114  108.7535
 115  516.8701
 116  329.1867
 117  24.93892
 118  -31.08679
 119  44.54535
 120  -191.9922
 121  -255.7959
 122  -190.0565
 123  -132.7834
 124  -294.2112
 125  -407.9405
 126  -230.1802
 127  6.349952
 128  -98.70176
 129  -306.1696
 130  -70.59572
 131  282.2567
 132  242.2795
 133  -192.9334
 134  -241.9976
 135  -248.593
 136  -437.2629
 137  -328.8503
 138  -345.5244
 139  -318.198
 140  -83.31284
 141  76.26863
 142  -22.05004
 143  135.6269
 144  60.42326
 145  -124.6398
 146  -155.4943
 147  -40.02676
 148  -7.321556
 149  53.0107
 150  306.1148
 151  435.1377
 152  358.9125
 153  152.4214
 154  -136.4107
 155  -175.0495
 156  -36.47225
 157  99.69335
 158  -17.8687
 159  69.35516
 160  102.116
 161  147.9521
 162  -180.0403
 163  -194.5438
 164  -37.21542
 165  -122.9026
 166  124.617
 167  327.6454
 168  194.1922
 169  132.5771
 170  41.88935
 171  30.65195
 172  -162.8965
 173  -397.3473
 174  -257.1254
 175  -385.8759
 176  -283.9221
 177  35.81381
 178  93.97546
 179  211.6165
 180  61.35719
 181  18.784
 182  -77.35703
 183  153.0489
 184  239.7143
 185  222.423
 186  39.12649
 187  -80.94161
 188  -282.3069
 189  -478.2771
 190  -387.4091
 191  -287.0044
 192  46.07588
 193  -219.9458
 194  -254.1769
 195  -44.80866
 196  247.7454
 197  215.0318
 198  243.3641
 199  666.3414
 200  1057.045
 201  1728.317
 202  2153.901
 203  2217.882
 204  1871.284
 205  1029.928
 206  250.5397
 207  -144.4835
 208  -326.4731
 209  -444.9898
 210  -406.9158
 211  -237.2338
 212  -236.0737
 213  -198.7153
 214  -18.80625
 215  -222.7406
 216  159.0994
 217  427.7489
 218  -3.300106
 219  -224.3604
 220  -435.3241
 221  -181.4342
 222  -296.275
 223  -158.4487
 224  -135.4694
 225  240.9799
 226  85.0156
 227  -196.7452
 228  -346.0167
 229  -486.9623
 230  -485.4665
 231  -301.3184
 232  -358.533
 233  -193.3802
 234  -345.1105
 235  -412.3301
 236  -510.6246
 237  -430.3571
 238  -327.7767
 239  -423.4236
 240  -532.2326
 241  -561.0215
 242  -708.9162
 243  -777.8654
 244  -719.3605
 245  -505.8036
 246  -297.6388
 247  -625.6353
 248  -601.6093
 249  -571.072
 250  -425.6164
 251  -247.8218
 252  -145.5941
 253  -298.1503
 254  -499.2743
 255  -780.2559
 256  -812.3825
 257  -587.297
 258  -478.3513
 259  -359.1191
 260  -497.7107
 261  -694.6735
 262  -706.5508
 263  -754.6702
 264  -446.6093
 265  -724.9976
 266  -563.3721
 267  -478.5813
 268  -501.0312
 269  -779.4409
 270  -790.0238
 271  -509.1789
 272  -521.6736
 273  -797.4163
 274  -661.9633
 275  -463.7758
 276  -541.9438
 277  -537.5349
 278  -467.7567
 279  -682.4893
 280  -642.5513
 281  -456.1678
 282  -343.0158
 283  -357.0305
 284  -310.9029
 285  -32.70364
 286  -272.5325
 287  -563.0327
 288  -388.4238
 289  -352.6049
 290  -113.0866
 291  -166.0212
 292  12.16506
 293  394.6779
 294  -198.619
 295  -328.9883
 296  -247.8661
 297  -90.3881
 298  -191.0219
 299  71.50296
 300  12.93349
 301  -130.8506
 302  -211.5262
 303  -331.7963
 304  -225.6192
 305  -243.0374
 306  -209.0333
 307  -175.0388
 308  -282.0047
 309  -126.117
 310  -171.2186
 311  -288.3108
 312  -243.4044
 313  -202.9414
 314  -353.5424
 315  -498.8664
 316  -452.0124
 317  -277.6519
 318  -144.8457
 319  -415.714
 320  -318.8604
 321  -306.7916
 322  -127.7162
 323  -293.1663
 324  -194.7885
 325  -23.19368
 326  117.133
 327  138.2802
 328  25.08532
 329  159.0632
 330  -51.99212
 331  -16.95121
 332  40.54378
 333  9.964567
 334  19.40328
 335  -179.9741
 336  -132.2906
 337  121.9933
 338  131.3237
 339  104.2515
 340  271.336
 341  356.6481
 342  103.9014
 343  -8.675365
 344  305.2157
 345  248.4729
 346  301.1512
 347  376.752
 348  311.5537
 349  290.5841
 350  383.2991
 351  343.7227
 352  331.2654
 353  503.6338
 354  396.988
 355  553.0334
 356  533.0798
 357  567.8334
 358  538.5854
 359  698.8424
 360  513.6589
 361  650.9037
 362  553.8357
 363  486.4618
 364  317.0035
 365  381.6149
 366  407.8899
 367  632.7888
 368  709.637
 369  506.4005
 370  188.2192
 371  249.1074
 372  671.1086
 373  627.9034
 374  378.478
 375  195.1358
 376  295.4902
 377  666.0675
 378  518.2062
 379  559.6268
 380  535.7826
 381  422.3263
 382  751.3491
 383  816.4806
 384  994.1997
 385  1041.564
 386  848.6912
 387  738.6219
 388  729.3091
 389  604.3349
 390  625.9161
 391  844.478
 392  588.0494
 393  498.7402
 394  603.5478
 395  764.6183
 396  863.0507
 397  692.524
 398  1021.475
 399  943.0761
 400  723.665
 401  607.6901
 402  787.5071
 403  786.5412
 404  251.4003
 405  -53.60559
 406  14.47081
 407  175.9575
 408  28.97199
 409  339.2542
 410  -41.1508
 411  -209.1564
 412  -174.8276
 413  -104.9477
 414  46.63076
 415  301.3726
 416  327.8554
 417  70.59833
 418  245.5962
 419  411.0574
 420  74.15726
 421  313.6927
 422  13.58465
 423  86.10419
 424  140.0519
 425  -183.3368
 426  -356.2596
 427  -179.1117
 428  -22.61942
 429  -126.0421
 430  -137.1944
 431  -112.2002
 432  -230.2771
 433  -33.32909
 434  216.9531
 435  303.833
 436  -93.72723
 437  -67.53428
 438  -378.6332
 439  -287.8024
 440  -320.4274
 441  -295.1135
 442  -482.7162
 443  -400.3073
 444  -159.4124
 445  -148.5077
 446  -431.1295
 447  -271.7105
 448  -430.6098
 449  -608.8922
 450  -396.5594
 451  -294.2031
 452  -307.8227
 453  -456.3426
 454  -344.7965
 455  -147.5253
 456  -141.8292
 457  -97.8494
 458  -317.3242
 459  -892.9449
 460  -799.678
 461  -556.288
 462  -895.5838
 463  -707.5826
 464  -526.5921
 465  -587.0981
 466  -716.2585
 467  -741.2397
 468  -847.2013
 469  -989.4733
 470  -750.7676
 471  -1095.624
 472  -1027.614
 473  -829.3921
 474  -649.9996
 475  -783.435
 476  -674.3635
 477  -567.5881
 478  -340.5587
 479  -363.94
 480  -577.0975
 481  -330.5096
 482  -545.4634
 483  -731.4092
 484  -446.6501
 485  -128.9914
 486  112.8906
 487  -354.2918
 488  -508.4654
 489  -684.7626
 490  -660.17
 491  -538.1375
 492  -442.062
 493  -359.6692
 494  -430.0265
 495  -301.8327
 496  -637.4309
 497  -803.1845
 498  -633.107
 499  -430.507
 500  -472.5349
 501  -547.663
 502  -441.3917
 503  -127.2095
 504  -15.39414
 505  -250.4355
 506  -415.1523
 507  -315.1945
 508  -140.5824
 509  151.5987
 510  264.998
 511  178.5488
