# Input file       =  1210839012.112088-PSRB0329-2ms-sampling-dd.dat
# Candidate        =  PSR_0332+5434
# Telescope        =  AR
# Epoch_topo       =  58258.340637871392
# Epoch_bary       =  N/A
# T_sample         =  0.002
# Data Folded      =  7340032
# Data Avg         =  -8.41981990289399e-10
# Data StdDev      =  5.78389156896865 
# Profile Bins     =  512
# Profile Avg      =  0.88166230930262 
# Profile StdDev   =  692.522899626594 
# Reduced chi-sqr  =  0.773
# Prob(Noise)      <  1   (~0.0 sigma)
# P_topo (ms)      =  714.528358851179  +/- 0.000626
# P'_topo (s/s)    =  -0                +/- 3.31e-10
# P''_topo (s/s^2) =  0                 +/- 1.46e-13
# P_bary (ms)      =  N/A
# P'_bary (s/s)    =  N/A
# P''_bary (s/s^2) =  N/A
# P_orb (s)        =  N/A
# asin(i)/c (s)    =  N/A
# eccentricity     =  N/A
# w (rad)          =  N/A
# T_peri           =  N/A
######################################################
   0  327.7945
   1  383.5269
   2  126.2134
   3  -198.4595
   4  -10.0849
   5  -102.1916
   6  73.48134
   7  131.2161
   8  -370.1062
   9  -405.1512
  10  -309.6373
  11  -570.3749
  12  -420.2686
  13  -161.0887
  14  -202.1446
  15  -410.9416
  16  -412.0507
  17  -612.584
  18  -648.2617
  19  -377.8724
  20  -441.3262
  21  -263.4407
  22  27.81184
  23  -290.5087
  24  -440.0932
  25  -337.9984
  26  -514.192
  27  -197.6502
  28  -10.44069
  29  6.542793
  30  -66.8004
  31  -139.7324
  32  -229.2679
  33  -187.133
  34  14.47906
  35  -50.76736
  36  -183.5677
  37  -228.3845
  38  -324.3413
  39  31.38171
  40  -35.20228
  41  -281.3621
  42  -265.7459
  43  -320.9029
  44  26.95901
  45  -309.937
  46  -224.6164
  47  82.48414
  48  73.20585
  49  47.48257
  50  -175.9321
  51  -218.7238
  52  -211.9631
  53  -447.4914
  54  -357.2804
  55  -158.5509
  56  -272.6176
  57  -513.0808
  58  -486.103
  59  -416.1953
  60  -523.561
  61  -415.4576
  62  -52.70721
  63  30.39623
  64  -169.9902
  65  142.7491
  66  -102.336
  67  113.5715
  68  74.27856
  69  373.7813
  70  318.1978
  71  107.6217
  72  -292.7529
  73  -598.1279
  74  -365.8323
  75  -171.2567
  76  72.26695
  77  -14.82842
  78  2.378003
  79  518.7665
  80  555.9927
  81  488.7545
  82  -6.287722
  83  123.1565
  84  165.6416
  85  638.4156
  86  353.8288
  87  399.0445
  88  673.8141
  89  135.8975
  90  -204.7032
  91  -450.0566
  92  -394.9287
  93  87.50102
  94  216.4922
  95  -16.98055
  96  64.99423
  97  -69.00595
  98  261.7162
  99  43.86617
 100  191.6595
 101  204.1023
 102  49.46066
 103  102.5589
 104  -211.9805
 105  -190.1098
 106  -309.6435
 107  -380.6812
 108  -112.0325
 109  -117.3982
 110  -337.5839
 111  -210.7613
 112  -253.045
 113  -230.9284
 114  -580.3587
 115  -491.8988
 116  -722.2534
 117  -752.9788
 118  -434.3357
 119  -573.8818
 120  -778.4582
 121  -997.2043
 122  -873.8963
 123  -679.2988
 124  -691.9841
 125  -630.1032
 126  -667.004
 127  -934.6837
 128  -809.738
 129  -553.8931
 130  -237.2621
 131  82.64927
 132  -340.2957
 133  -451.1609
 134  -143.7133
 135  -33.80447
 136  394.4165
 137  297.6634
 138  348.3835
 139  349.1301
 140  -124.9357
 141  140.7989
 142  212.3519
 143  -150.1508
 144  132.1463
 145  4.549758
 146  279.1884
 147  -50.59573
 148  -255.8958
 149  -52.01688
 150  -283.7884
 151  -311.305
 152  -541.5875
 153  -604.7831
 154  -302.6971
 155  -102.4816
 156  -455.0422
 157  -249.8933
 158  -343.7614
 159  -467.3506
 160  -710.2101
 161  -503.8333
 162  -299.9279
 163  -50.41022
 164  116.0725
 165  -259.1714
 166  -366.5362
 167  -107.576
 168  -171.6701
 169  -395.708
 170  -363.3223
 171  -233.5626
 172  -375.2408
 173  -740.0923
 174  -562.1255
 175  -327.6694
 176  -507.887
 177  -376.7928
 178  -791.3567
 179  -863.9228
 180  -384.4126
 181  -491.8858
 182  -763.775
 183  -393.6421
 184  86.49161
 185  -309.8909
 186  -488.2899
 187  -368.2837
 188  -557.3695
 189  -438.6614
 190  -230.5775
 191  -177.7908
 192  -242.9112
 193  -150.9078
 194  -303.3527
 195  -377.5482
 196  0.04293334
 197  -95.21665
 198  6.287985
 199  -162.1008
 200  -290.3971
 201  -667.3691
 202  -482.4499
 203  -287.6111
 204  -332.739
 205  69.65265
 206  -92.52359
 207  -327.3314
 208  -393.5142
 209  -24.23587
 210  8.348528
 211  144.0312
 212  45.36246
 213  -206.3102
 214  476.5601
 215  1170.49
 216  1692.094
 217  2198.874
 218  2441.407
 219  1882.943
 220  1539.114
 221  965.9611
 222  413.8612
 223  -169.1356
 224  14.87458
 225  -90.10747
 226  -252.738
 227  155.1543
 228  -62.86417
 229  125.385
 230  264.7819
 231  765.1887
 232  1184.296
 233  1035.692
 234  385.5308
 235  -52.22203
 236  5.631866
 237  125.0177
 238  468.6327
 239  396.0045
 240  206.5355
 241  290.0924
 242  265.0241
 243  197.6631
 244  197.3466
 245  539.0361
 246  702.176
 247  558.8359
 248  128.9857
 249  225.1695
 250  97.46377
 251  21.86277
 252  -29.05362
 253  -105.5235
 254  -89.2177
 255  -336.6389
 256  -160.2007
 257  -20.85448
 258  200.9262
 259  70.19859
 260  35.76006
 261  105.8809
 262  254.5076
 263  103.5751
 264  120.9534
 265  -22.71114
 266  14.23182
 267  228.8309
 268  102.8917
 269  373.6262
 270  487.6631
 271  352.8051
 272  -97.08472
 273  230.544
 274  530.8652
 275  221.0356
 276  289.5922
 277  411.1205
 278  243.0293
 279  868.7864
 280  1013.454
 281  1009.108
 282  691.125
 283  112.3275
 284  153.1392
 285  118.4489
 286  153.6998
 287  -18.24697
 288  -109.5249
 289  -284.5511
 290  -385.3088
 291  -408.6378
 292  -10.1114
 293  220.2076
 294  52.76411
 295  42.92579
 296  -323.7114
 297  -30.06508
 298  61.22725
 299  35.64621
 300  -51.15541
 301  -64.01421
 302  46.85734
 303  261.0219
 304  55.14838
 305  141.8329
 306  384.196
 307  264.9974
 308  -72.97852
 309  -157.709
 310  184.1703
 311  510.5851
 312  350.5828
 313  195.0476
 314  251.2139
 315  613.5679
 316  708.3088
 317  654.4949
 318  235.8993
 319  300.893
 320  404.1779
 321  187.6019
 322  339.948
 323  568.8398
 324  286.9281
 325  575.2579
 326  470.0098
 327  -207.2378
 328  123.5725
 329  232.301
 330  -94.88384
 331  -119.9236
 332  672.1022
 333  796.0095
 334  88.76955
 335  -196.9116
 336  47.07145
 337  67.60825
 338  560.941
 339  794.2036
 340  890.4009
 341  437.6857
 342  324.9927
 343  495.9309
 344  387.2388
 345  296.711
 346  451.428
 347  233.9442
 348  22.74416
 349  214.0426
 350  -116.7929
 351  -87.47392
 352  199.1778
 353  69.67001
 354  -522.0955
 355  -401.6123
 356  -638.9656
 357  -185.8804
 358  -73.96291
 359  -104.8394
 360  -62.93353
 361  -621.5131
 362  -653.5837
 363  -307.7148
 364  -236.4739
 365  -373.2744
 366  -750.5115
 367  -279.2202
 368  0.5204931
 369  -179.9363
 370  -277.1704
 371  -106.5925
 372  -149.4295
 373  27.36322
 374  -50.49202
 375  -230.8511
 376  -30.09182
 377  -310.9526
 378  -205.4587
 379  -138.1058
 380  -332.7894
 381  -187.6723
 382  -40.62872
 383  -518.1953
 384  -555.9906
 385  -555.4599
 386  -569.4191
 387  -390.5768
 388  -381.4952
 389  -627.6545
 390  -477.4359
 391  -445.3398
 392  -211.0705
 393  70.14877
 394  274.4674
 395  -64.65626
 396  -619.1427
 397  -322.0807
 398  -209.1095
 399  357
 400  604.7768
 401  593.0328
 402  257.8055
 403  -94.38727
 404  182.8878
 405  -82.2281
 406  31.63808
 407  692.231
 408  753.2597
 409  1075.037
 410  1143.231
 411  1094.968
 412  767.9014
 413  344.29
 414  701.3173
 415  724.0569
 416  662.0735
 417  827.8804
 418  641.559
 419  320.7131
 420  -17.01125
 421  102.4368
 422  176.3099
 423  47.26049
 424  116.0899
 425  62.99756
 426  113.4497
 427  112.143
 428  -140.8507
 429  140.6031
 430  -99.43528
 431  -491.6928
 432  -695.4257
 433  -318.9988
 434  445.2402
 435  243.769
 436  -95.97623
 437  -333.9872
 438  -256.7285
 439  -153.2697
 440  -382.4737
 441  -226.0225
 442  -134.113
 443  180.4617
 444  -189.4522
 445  -115.4662
 446  -551.1666
 447  -442.4489
 448  -604.6302
 449  -392.8714
 450  -189.7064
 451  132.1391
 452  96.85628
 453  -238.5554
 454  -541.3151
 455  -581.7198
 456  -573.3614
 457  -964.1488
 458  -641.1174
 459  -134.1946
 460  -350.6908
 461  -298.7616
 462  -289.6609
 463  -56.49709
 464  -228.3393
 465  -324.5212
 466  -133.2119
 467  58.84739
 468  159.5885
 469  21.27093
 470  -193.4296
 471  -191.6643
 472  4.848677
 473  329.7949
 474  365.4016
 475  350.449
 476  509.5901
 477  713.0799
 478  105.7693
 479  -12.17595
 480  194.6582
 481  277.6887
 482  300.8094
 483  267.6112
 484  -18.23243
 485  73.81179
 486  453.2501
 487  938.7159
 488  1143.161
 489  944.0393
 490  414.9181
 491  -358.4881
 492  70.13802
 493  196.5558
 494  886.9008
 495  1188.119
 496  842.9568
 497  408.9039
 498  -136.9778
 499  -125.3942
 500  49.75861
 501  216.848
 502  282.8672
 503  239.9105
 504  219.1827
 505  57.27007
 506  164.1203
 507  -262.9786
 508  373.5768
 509  411.3276
 510  835.6848
 511  264.2075
