# Input file       =  1210149676.126379_cleaned.dat
# Candidate        =  PSR_0332+5434
# Telescope        =  AR
# Epoch_topo       =  58250.362212110871
# Epoch_bary       =  N/A
# T_sample         =  0.002
# Data Folded      =  7340032
# Data Avg         =  -0.0381256282499835
# Data StdDev      =  1.00021139522965 
# Profile Bins     =  512
# Profile Avg      =  -546.454336374453
# Profile StdDev   =  119.758347369487 
# Reduced chi-sqr  =  1.219
# Prob(Noise)      <  0.000501   (~3.3 sigma)
# P_topo (ms)      =  714.536146233142  +/- 0.000435
# P'_topo (s/s)    =  -0                +/- 2.29e-10
# P''_topo (s/s^2) =  0                 +/- 1.01e-13
# P_bary (ms)      =  N/A
# P'_bary (s/s)    =  N/A
# P''_bary (s/s^2) =  N/A
# P_orb (s)        =  N/A
# asin(i)/c (s)    =  N/A
# eccentricity     =  N/A
# w (rad)          =  N/A
# T_peri           =  N/A
######################################################
   0  86.34889
   1  3.992931
   2  -281.8499
   3  -496.0685
   4  -566.6083
   5  -595.1391
   6  -619.6793
   7  -622.6492
   8  -604.0175
   9  -621.5807
  10  -577.2949
  11  -539.6894
  12  -599.1555
  13  -526.6969
  14  -499.6703
  15  -629.4846
  16  -664.6432
  17  -688.7503
  18  -599.619
  19  -633.202
  20  -602.347
  21  -613.2104
  22  -533.5922
  23  -547.7009
  24  -595.8268
  25  -638.8112
  26  -653.9112
  27  -679.517
  28  -620.2317
  29  -590.9062
  30  -551.2833
  31  -601.4421
  32  -633.6641
  33  -598.4774
  34  -542.4736
  35  -590.1113
  36  -619.3033
  37  -635.6222
  38  -635.8764
  39  -700.5222
  40  -723.4851
  41  -695.1465
  42  -599.0792
  43  -578.9548
  44  -645.2772
  45  -676.7471
  46  -661.194
  47  -611.6824
  48  -572.4112
  49  -548.0603
  50  -570.303
  51  -627.6494
  52  -709.8652
  53  -733.8359
  54  -636.2629
  55  -656.3825
  56  -615.295
  57  -616.8195
  58  -676.3271
  59  -648.6044
  60  -645.5727
  61  -592.7941
  62  -704.2953
  63  -670.4058
  64  -679.7432
  65  -674.3569
  66  -707.6414
  67  -727.741
  68  -641.947
  69  -676.2202
  70  -760.9274
  71  -735.1106
  72  -712.6532
  73  -685.3256
  74  -670.7559
  75  -641.4702
  76  -658.1447
  77  -713.7796
  78  -652.4824
  79  -603.8559
  80  -622.5281
  81  -651.0297
  82  -560.8386
  83  -614.0892
  84  -686.7439
  85  -683.4053
  86  -668.6122
  87  -641.6607
  88  -696.2961
  89  -604.7553
  90  -498.653
  91  -617.9723
  92  -626.2744
  93  -590.2973
  94  -600.9161
  95  -694.9638
  96  -651.4149
  97  -638.4455
  98  -672.3476
  99  -650.8742
 100  -633.7537
 101  -640.2436
 102  -594.2243
 103  -627.0824
 104  -594.8008
 105  -631.7095
 106  -605.5618
 107  -629.2741
 108  -652.3188
 109  -668.5898
 110  -647.381
 111  -692.0365
 112  -697.5503
 113  -675.4144
 114  -665.006
 115  -620.3505
 116  -694.8062
 117  -666.9785
 118  -624.2313
 119  -552.1158
 120  -601.0139
 121  -588.7213
 122  -550.5276
 123  -485.3189
 124  -536.5481
 125  -552.1478
 126  -504.3467
 127  -564.5647
 128  -589.89
 129  -594.44
 130  -619.658
 131  -607.8055
 132  -648.6597
 133  -656.6279
 134  -593.5278
 135  -575.9214
 136  -538.4116
 137  -559.0998
 138  -509.8606
 139  -565.2399
 140  -574.337
 141  -529.915
 142  -552.372
 143  -536.5577
 144  -530.6542
 145  -583.2104
 146  -554.7723
 147  -546.6529
 148  -571.2783
 149  -576.2766
 150  -525.5673
 151  -534.2888
 152  -483.3718
 153  -509.0245
 154  -517.8652
 155  -527.763
 156  -480.5586
 157  -552.9418
 158  -496.524
 159  -508.0038
 160  -503.4538
 161  -575.3569
 162  -530.1031
 163  -500.6212
 164  -455.3788
 165  -463.6159
 166  -503.8318
 167  -569.5851
 168  -538.7545
 169  -454.8716
 170  -461.2505
 171  -535.3021
 172  -564.6704
 173  -497.5976
 174  -443.7446
 175  -479.6838
 176  -452.2274
 177  -471.8846
 178  -533.9892
 179  -472.8732
 180  -435.5001
 181  -399.9568
 182  -432.3355
 183  -458.6714
 184  -465.6812
 185  -454.7318
 186  -479.425
 187  -465.3181
 188  -419.5779
 189  -506.3433
 190  -508.1496
 191  -519.1901
 192  -448.012
 193  -390.3853
 194  -402.0686
 195  -335.6379
 196  -369.7192
 197  -385.9504
 198  -431.3376
 199  -339.8795
 200  -339.2705
 201  -499.312
 202  -540.329
 203  -503.31
 204  -458.9138
 205  -445.9392
 206  -400.6989
 207  -513.3172
 208  -557.4342
 209  -549.0965
 210  -545.7271
 211  -524.9866
 212  -437.7143
 213  -435.1427
 214  -484.6921
 215  -468.5264
 216  -427.8344
 217  -482.8997
 218  -476.1496
 219  -519.8221
 220  -454.9468
 221  -407.9344
 222  -518.4517
 223  -580.3775
 224  -520.8666
 225  -494.0347
 226  -501.978
 227  -490.5494
 228  -525.0942
 229  -545.1096
 230  -494.8718
 231  -425.7528
 232  -427.6098
 233  -500.8651
 234  -449.4552
 235  -541.1954
 236  -515.6545
 237  -551.328
 238  -591.0599
 239  -616.7231
 240  -577.0931
 241  -545.4354
 242  -571.4532
 243  -607.6255
 244  -556.4494
 245  -616.9084
 246  -661.8312
 247  -589.2049
 248  -574.2562
 249  -507.8406
 250  -534.7747
 251  -566.997
 252  -505.9695
 253  -474.8295
 254  -482.825
 255  -490.3899
 256  -600.4052
 257  -628.6969
 258  -608.4741
 259  -690.5685
 260  -622.112
 261  -608.8823
 262  -657.1648
 263  -624.9238
 264  -620.7411
 265  -670.8818
 266  -677.5784
 267  -613.2068
 268  -680.0483
 269  -691.8499
 270  -594.3492
 271  -576.884
 272  -625.8309
 273  -604.3164
 274  -550.3459
 275  -516.024
 276  -523.8772
 277  -567.2944
 278  -541.9476
 279  -590.6384
 280  -635.2653
 281  -560.9853
 282  -497.2065
 283  -434.2915
 284  -541.356
 285  -581.1371
 286  -594.7044
 287  -604.9678
 288  -557.3895
 289  -558.8444
 290  -559.4152
 291  -546.5363
 292  -528.4195
 293  -599.2679
 294  -648.7236
 295  -642.1768
 296  -565.7637
 297  -590.0547
 298  -614.3585
 299  -622.743
 300  -531.2887
 301  -467.0113
 302  -498.5892
 303  -587.4119
 304  -549.0663
 305  -496.6937
 306  -423.7271
 307  -421.156
 308  -434.3219
 309  -509.3491
 310  -558.1214
 311  -527.4079
 312  -527.2283
 313  -534.4
 314  -456.8132
 315  -492.5174
 316  -477.0848
 317  -465.004
 318  -457.3463
 319  -491.106
 320  -449.4182
 321  -501.7068
 322  -605.446
 323  -545.2482
 324  -402.5775
 325  -377.7907
 326  -450.2766
 327  -502.216
 328  -451.5848
 329  -478.8038
 330  -444.6828
 331  -352.0198
 332  -436.2028
 333  -572.313
 334  -498.1046
 335  -470.5107
 336  -455.9977
 337  -480.3712
 338  -473.3731
 339  -481.1836
 340  -515.2333
 341  -458.4614
 342  -453.8792
 343  -507.0573
 344  -514.9289
 345  -460.5475
 346  -506.9733
 347  -606.0547
 348  -461.55
 349  -453.3392
 350  -501.3983
 351  -491.9919
 352  -466.0717
 353  -492.9214
 354  -444.7545
 355  -453.5005
 356  -511.4517
 357  -493.5244
 358  -500.0996
 359  -541.3927
 360  -538.3482
 361  -445.4823
 362  -470.0445
 363  -473.7597
 364  -475.1262
 365  -446.7424
 366  -400.6454
 367  -448.8693
 368  -446.6964
 369  -422.6934
 370  -484.6948
 371  -540.6354
 372  -454.3916
 373  -400.9406
 374  -423.7391
 375  -509.0512
 376  -494.1372
 377  -478.3388
 378  -396.7156
 379  -468.2007
 380  -500.7649
 381  -526.2285
 382  -585.5966
 383  -536.2343
 384  -508.0812
 385  -465.1828
 386  -440.6587
 387  -500.3687
 388  -521.1819
 389  -497.5789
 390  -503.7357
 391  -492.9096
 392  -535.2995
 393  -419.4024
 394  -433.2366
 395  -504.5551
 396  -442.9293
 397  -511.8856
 398  -475.1925
 399  -486.7382
 400  -470.2977
 401  -483.4548
 402  -460.5128
 403  -490.6088
 404  -470.0055
 405  -514.4651
 406  -505.5204
 407  -473.4482
 408  -525.0507
 409  -644.4955
 410  -604.3547
 411  -523.6872
 412  -498.557
 413  -557.1702
 414  -598.4636
 415  -534.8965
 416  -512.4764
 417  -509.7223
 418  -602.3751
 419  -623.5861
 420  -548.2274
 421  -609.6576
 422  -640.5027
 423  -544.6541
 424  -445.7863
 425  -470.4306
 426  -541.8173
 427  -528.5015
 428  -500.1685
 429  -630.2913
 430  -653.5123
 431  -611.1011
 432  -584.2505
 433  -662.0128
 434  -684.3903
 435  -634.1545
 436  -561.3254
 437  -580.8078
 438  -604.7073
 439  -587.8472
 440  -487.4963
 441  -482.5387
 442  -567.806
 443  -633.1846
 444  -677.1608
 445  -672.6489
 446  -621.1626
 447  -628.1371
 448  -613.9344
 449  -548.986
 450  -492.031
 451  -555.2451
 452  -538.6418
 453  -524.7503
 454  -603.2902
 455  -555.8499
 456  -557.6034
 457  -566.1246
 458  -532.5839
 459  -447.8935
 460  -418.0006
 461  -456.5812
 462  -429.5835
 463  -520.976
 464  -576.9589
 465  -544.2454
 466  -544.5497
 467  -564.0848
 468  -528.3431
 469  -507.6641
 470  -469.0338
 471  -555.1183
 472  -601.9465
 473  -558.7109
 474  -597.6807
 475  -576.85
 476  -522.8017
 477  -584.1119
 478  -572.1704
 479  -580.6343
 480  -639.251
 481  -677.084
 482  -692.5702
 483  -635.9432
 484  -710.4337
 485  -688.4251
 486  -574.0182
 487  -565.0449
 488  -574.0058
 489  -569.6595
 490  -573.8669
 491  -587.6794
 492  -539.5721
 493  -570.4553
 494  -519.1221
 495  -548.4393
 496  -589.8146
 497  -629.2651
 498  -684.4071
 499  -663.7767
 500  -645.5125
 501  -572.5421
 502  -602.7448
 503  -615.1638
 504  -588.2545
 505  -553.5845
 506  -481.5299
 507  -468.3046
 508  -320.0837
 509  -207.8969
 510  -92.39931
 511  13.14028
