# Input file       =  1210063501.123266_cleaned.dat
# Candidate        =  PSR_0332+5434
# Telescope        =  AR
# Epoch_topo       =  58249.364816241505
# Epoch_bary       =  N/A
# T_sample         =  0.002
# Data Folded      =  7340032
# Data Avg         =  0.274844938577319
# Data StdDev      =  4.0339360244247  
# Profile Bins     =  512
# Profile Avg      =  3939.03628287436 
# Profile StdDev   =  482.99540875399  
# Reduced chi-sqr  =  1.722
# Prob(Noise)      <  5.45e-22   (~9.6 sigma)
# P_topo (ms)      =  714.53710493083   +/- 0.00065
# P'_topo (s/s)    =  -0                +/- 3.43e-10
# P''_topo (s/s^2) =  0                 +/- 1.51e-13
# P_bary (ms)      =  N/A
# P'_bary (s/s)    =  N/A
# P''_bary (s/s^2) =  N/A
# P_orb (s)        =  N/A
# asin(i)/c (s)    =  N/A
# eccentricity     =  N/A
# w (rad)          =  N/A
# T_peri           =  N/A
######################################################
   0  3870.685
   1  3558.471
   2  3303.309
   3  3434.585
   4  3482.225
   5  3593.187
   6  3289.827
   7  3308.628
   8  3634.684
   9  3533.152
  10  3457.059
  11  3510.093
  12  3612.679
  13  3363.594
  14  3597.778
  15  3486.328
  16  3616.194
  17  3509.538
  18  3713.922
  19  3643.904
  20  3697.551
  21  4331.175
  22  4120.186
  23  3949.427
  24  3935.386
  25  3755.861
  26  4060.579
  27  3887.034
  28  4228.867
  29  4048.882
  30  3713.529
  31  4163.84
  32  3826.281
  33  3818.115
  34  3579.699
  35  3597.111
  36  3878.387
  37  3761.376
  38  3965.609
  39  3419.245
  40  3408.921
  41  3631.626
  42  3614.96
  43  3411.442
  44  3395.562
  45  3617.794
  46  3475.705
  47  3756.885
  48  3928.293
  49  3715.333
  50  3761.889
  51  3815.372
  52  3570.383
  53  3713.228
  54  3900.117
  55  4072.466
  56  4094.372
  57  4030.996
  58  3930.627
  59  3662.928
  60  3719.933
  61  4100.946
  62  4018.214
  63  4013.144
  64  3995.942
  65  4208.074
  66  4138.213
  67  3952.902
  68  4120.645
  69  4003.447
  70  4114.539
  71  4091.848
  72  4000.273
  73  3921.864
  74  3903.085
  75  3826.456
  76  3776.04
  77  3910.508
  78  3891.944
  79  3818.832
  80  4069.5
  81  3656.387
  82  3802.983
  83  3794.665
  84  3842.448
  85  3684.976
  86  3812.169
  87  3731.155
  88  3332.952
  89  3505.109
  90  3441.183
  91  3356.445
  92  3817.393
  93  3579.088
  94  3472.252
  95  4069.567
  96  4183.914
  97  4060.203
  98  4045.253
  99  4249.222
 100  4233.841
 101  4275.377
 102  4312.604
 103  4314.791
 104  4138.792
 105  4035.818
 106  3990.105
 107  4243.423
 108  4351.469
 109  4248.932
 110  4451.415
 111  4263.618
 112  4299.231
 113  4153.767
 114  3763.158
 115  4145.189
 116  3812.477
 117  3675.007
 118  3541.409
 119  4040.202
 120  3852.753
 121  4008.269
 122  4101.286
 123  3960.988
 124  3702.747
 125  3734.441
 126  3679.307
 127  3744.24
 128  3897.876
 129  3948.074
 130  4162.093
 131  4247.425
 132  3991.009
 133  4006.565
 134  3577.52
 135  3375.102
 136  3443.608
 137  3621.453
 138  3774.883
 139  3757.077
 140  3774.757
 141  3796.05
 142  3712.896
 143  3658.13
 144  3939.928
 145  3721.224
 146  3605.46
 147  3754.745
 148  3919.431
 149  4320.54
 150  4093.679
 151  4170.732
 152  4479.938
 153  4612.735
 154  4273.293
 155  4267.85
 156  4174.454
 157  4100.806
 158  4253.137
 159  4382.366
 160  4136.829
 161  4102.708
 162  4544.331
 163  4579.898
 164  4179.501
 165  4025.916
 166  3792.106
 167  3958.071
 168  4215.826
 169  4099.58
 170  4083.362
 171  4227.119
 172  4328.484
 173  4016.479
 174  3527.069
 175  3936.247
 176  4141.667
 177  4146.665
 178  4261.125
 179  4153.287
 180  4264.399
 181  4634.314
 182  4498.544
 183  4434.238
 184  4363.253
 185  4199.297
 186  4349.421
 187  4175.593
 188  4290.842
 189  4481.6
 190  4331.021
 191  4428.808
 192  4312.049
 193  4335.148
 194  4330.956
 195  4299.955
 196  4440.4
 197  4613.469
 198  4328.12
 199  4471.962
 200  4263.134
 201  4557.506
 202  4663.425
 203  4610.901
 204  4468.145
 205  4366.692
 206  4228.323
 207  4527.452
 208  4292.665
 209  4217.116
 210  4270.958
 211  4204.71
 212  4172.355
 213  3993.517
 214  4213.774
 215  3926.882
 216  3925.309
 217  3885.116
 218  4258.116
 219  4360.576
 220  4187.701
 221  4305.721
 222  4250.314
 223  4217.07
 224  3993.26
 225  4043.226
 226  4267.32
 227  4290.911
 228  4195.251
 229  4633.967
 230  4572.382
 231  4425.827
 232  4524.465
 233  4476.116
 234  4664.474
 235  4191.583
 236  4253.383
 237  4428.145
 238  4580.961
 239  4605.276
 240  4702.814
 241  4648.447
 242  4486.783
 243  4754.928
 244  4749.649
 245  4711.354
 246  4662.261
 247  4680.697
 248  4681.066
 249  4715.485
 250  4461.078
 251  4490.006
 252  4521.401
 253  4274.744
 254  3931.664
 255  4091.206
 256  4069.987
 257  4147.609
 258  4106.354
 259  3845.331
 260  3952.693
 261  3819.171
 262  3990.288
 263  4103.89
 264  3837.867
 265  3809.292
 266  3790.712
 267  3545.238
 268  3771.974
 269  3894.054
 270  3739.93
 271  3650.737
 272  3485.245
 273  4029.643
 274  4288.672
 275  3921.348
 276  4050.626
 277  3950.691
 278  4223.964
 279  4234.05
 280  4464.896
 281  4406.741
 282  4228.354
 283  4361.49
 284  4437.62
 285  4354.404
 286  4214.995
 287  4201.836
 288  4383.456
 289  4183.106
 290  4305.827
 291  4249.091
 292  4271.185
 293  4293.152
 294  4472.701
 295  4680.64
 296  4682.871
 297  5002.912
 298  5891.591
 299  6621.647
 300  6724.393
 301  6335.778
 302  5966.805
 303  5082.233
 304  4418.881
 305  4138.771
 306  3965.579
 307  4167.577
 308  4289.213
 309  3755.776
 310  4009.532
 311  3904.004
 312  3974.836
 313  4507.381
 314  4481.065
 315  4518.572
 316  4222.288
 317  4142.831
 318  3935.158
 319  3911.027
 320  4423.613
 321  4451.679
 322  4238.341
 323  4133.942
 324  4338.929
 325  4239.308
 326  4152.306
 327  4136.386
 328  4109.804
 329  4451.608
 330  4297.007
 331  4263.986
 332  3760.649
 333  3790.83
 334  4002.974
 335  4022.472
 336  3916.438
 337  4106.283
 338  4071.049
 339  4239.423
 340  4225.016
 341  4206.122
 342  4062.891
 343  4047.255
 344  4090.399
 345  4159.521
 346  4349.893
 347  4336.33
 348  4090.867
 349  4216.588
 350  4329.469
 351  3822.189
 352  3820.7
 353  4112.782
 354  4142.367
 355  4024.732
 356  3688.564
 357  3508.783
 358  3685.077
 359  4030.634
 360  3583.216
 361  3639.978
 362  4075.146
 363  3947.066
 364  3961.311
 365  4010.929
 366  4150.456
 367  3948.956
 368  4003.601
 369  3888.601
 370  4225.664
 371  3966.973
 372  3921.648
 373  3892.835
 374  4166.016
 375  4381.112
 376  4048.053
 377  3956.909
 378  3774.448
 379  3946.913
 380  3961.699
 381  3662.067
 382  3443.745
 383  3891.068
 384  4055.991
 385  3939.674
 386  3766.442
 387  3676.455
 388  3489.376
 389  3183.744
 390  3658.492
 391  3806.094
 392  3762.675
 393  3607.066
 394  3732.311
 395  3779.92
 396  3781.301
 397  3885.897
 398  3586.543
 399  3848.442
 400  3842.871
 401  3474.759
 402  3121.863
 403  3628.943
 404  3703.153
 405  3679.647
 406  3745.694
 407  3636.508
 408  3595.499
 409  3615.461
 410  3499.536
 411  3666.054
 412  3203.239
 413  3156.165
 414  3111.805
 415  3143.847
 416  3283.544
 417  3097.127
 418  3176.668
 419  3356.075
 420  3705.351
 421  3580.94
 422  3800.566
 423  3304.587
 424  3479.736
 425  3591.515
 426  3385.455
 427  3404.249
 428  3891.685
 429  3620.148
 430  3353.711
 431  3164.027
 432  3438.899
 433  3693.645
 434  3492.525
 435  3045.377
 436  3676.836
 437  4024.612
 438  4032.963
 439  3671.173
 440  3947.423
 441  3783.29
 442  3480.228
 443  3013.437
 444  2929.542
 445  2854.014
 446  3376.518
 447  3692.534
 448  3490.767
 449  3607.922
 450  3568.647
 451  3750.393
 452  3888.603
 453  3860.064
 454  3398.025
 455  3360.169
 456  3594.94
 457  3797.38
 458  3887.705
 459  3938.717
 460  3809.995
 461  3512.946
 462  3256.708
 463  3337.288
 464  3647.165
 465  3583.57
 466  3865.444
 467  3345.227
 468  3407.389
 469  3415.635
 470  3407.701
 471  3206.458
 472  3247.333
 473  3201.664
 474  3139.109
 475  3152.975
 476  3109.279
 477  3257.458
 478  3397.952
 479  3184.93
 480  3233.126
 481  2979.018
 482  3026.39
 483  3277.335
 484  3177.731
 485  2857.601
 486  3005.523
 487  2974.503
 488  3083.194
 489  3397.814
 490  3450.599
 491  3413.924
 492  3422.065
 493  3354.246
 494  3513.5
 495  3574.58
 496  3601.195
 497  3777.867
 498  3922.37
 499  3780.961
 500  3659.48
 501  3833.721
 502  3981.581
 503  3748.728
 504  3808.683
 505  3880.332
 506  3564.346
 507  3333.11
 508  3427.073
 509  3453.113
 510  3483.828
 511  3653.072
