# Input file       =  1210839012.112088_cleaned.dat
# Candidate        =  PSR_0332+5434
# Telescope        =  AR
# Epoch_topo       =  58258.340637871392
# Epoch_bary       =  N/A
# T_sample         =  0.002
# Data Folded      =  7340032
# Data Avg         =  0.255232830735622
# Data StdDev      =  4.35868899128191 
# Profile Bins     =  512
# Profile Avg      =  3659.12950530433 
# Profile StdDev   =  521.879067548167 
# Reduced chi-sqr  =  1.316
# Prob(Noise)      <  1.91e-06   (~4.6 sigma)
# P_topo (ms)      =  714.528359040996  +/- 0.000302
# P'_topo (s/s)    =  -0                +/- 1.59e-10
# P''_topo (s/s^2) =  0                 +/- 7.03e-14
# P_bary (ms)      =  N/A
# P'_bary (s/s)    =  N/A
# P''_bary (s/s^2) =  N/A
# P_orb (s)        =  N/A
# asin(i)/c (s)    =  N/A
# eccentricity     =  N/A
# w (rad)          =  N/A
# T_peri           =  N/A
######################################################
   0  3424.7
   1  3013.831
   2  3080.681
   3  3642.942
   4  4013.906
   5  3707.843
   6  3511.705
   7  3606.119
   8  3700.977
   9  3652.151
  10  3492.338
  11  3720.565
  12  3748.569
  13  3692.468
  14  3706.151
  15  3671.531
  16  3538.713
  17  3533.304
  18  3577.771
  19  3677.816
  20  4045.235
  21  4080.281
  22  3941.435
  23  3743.082
  24  3588.266
  25  3688.439
  26  3314.846
  27  3220.125
  28  3760.97
  29  3898.564
  30  3557.899
  31  3708.675
  32  3792.522
  33  3792.347
  34  3579.444
  35  3521.574
  36  3727.327
  37  3783.872
  38  3734.637
  39  3732.778
  40  3528.053
  41  3620.062
  42  3837.918
  43  3899.054
  44  3925.244
  45  3715.085
  46  4145.79
  47  3996.331
  48  3497.144
  49  3609.87
  50  3826.459
  51  3839.704
  52  3904.953
  53  3630.533
  54  3329.295
  55  3663.817
  56  3596.107
  57  3578.757
  58  3592.251
  59  3539.168
  60  3508.275
  61  3599.052
  62  3598.977
  63  3733.398
  64  4023.883
  65  4071.416
  66  3871.795
  67  3765.99
  68  3956.47
  69  3995.567
  70  4083.943
  71  4337.013
  72  4196.714
  73  3984.093
  74  3619.276
  75  3641.623
  76  3354.571
  77  3526.891
  78  3878.802
  79  3948.952
  80  3797.615
  81  3378.566
  82  3765.781
  83  3838.441
  84  3588.673
  85  3603.724
  86  3489.762
  87  3420.32
  88  3716.059
  89  3597.866
  90  3206.13
  91  3503.105
  92  3270.751
  93  3182.556
  94  3447.337
  95  3782.378
  96  3552.193
  97  3587.172
  98  3502.028
  99  3551.83
 100  3620.158
 101  3789.596
 102  3788.801
 103  4136.825
 104  4076.658
 105  3786.192
 106  3821.171
 107  3720.338
 108  4014.649
 109  4314.539
 110  4374.599
 111  4048.89
 112  4102.046
 113  4012.199
 114  3895.109
 115  4126.324
 116  3976.718
 117  3929.304
 118  3723.825
 119  3600.071
 120  3501.505
 121  3673.099
 122  3494.24
 123  3482.258
 124  3426.183
 125  3617.049
 126  3870.709
 127  3539.924
 128  3507.069
 129  3645.95
 130  3727.647
 131  3709.897
 132  3471.92
 133  3589.65
 134  3519.625
 135  3514.139
 136  3558.313
 137  3615.125
 138  3403.101
 139  3306.06
 140  3200.932
 141  3424.142
 142  3447.858
 143  3767.313
 144  3960.215
 145  3819.539
 146  4010.794
 147  4129.352
 148  3891.01
 149  4003.602
 150  4224.691
 151  4333.936
 152  4137.114
 153  3848.677
 154  3475.767
 155  3536.622
 156  3536.754
 157  3790.284
 158  3704.853
 159  3432.756
 160  3558
 161  3740.201
 162  3682.713
 163  3731.745
 164  3474.662
 165  3607.787
 166  3561.827
 167  3426.151
 168  2975.558
 169  3410.553
 170  3633.648
 171  3192.922
 172  2963.979
 173  3026.316
 174  3190.257
 175  3566.473
 176  3459.819
 177  3321.302
 178  3288.643
 179  3723.793
 180  3797.749
 181  3686.324
 182  3960.2
 183  3745.031
 184  3733.447
 185  3570.036
 186  3405.385
 187  3635.335
 188  3556.142
 189  3709.912
 190  3907.319
 191  3425.483
 192  3349.259
 193  3522.08
 194  3548.604
 195  3343.261
 196  3330.701
 197  3529.333
 198  3300.651
 199  3546.572
 200  3598.055
 201  3312.139
 202  2969.998
 203  2702.646
 204  2972.896
 205  2813.257
 206  2764.472
 207  2811.41
 208  2704.905
 209  2560.325
 210  2734.337
 211  2812.417
 212  2826.172
 213  2687.814
 214  2716.362
 215  2923.232
 216  3053.511
 217  2937.41
 218  3340.133
 219  3385.884
 220  3277.332
 221  3400.161
 222  3429.652
 223  3927.25
 224  3521.039
 225  3627.658
 226  3623.78
 227  3668.785
 228  3828.808
 229  3461.6
 230  3618.652
 231  3704.64
 232  3639.097
 233  3492.482
 234  3405.686
 235  3571.37
 236  3866.25
 237  3659.748
 238  3483.705
 239  3563.035
 240  3684.846
 241  3313.423
 242  3412.762
 243  3414.753
 244  3589.604
 245  3710.661
 246  3594.98
 247  3088.07
 248  3314.949
 249  3472.343
 250  3104.285
 251  2835.081
 252  3000.954
 253  3213.085
 254  2900.603
 255  2795.456
 256  3041.182
 257  2921.858
 258  2808.085
 259  3031.905
 260  2593.488
 261  3130.131
 262  3306.368
 263  3214.862
 264  3092.539
 265  3522.013
 266  3439.028
 267  3115.292
 268  3324.023
 269  3380.613
 270  3266.797
 271  3344.347
 272  3588.149
 273  3626.453
 274  3662.574
 275  3821.046
 276  3676.933
 277  3856.551
 278  3947.161
 279  4123.965
 280  4237.412
 281  4009.999
 282  3810.879
 283  3665.373
 284  3927.301
 285  3770.398
 286  3623.837
 287  3959.568
 288  3433.769
 289  3178.316
 290  3329.181
 291  3595.99
 292  3634.451
 293  3654.504
 294  3368.516
 295  3447.229
 296  4299.615
 297  4869.041
 298  5207.878
 299  5816.6
 300  5857.486
 301  5385.309
 302  4943.086
 303  4364.933
 304  3640.021
 305  3463.585
 306  3532.418
 307  3258.964
 308  3537.398
 309  3838.609
 310  3704.452
 311  3820.342
 312  4160.413
 313  4567.802
 314  4632.892
 315  4478.063
 316  4120.754
 317  4190.925
 318  4096.928
 319  4394.433
 320  4525.214
 321  4287.201
 322  4150.49
 323  4248.985
 324  4274.409
 325  4213.487
 326  4203.388
 327  4537.381
 328  4477.482
 329  4207.661
 330  3872.52
 331  3970.697
 332  3782.06
 333  3631.451
 334  3375.28
 335  3420.135
 336  3439.232
 337  3379.105
 338  3561.367
 339  3627.861
 340  3705.22
 341  3559.776
 342  3526.112
 343  3832.447
 344  3717.992
 345  3860.746
 346  3763.017
 347  3599.916
 348  3753.853
 349  3832.173
 350  3879.109
 351  3864.798
 352  4005.89
 353  3619.138
 354  3256.655
 355  3903.739
 356  3810.542
 357  3768.436
 358  4011.322
 359  4125.197
 360  4110.371
 361  4274.245
 362  4220.763
 363  4315.322
 364  4067.493
 365  4043.161
 366  4268.255
 367  4219.566
 368  4002.237
 369  3951.316
 370  3557.447
 371  3456.698
 372  3170.037
 373  3243.181
 374  3652.575
 375  3729.654
 376  3745.144
 377  3285.626
 378  3196.362
 379  3398.931
 380  3323.444
 381  3418.825
 382  3549.354
 383  3528.728
 384  3741.565
 385  3648.207
 386  3414.682
 387  3672.827
 388  3867.498
 389  3642.261
 390  3527.905
 391  3517.507
 392  4105.666
 393  3959.619
 394  3790.293
 395  3664.622
 396  4055.854
 397  4299.409
 398  4533.194
 399  4226.839
 400  3933.529
 401  4238.537
 402  4231.679
 403  4153.692
 404  4402.443
 405  4091.322
 406  4252.615
 407  4432.629
 408  3945.36
 409  3844.072
 410  4257.774
 411  4222.122
 412  3710.95
 413  3987.71
 414  4392.006
 415  3915.522
 416  3275.706
 417  3502.651
 418  3487.031
 419  3823.155
 420  4141.522
 421  4145.476
 422  3987.882
 423  3764.327
 424  3807.604
 425  3808.384
 426  3632.475
 427  3804.272
 428  3763.556
 429  3530.937
 430  3435.991
 431  3548.558
 432  3250.62
 433  3572.381
 434  3775.528
 435  3217.363
 436  3190.792
 437  3073.526
 438  3328.627
 439  3701.743
 440  3835.033
 441  3737.697
 442  3521.434
 443  2981.549
 444  3327.441
 445  3609.583
 446  3670.491
 447  3196.022
 448  3199.407
 449  3697.923
 450  3866.771
 451  3678.062
 452  3569.955
 453  3394.031
 454  3495.051
 455  3507.395
 456  3257.065
 457  3220.555
 458  3215.894
 459  2729.762
 460  2964.055
 461  2963.926
 462  2910.918
 463  3145.95
 464  3021.424
 465  2732.857
 466  2745.862
 467  2517.223
 468  2886.933
 469  3017.276
 470  2984.519
 471  2781.885
 472  2876.785
 473  2942.769
 474  3346.383
 475  3545.527
 476  3491.361
 477  3238.271
 478  3145.713
 479  3330.88
 480  3309.455
 481  3858.704
 482  3801.804
 483  3768.017
 484  3520.831
 485  3602.014
 486  3748.257
 487  3477.687
 488  4228.741
 489  4445.977
 490  4377.269
 491  4512.33
 492  4618.02
 493  4528.238
 494  4081.157
 495  4373.262
 496  4564.694
 497  4371.062
 498  4412.68
 499  4480.818
 500  4151.679
 501  3690.592
 502  3548.163
 503  3613.135
 504  3312.55
 505  3629.756
 506  3549.865
 507  3718.817
 508  3536.464
 509  3497.529
 510  3499.028
 511  3748.011
