# Input file       =  1210078414.113711_cleaned.dat
# Candidate        =  PSR_0332+5434
# Telescope        =  AR
# Epoch_topo       =  58249.537420297580
# Epoch_bary       =  N/A
# T_sample         =  0.002
# Data Folded      =  7340032
# Data Avg         =  0.0305143936674221
# Data StdDev      =  1.00010295514516 
# Profile Bins     =  512
# Profile Avg      =  437.326149971824 
# Profile StdDev   =  119.745363508907 
# Reduced chi-sqr  =  1.837
# Prob(Noise)      <  1.25e-27   (~10.8 sigma)
# P_topo (ms)      =  714.537273133743  +/- 0.000301
# P'_topo (s/s)    =  -0                +/- 1.59e-10
# P''_topo (s/s^2) =  0                 +/- 7e-14
# P_bary (ms)      =  N/A
# P'_bary (s/s)    =  N/A
# P''_bary (s/s^2) =  N/A
# P_orb (s)        =  N/A
# asin(i)/c (s)    =  N/A
# eccentricity     =  N/A
# w (rad)          =  N/A
# T_peri           =  N/A
######################################################
   0  1384.864
   1  1164.538
   2  878.4673
   3  774.0193
   4  655.3782
   5  444.4845
   6  507.9281
   7  597.5229
   8  621.9547
   9  614.6
  10  543.2123
  11  484.1888
  12  538.1462
  13  616.9915
  14  559.1163
  15  610.7172
  16  639.1437
  17  540.0919
  18  572.0698
  19  633.585
  20  550.491
  21  520.6725
  22  525.5764
  23  556.0204
  24  562.6125
  25  534.5388
  26  380.3083
  27  406.8588
  28  468.103
  29  596.259
  30  508.5246
  31  521.493
  32  504.1569
  33  514.5431
  34  492.0244
  35  547.85
  36  621.0396
  37  533.0598
  38  562.3494
  39  470.6402
  40  510.0276
  41  533.3798
  42  560.0503
  43  581.1918
  44  515.2135
  45  635.4951
  46  523.3195
  47  461.1733
  48  574.0687
  49  478.0147
  50  483.7521
  51  612.5308
  52  501.0584
  53  384.8638
  54  369.5014
  55  435.7982
  56  405.3474
  57  464.9354
  58  422.2055
  59  415.2829
  60  382.2851
  61  457.3114
  62  370.9067
  63  402.2676
  64  427.0121
  65  398.1744
  66  363.9865
  67  254.3587
  68  257.9945
  69  336.5491
  70  447.6614
  71  424.8314
  72  351.226
  73  306.6911
  74  399.4472
  75  411.6574
  76  412.9771
  77  394.6895
  78  429.3487
  79  345.0463
  80  323.5221
  81  446.6225
  82  462.3752
  83  361.8932
  84  327.7612
  85  350.2713
  86  350.5123
  87  309.3171
  88  223.4822
  89  300.6746
  90  327.1218
  91  306.5681
  92  297.0511
  93  334.9036
  94  387.399
  95  352.9779
  96  226.8872
  97  312.8755
  98  433.5357
  99  596.9991
 100  353.809
 101  254.7215
 102  332.3146
 103  392.9146
 104  469.1532
 105  377.3491
 106  388.942
 107  316.2484
 108  389.0769
 109  414.6192
 110  314.8529
 111  336.6511
 112  347.8233
 113  373.1709
 114  410.9772
 115  346.5034
 116  384.0963
 117  425.2047
 118  522.6261
 119  495.0551
 120  503.0337
 121  527.7569
 122  383.3666
 123  301.4772
 124  463.5172
 125  471.3283
 126  388.2179
 127  412.0844
 128  326.7747
 129  374.2542
 130  407.4557
 131  375.9005
 132  442.689
 133  508.9523
 134  545.0853
 135  548.339
 136  576.5414
 137  483.8502
 138  478.8018
 139  419.631
 140  379.7285
 141  329.005
 142  370.969
 143  386.1953
 144  424.6881
 145  483.6077
 146  459.8391
 147  448.5231
 148  375.3452
 149  402.875
 150  404.0382
 151  347.3219
 152  419.6017
 153  522.4236
 154  542.3476
 155  553.8017
 156  487.3472
 157  468.2291
 158  481.9709
 159  505.9015
 160  480.9874
 161  393.7106
 162  365.1877
 163  414.1449
 164  401.7574
 165  382.2549
 166  455.1581
 167  440.1712
 168  418.351
 169  434.7092
 170  311.4521
 171  343.3323
 172  559.5354
 173  503.2184
 174  589.3105
 175  445.6123
 176  435.9909
 177  466.8296
 178  348.4612
 179  370.0199
 180  478.6571
 181  428.5731
 182  367.1884
 183  378.4312
 184  400.7881
 185  377.2496
 186  388.1764
 187  312.9419
 188  405.8345
 189  491.5177
 190  492.7668
 191  385.7108
 192  301.7874
 193  321.144
 194  489.8523
 195  405.0249
 196  366.9381
 197  440.8924
 198  430.0902
 199  414.9636
 200  360.1206
 201  263.0543
 202  211.9784
 203  319.1878
 204  317.4057
 205  381.2698
 206  328.5459
 207  369.3343
 208  311.0712
 209  336.1111
 210  409.8782
 211  447.8024
 212  373.3204
 213  422.8242
 214  450.1653
 215  394.8389
 216  278.5504
 217  278.7421
 218  375.9459
 219  416.5251
 220  353.1204
 221  531.373
 222  562.8939
 223  449.0074
 224  309.8721
 225  279.1491
 226  336.0611
 227  379.7043
 228  335.5722
 229  454.6875
 230  432.8945
 231  346.8709
 232  264.458
 233  401.03
 234  481.4677
 235  436.4408
 236  342.619
 237  349.1176
 238  408.4584
 239  370.228
 240  400.0286
 241  364.0674
 242  258.3617
 243  362.8462
 244  457.3184
 245  506.6553
 246  560.2388
 247  477.7357
 248  490.1837
 249  511.4776
 250  402.1179
 251  554.9151
 252  528.5651
 253  487.8935
 254  450.1507
 255  514.7388
 256  548.195
 257  524.4804
 258  432.4709
 259  404.5269
 260  450.2211
 261  471.6248
 262  483.3273
 263  507.8919
 264  479.3483
 265  403.2754
 266  391.0625
 267  403.6188
 268  381.5417
 269  425.1507
 270  443.7713
 271  360.1764
 272  378.4528
 273  419.0496
 274  393.212
 275  297.7072
 276  307.8581
 277  414.6077
 278  336.1718
 279  315.001
 280  321.5894
 281  417.912
 282  432.292
 283  421.2368
 284  372.095
 285  424.321
 286  495.0906
 287  475.7043
 288  445.628
 289  489.5587
 290  557.5905
 291  584.2056
 292  472.2599
 293  489.9974
 294  434.8504
 295  348.5482
 296  508.3734
 297  511.9402
 298  401.9048
 299  535.6709
 300  522.6036
 301  480.0309
 302  500.5721
 303  436.8261
 304  415.5389
 305  380.6319
 306  254.8421
 307  299.5257
 308  534.5594
 309  543.8342
 310  425.5293
 311  477.2531
 312  405.3007
 313  508.4432
 314  412.8794
 315  385.5987
 316  448.6818
 317  393.9541
 318  496.1529
 319  494.5823
 320  560.8654
 321  612.5099
 322  433.0379
 323  389.9396
 324  211.2045
 325  308.6384
 326  305.366
 327  366.0254
 328  467.5362
 329  429.0399
 330  409.5598
 331  438.4591
 332  463.8826
 333  323.276
 334  411.195
 335  423.2705
 336  289.8528
 337  377.0214
 338  286.8588
 339  272.08
 340  251.714
 341  240.3569
 342  316.0467
 343  290.3422
 344  287.2488
 345  299.0751
 346  324.6561
 347  407.0626
 348  381.7249
 349  583.3271
 350  471.2131
 351  347.0385
 352  406.3929
 353  463.7272
 354  405.2723
 355  405.4963
 356  385.932
 357  482.1752
 358  473.143
 359  480.9038
 360  478.6668
 361  441.1045
 362  450.2731
 363  474.6149
 364  505.0228
 365  503.1791
 366  426.8514
 367  419.3788
 368  356.9223
 369  386.4464
 370  551.23
 371  406.3835
 372  456.3726
 373  409.5668
 374  400.1546
 375  468.9072
 376  455.0364
 377  503.4597
 378  580.7611
 379  474.7998
 380  443.2073
 381  387.7376
 382  370.1444
 383  486.6796
 384  410.1275
 385  384.5402
 386  353.1008
 387  344.9632
 388  356.8764
 389  320.2759
 390  359.2287
 391  412.5811
 392  394.0962
 393  325.7698
 394  459.8615
 395  494.6351
 396  460.7665
 397  537.3262
 398  453.026
 399  381.6385
 400  306.1235
 401  328.4191
 402  401.0125
 403  244.671
 404  357.2403
 405  361.9042
 406  396.7495
 407  470.8399
 408  429.7177
 409  459.5775
 410  489.2379
 411  459.9697
 412  371.9997
 413  355.3013
 414  416.1232
 415  393.2027
 416  368.4758
 417  488.1716
 418  432.4083
 419  534.1275
 420  446.3502
 421  469.4646
 422  489.3671
 423  483.433
 424  385.2059
 425  391.9139
 426  404.0598
 427  521.6573
 428  503.3061
 429  459.6489
 430  433.7475
 431  544.5963
 432  448.5693
 433  391.836
 434  432.6984
 435  419.2899
 436  333.6424
 437  287.383
 438  384.2573
 439  462.0234
 440  514.911
 441  449.5335
 442  437.0495
 443  455.4264
 444  552.1979
 445  406.0315
 446  445.199
 447  364.0689
 448  409.4269
 449  476.2026
 450  416.2344
 451  355.2621
 452  347.2355
 453  448.9163
 454  453.8562
 455  330.2691
 456  356.007
 457  394.9198
 458  354.165
 459  476.6157
 460  615.2845
 461  527.433
 462  509.8539
 463  397.7318
 464  387.7553
 465  375.1079
 466  370.0193
 467  457.8224
 468  471.6864
 469  520.0693
 470  439.0122
 471  319.5048
 472  342.3622
 473  371.8449
 474  368.8793
 475  343.148
 476  365.1917
 477  370.0939
 478  394.3024
 479  425.7257
 480  442.0041
 481  429.0203
 482  397.6017
 483  419.8517
 484  462.9731
 485  396.9068
 486  421.2133
 487  348.2299
 488  409.9754
 489  415.8055
 490  663.2949
 491  619.2767
 492  480.0461
 493  503.8343
 494  618.4396
 495  441.1534
 496  317.9483
 497  378.8095
 498  499.5808
 499  425.8255
 500  414.1744
 501  407.2243
 502  343.0911
 503  415.4782
 504  458.1432
 505  554.6931
 506  535.4302
 507  627.795
 508  894.8153
 509  1027.27
 510  1148.414
 511  1270.386
