# Input file       =  1210221222.103815_cleaned.dat
# Candidate        =  PSR_0332+5434
# Telescope        =  AR
# Epoch_topo       =  58251.190290553415
# Epoch_bary       =  N/A
# T_sample         =  0.002
# Data Folded      =  7208960
# Data Avg         =  0.0422374674878121
# Data StdDev      =  0.999991071909131
# Profile Bins     =  512
# Profile Avg      =  594.683213017683 
# Profile StdDev   =  118.658116393627 
# Reduced chi-sqr  =  2.043
# Prob(Noise)      <  8.69e-39   (~13.0 sigma)
# P_topo (ms)      =  714.535334985937  +/- 0.000118
# P'_topo (s/s)    =  -0                +/- 6.35e-11
# P''_topo (s/s^2) =  0                 +/- 2.85e-14
# P_bary (ms)      =  N/A
# P'_bary (s/s)    =  N/A
# P''_bary (s/s^2) =  N/A
# P_orb (s)        =  N/A
# asin(i)/c (s)    =  N/A
# eccentricity     =  N/A
# w (rad)          =  N/A
# T_peri           =  N/A
######################################################
   0  706.6578
   1  646.95
   2  616.43
   3  633.7418
   4  562.2804
   5  467.0214
   6  546.032
   7  518.7402
   8  710.1479
   9  688.876
  10  668.9997
  11  598.9275
  12  452.7063
  13  512.8652
  14  638.9435
  15  571.6574
  16  673.6749
  17  607.1029
  18  517.3699
  19  519.4332
  20  493.813
  21  387.8399
  22  404.6138
  23  553.7735
  24  459.5482
  25  539.7749
  26  556.2401
  27  506.8697
  28  566.3589
  29  592.843
  30  539.5834
  31  470.7957
  32  490.4398
  33  538.001
  34  561.9209
  35  490.5392
  36  549.8776
  37  412.1263
  38  354.0477
  39  473.5527
  40  450.4453
  41  481.551
  42  523.9658
  43  538.2092
  44  515.6307
  45  400.6274
  46  451.0723
  47  580.5876
  48  587.1312
  49  535.9614
  50  429.8746
  51  424.3617
  52  452.5405
  53  449.0738
  54  443.4955
  55  524.0735
  56  486.676
  57  581.308
  58  612.1321
  59  655.5538
  60  633.532
  61  713.8088
  62  653.8211
  63  772.1838
  64  1127.647
  65  1458.355
  66  1618.341
  67  1489.975
  68  1335.761
  69  946.5763
  70  557.4623
  71  460.9327
  72  476.6286
  73  483.9476
  74  537.612
  75  508.5092
  76  525.7158
  77  562.2324
  78  633.6672
  79  539.2361
  80  513.257
  81  583.528
  82  765.4833
  83  707.9131
  84  514.0122
  85  389.4541
  86  361.2958
  87  333.1888
  88  391.2672
  89  412.4095
  90  570.2083
  91  616.7803
  92  648.6127
  93  618.2171
  94  569.1108
  95  468.6808
  96  568.1614
  97  644.3283
  98  552.0101
  99  579.0448
 100  579.2186
 101  609.9782
 102  612.0735
 103  559.6472
 104  442.7531
 105  439.144
 106  573.6628
 107  561.3061
 108  542.4445
 109  524.7969
 110  415.9893
 111  427.3148
 112  574.1373
 113  555.6781
 114  560.3102
 115  561.5661
 116  571.8998
 117  587.6215
 118  458.6275
 119  493.5547
 120  593.4634
 121  578.6367
 122  556.9031
 123  461.701
 124  530.8566
 125  610.5463
 126  666.9222
 127  591.5532
 128  523.5129
 129  504.9044
 130  568.2848
 131  645.8737
 132  603.7992
 133  570.4935
 134  492.3899
 135  367.454
 136  412.1016
 137  478.4815
 138  550.4321
 139  500.6564
 140  600.8522
 141  722.527
 142  696.609
 143  581.8341
 144  454.0583
 145  543.8923
 146  501.942
 147  416.9032
 148  486.4821
 149  518.4088
 150  342.322
 151  372.4883
 152  520.2727
 153  513.227
 154  409.272
 155  453.3312
 156  496.0367
 157  587.5662
 158  560.7432
 159  564.2377
 160  603.2734
 161  524.1069
 162  418.8384
 163  533.0297
 164  671.6655
 165  646.0972
 166  624.8432
 167  516.8917
 168  497.9458
 169  396.837
 170  409.3376
 171  337.7117
 172  471.3878
 173  617.8438
 174  516.4831
 175  376.7795
 176  566.5719
 177  603.6216
 178  555.5618
 179  557.9333
 180  483.9869
 181  486.3245
 182  546.3156
 183  558.3245
 184  454.3632
 185  458.2734
 186  570.8037
 187  605.9442
 188  646.5601
 189  608.3127
 190  696.6523
 191  665.7999
 192  598.6821
 193  563.7371
 194  558.6577
 195  600.8126
 196  564.4973
 197  551.3097
 198  642.088
 199  653.6775
 200  592.7947
 201  408.1797
 202  488.4799
 203  557.0797
 204  707.5286
 205  600.0564
 206  594.8963
 207  626.3778
 208  579.5769
 209  594.4391
 210  646.3618
 211  592.22
 212  597.0673
 213  578.9318
 214  567.8764
 215  532.7902
 216  512.0747
 217  530.4866
 218  641.7365
 219  649.2682
 220  660.7495
 221  694.1262
 222  705.1032
 223  708.0659
 224  674.2613
 225  630.132
 226  563.8882
 227  603.7492
 228  633.0579
 229  561.7322
 230  551.7077
 231  662.675
 232  691.0163
 233  584.4719
 234  590.7845
 235  641.804
 236  567.9619
 237  517.8698
 238  521.9789
 239  621.8759
 240  585.6924
 241  776.8282
 242  755.6418
 243  577.0684
 244  516.9678
 245  515.6801
 246  649.0215
 247  592.498
 248  613.9528
 249  580.8188
 250  442.9555
 251  371.6963
 252  603.2743
 253  625.6752
 254  685.8005
 255  702.3229
 256  716.2775
 257  605.8381
 258  549.6272
 259  587.8781
 260  535.1684
 261  662.6569
 262  785.5671
 263  612.0971
 264  579.2455
 265  685.4102
 266  615.7925
 267  576.2438
 268  591.4468
 269  654.0844
 270  613.1179
 271  661.449
 272  749.4703
 273  733.1289
 274  717.4807
 275  789.5655
 276  770.8319
 277  660.6345
 278  701.4892
 279  707.5156
 280  606.6315
 281  628.8193
 282  687.1198
 283  722.6964
 284  587.6279
 285  577.062
 286  629.7454
 287  572.5967
 288  623.0651
 289  745.5104
 290  803.7605
 291  616.2726
 292  599.5231
 293  659.2639
 294  726.4119
 295  641.5673
 296  619.1255
 297  702.0517
 298  768.2804
 299  627.7073
 300  642.6793
 301  684.3293
 302  640.2372
 303  732.0121
 304  703.4753
 305  776.4561
 306  757.8469
 307  639.0755
 308  673.3522
 309  597.6861
 310  557.5211
 311  648.8337
 312  658.6874
 313  638.2546
 314  657.595
 315  648.3837
 316  761.0916
 317  700.5175
 318  734.2587
 319  726.5397
 320  706.3688
 321  558.0175
 322  654.0046
 323  790.4907
 324  793.2893
 325  699.7846
 326  647.0861
 327  740.233
 328  610.4853
 329  670.4116
 330  779.7521
 331  659.7431
 332  543.9112
 333  614.1613
 334  650.6979
 335  750.6644
 336  663.8727
 337  715.0742
 338  701.4499
 339  702.0869
 340  703.2754
 341  634.4399
 342  580.4897
 343  600.9004
 344  542.1956
 345  594.6346
 346  582.5281
 347  683.2236
 348  673.5549
 349  688.9774
 350  574.3534
 351  538.2299
 352  575.9477
 353  575.9739
 354  683.4944
 355  827.3682
 356  800.0894
 357  611.4333
 358  518.7548
 359  607.7703
 360  581.007
 361  559.4424
 362  705.3555
 363  722.4654
 364  736.4894
 365  660.3987
 366  689.8821
 367  705.5206
 368  734.8667
 369  587.1688
 370  639.102
 371  694.9613
 372  685.6601
 373  623.9789
 374  559.6525
 375  558.3831
 376  615.9022
 377  631.1129
 378  539.6294
 379  605.1401
 380  583.4131
 381  635.5599
 382  569.4113
 383  608.4919
 384  575.2343
 385  574.5718
 386  539.4821
 387  540.1926
 388  561.5151
 389  666.1083
 390  639.046
 391  590.5118
 392  626.2835
 393  650.8295
 394  642.9557
 395  559.0411
 396  592.5389
 397  659.3105
 398  580.6153
 399  522.6229
 400  664.494
 401  595.3886
 402  537.6657
 403  695.9472
 404  825.0209
 405  775.786
 406  662.2534
 407  506.1374
 408  427.9438
 409  608.3597
 410  646.2371
 411  531.2811
 412  553.0471
 413  564.5496
 414  558.174
 415  445.6327
 416  419.4979
 417  410.8345
 418  517.5186
 419  518.4944
 420  578.3052
 421  596.6733
 422  619.4292
 423  654.1992
 424  658.4786
 425  612.67
 426  686.9525
 427  721.1525
 428  623.1776
 429  514.7197
 430  549.7457
 431  698.9344
 432  546.3966
 433  568.7852
 434  566.2845
 435  548.7078
 436  592.6409
 437  560.1545
 438  585.3862
 439  590.3066
 440  425.6176
 441  544.3785
 442  637.2986
 443  513.9594
 444  527.7927
 445  544.1267
 446  528.2517
 447  683.5507
 448  577.0073
 449  534.9988
 450  433.8493
 451  504.2892
 452  605.1203
 453  436.1116
 454  511.5444
 455  675.7237
 456  621.1826
 457  576.6833
 458  633.7794
 459  533.6968
 460  545.022
 461  522.0435
 462  506.5414
 463  503.1385
 464  515.6824
 465  481.644
 466  546.1608
 467  448.3464
 468  511.593
 469  676.2419
 470  707.0165
 471  605.6555
 472  546.3643
 473  637.2623
 474  651.2391
 475  660.7922
 476  665.7013
 477  649.3012
 478  546.2061
 479  561.4459
 480  525.1823
 481  542.4448
 482  521.4968
 483  541.5039
 484  618.3535
 485  530.2155
 486  632.7238
 487  666.0342
 488  672.6769
 489  585.4271
 490  610.2139
 491  641.4051
 492  511.8664
 493  466.6922
 494  620.2916
 495  622.0815
 496  502.8382
 497  578.6903
 498  589.0563
 499  634.0583
 500  525.86
 501  503.6562
 502  663.2117
 503  635.8142
 504  632.1851
 505  653.6006
 506  666.1962
 507  588.793
 508  538.4177
 509  580.1155
 510  559.4857
 511  539.7213
