# Input file       =  1210221222.103815_cleaned.dat
# Candidate        =  PSR_0332+5434
# Telescope        =  AR
# Epoch_topo       =  58251.190290553415
# Epoch_bary       =  N/A
# T_sample         =  0.002
# Data Folded      =  7208960
# Data Avg         =  0.397265404843808
# Data StdDev      =  7.94737151946372 
# Profile Bins     =  256
# Profile Avg      =  11186.9010644881 
# Profile StdDev   =  1333.64377108944 
# Reduced chi-sqr  =  1.366
# Prob(Noise)      <  9.05e-05   (~3.7 sigma)
# P_topo (ms)      =  714.535334873726  +/- 3.55e-05
# P'_topo (s/s)    =  -0                +/- 1.91e-11
# P''_topo (s/s^2) =  0                 +/- 8.57e-15
# P_bary (ms)      =  N/A
# P'_bary (s/s)    =  N/A
# P''_bary (s/s^2) =  N/A
# P_orb (s)        =  N/A
# asin(i)/c (s)    =  N/A
# eccentricity     =  N/A
# w (rad)          =  N/A
# T_peri           =  N/A
######################################################
   0  11746.18
   1  12558
   2  11871.19
   3  9927.552
   4  10272.74
   5  13024.3
   6  12824.07
   7  12087.21
   8  12070.11
   9  11841.23
  10  11128.32
  11  10430.3
  12  10497.87
  13  13020.28
  14  12771.03
  15  11572.64
  16  10683.04
  17  11406.35
  18  12280.32
  19  10456.81
  20  9826.242
  21  11029.98
  22  13593.84
  23  12460.88
  24  11943.42
  25  11217
  26  11288.67
  27  9709.407
  28  10321.73
  29  11634.26
  30  12938.02
  31  11896.38
  32  10617.14
  33  10831.28
  34  12781.87
  35  11112.69
  36  8689.585
  37  9908.501
  38  13275.15
  39  13278.27
  40  10807.58
  41  10900.39
  42  11330.95
  43  11177.22
  44  11313.49
  45  9843.392
  46  12193.44
  47  12275.39
  48  11512.05
  49  11285.24
  50  11449.23
  51  11221.12
  52  9652.938
  53  9310.549
  54  10846.58
  55  12737.71
  56  11395.68
  57  11017.58
  58  10534.23
  59  11150.9
  60  9659.66
  61  9958.66
  62  11486.5
  63  12549.68
  64  10916.79
  65  11038.73
  66  11313.6
  67  11961.06
  68  9397.4
  69  8091.187
  70  10351.6
  71  12978.25
  72  13032.06
  73  11005.74
  74  11327.36
  75  11075.62
  76  11968.6
  77  10123.93
  78  9196.641
  79  11856.29
  80  12929.37
  81  11528.21
  82  10746.08
  83  11540.09
  84  11689.66
  85  9641.605
  86  9838.511
  87  10965.36
  88  13080.74
  89  12384.29
  90  10452.9
  91  11009.27
  92  11368.11
  93  9352.036
  94  8637.381
  95  10645.91
  96  12070.96
  97  11520.9
  98  12065.28
  99  12026.5
 100  10583.99
 101  9349.439
 102  9296.172
 103  10346.84
 104  13150.21
 105  11808.19
 106  9837.426
 107  10441.41
 108  12291.69
 109  11043.52
 110  9128.499
 111  8372.778
 112  12407.71
 113  12992.23
 114  11990.63
 115  11052.11
 116  10808.75
 117  12073.83
 118  10162.82
 119  9148.892
 120  11573.07
 121  13657.28
 122  11695.02
 123  10321.47
 124  11453.38
 125  12994
 126  9698.644
 127  8219.295
 128  9887.49
 129  12788.83
 130  12841.18
 131  11316.84
 132  10454.25
 133  10992.63
 134  10496.96
 135  9440.464
 136  9395.053
 137  11185.85
 138  11747.17
 139  10365.95
 140  11034.34
 141  11510
 142  9625.032
 143  8185.342
 144  9285.914
 145  12282.81
 146  13206.83
 147  11374.08
 148  11874.77
 149  15641.33
 150  16192.1
 151  12127.27
 152  8883.644
 153  11062.37
 154  12150.7
 155  11219.29
 156  10955.48
 157  11578.03
 158  13016.61
 159  8881.939
 160  7737.069
 161  10051.15
 162  13720.2
 163  12960.64
 164  10201.05
 165  10378.88
 166  12292.12
 167  11656.82
 168  9346.566
 169  8867.339
 170  12630.16
 171  11860.94
 172  10420.24
 173  10895.8
 174  11699.85
 175  11174.76
 176  9072.394
 177  9866.709
 178  11825.6
 179  12523.28
 180  11489.41
 181  10182.71
 182  11707.76
 183  11486.42
 184  9423.564
 185  9210.391
 186  10647.86
 187  12849.77
 188  11837.63
 189  11677.33
 190  10810.32
 191  11077.46
 192  9111.415
 193  9819.077
 194  10002.55
 195  13347
 196  12065.32
 197  9901.532
 198  10735.95
 199  13132.78
 200  11758.61
 201  8499.097
 202  8263.902
 203  12767.86
 204  12636.26
 205  11685.93
 206  11181.96
 207  10534.15
 208  11013.86
 209  9999.097
 210  9643.773
 211  11938.32
 212  13861.65
 213  11597.42
 214  10415.77
 215  11579.63
 216  12564.32
 217  9059.999
 218  9296.319
 219  11644.39
 220  13233.45
 221  12156.23
 222  11896.8
 223  10732.34
 224  11260.17
 225  10238.76
 226  10168.33
 227  11323.62
 228  12763.43
 229  12512.95
 230  11097.8
 231  11068.36
 232  12334.32
 233  10564.36
 234  9323.38
 235  9462.445
 236  13171.58
 237  13472.54
 238  11100.92
 239  10307.43
 240  11564.17
 241  11259.96
 242  9604.863
 243  9828.456
 244  11710.9
 245  12829.82
 246  11456.79
 247  11984.1
 248  11842.38
 249  12100.34
 250  9841.974
 251  9688.213
 252  11110.93
 253  13990.96
 254  13384.91
 255  11356.68
