# Input file       =  1210767789.121276_cleaned.dat
# Candidate        =  PSR_0332+5434
# Telescope        =  AR
# Epoch_topo       =  58257.516297699949
# Epoch_bary       =  N/A
# T_sample         =  0.002
# Data Folded      =  7340032
# Data Avg         =  0.0318168063712321
# Data StdDev      =  1.0001275017691  
# Profile Bins     =  512
# Profile Avg      =  456.127041837425 
# Profile StdDev   =  119.748302550724 
# Reduced chi-sqr  =  1.149
# Prob(Noise)      <  0.0108   (~2.3 sigma)
# P_topo (ms)      =  714.529503802372  +/- 0.000275
# P'_topo (s/s)    =  -0                +/- 1.45e-10
# P''_topo (s/s^2) =  0                 +/- 6.41e-14
# P_bary (ms)      =  N/A
# P'_bary (s/s)    =  N/A
# P''_bary (s/s^2) =  N/A
# P_orb (s)        =  N/A
# asin(i)/c (s)    =  N/A
# eccentricity     =  N/A
# w (rad)          =  N/A
# T_peri           =  N/A
######################################################
   0  1017.653
   1  845.6811
   2  691.4508
   3  605.5143
   4  459.9878
   5  424.2877
   6  481.8908
   7  607.5775
   8  626.4923
   9  598.2578
  10  613.1995
  11  483.3706
  12  496.1429
  13  579.1241
  14  609.7578
  15  510.7191
  16  527.1861
  17  514.6057
  18  473.6689
  19  579.6635
  20  573.7385
  21  613.7136
  22  569.574
  23  616.5258
  24  551.7288
  25  503.1272
  26  601.1886
  27  592.5256
  28  428.3764
  29  431.0571
  30  537.9157
  31  477.5475
  32  494.3534
  33  590.8922
  34  529.5664
  35  396.9934
  36  424.5652
  37  457.4418
  38  490.234
  39  490.8549
  40  516.541
  41  454.9098
  42  345.0214
  43  379.0471
  44  424.5474
  45  470.483
  46  404.6223
  47  379.4838
  48  475.3404
  49  375.2016
  50  477.722
  51  519.3906
  52  483.7217
  53  496.2261
  54  523.4523
  55  629.0698
  56  648.7313
  57  489.0836
  58  534.244
  59  611.4104
  60  599.877
  61  553.032
  62  476.7579
  63  413.6018
  64  536.7781
  65  532.1992
  66  489.9216
  67  462.2165
  68  472.459
  69  535.5798
  70  517.6766
  71  602.8362
  72  474.0502
  73  530.4139
  74  522.97
  75  509.6358
  76  502.7017
  77  489.7047
  78  490.9889
  79  489.7249
  80  475.0276
  81  569.1832
  82  534.2261
  83  511.9314
  84  582.5088
  85  364.9483
  86  461.9798
  87  588.0038
  88  545.9103
  89  469.7456
  90  496.2565
  91  542.4473
  92  602.5176
  93  507.4317
  94  427.9122
  95  461.8549
  96  540.8235
  97  541.0663
  98  487.2154
  99  497.3671
 100  520.8766
 101  402.812
 102  387.1023
 103  406.113
 104  621.2523
 105  530.6724
 106  526.3383
 107  531.0184
 108  453.9104
 109  448.966
 110  421.6578
 111  340.3726
 112  456.1992
 113  476.5789
 114  383.6713
 115  381.0321
 116  298.5435
 117  399.0515
 118  418.0117
 119  448.2553
 120  468.1136
 121  456.0533
 122  393.1883
 123  310.9066
 124  317.4412
 125  410.066
 126  433.3893
 127  434.4337
 128  483.8276
 129  397.5455
 130  378.1199
 131  356.6016
 132  283.5303
 133  319.5264
 134  364.5047
 135  382.2633
 136  522.3983
 137  634.3888
 138  528.097
 139  491.9023
 140  394.6418
 141  353.9962
 142  503.9966
 143  541.4374
 144  498.7339
 145  465.5277
 146  431.1987
 147  342.6147
 148  288.0521
 149  471.7451
 150  555.3793
 151  519.8615
 152  480.4427
 153  481.74
 154  499.2845
 155  509.3767
 156  514.1572
 157  432.1139
 158  355.0951
 159  421.7377
 160  496.9166
 161  504.9266
 162  551.5025
 163  512.9593
 164  498.1016
 165  436.5348
 166  442.0062
 167  491.9466
 168  358.4665
 169  366.5488
 170  438.7045
 171  515.5368
 172  566.4982
 173  569.2012
 174  547.3501
 175  443.7675
 176  396.0567
 177  409.6187
 178  414.1342
 179  459.346
 180  632.8137
 181  620.1584
 182  516.274
 183  444.2902
 184  391.2749
 185  401.2618
 186  378.7426
 187  493.3436
 188  526.2838
 189  417.4219
 190  531.9105
 191  548.0706
 192  272.7837
 193  320.24
 194  447.9029
 195  486.3751
 196  493.6187
 197  498.5128
 198  457.494
 199  359.0674
 200  360.7942
 201  364.324
 202  380.1494
 203  358.2569
 204  397.6101
 205  489.4386
 206  394.5825
 207  335.9719
 208  320.4573
 209  433.94
 210  465.2445
 211  514.0472
 212  433.3864
 213  401.9109
 214  390.989
 215  326.2219
 216  413.8384
 217  428.8447
 218  474.5526
 219  435.3663
 220  423.5222
 221  527.277
 222  548.6406
 223  511.9165
 224  523.3892
 225  541.0229
 226  430.6006
 227  400.2422
 228  355.8792
 229  377.264
 230  336.0489
 231  532.8983
 232  528.2468
 233  434.9662
 234  363.1057
 235  377.2147
 236  462.2089
 237  449.3292
 238  505.071
 239  478.5034
 240  450.4954
 241  501.9942
 242  507.7043
 243  462.8107
 244  445.7547
 245  418.9363
 246  303.5543
 247  380.6697
 248  441.9527
 249  511.2957
 250  433.5515
 251  367.9711
 252  480.7788
 253  532.9064
 254  489.3706
 255  525.2125
 256  588.8113
 257  511.5998
 258  423.7215
 259  342.5202
 260  399.0392
 261  503.586
 262  541.2542
 263  488.2874
 264  461.0153
 265  393.7878
 266  428.5686
 267  600.8389
 268  529.6868
 269  506.974
 270  486.6557
 271  443.4418
 272  412.2723
 273  445.2216
 274  430.2339
 275  467.95
 276  455.868
 277  402.4971
 278  397.713
 279  500.0188
 280  355.5737
 281  220.7983
 282  326.3225
 283  363.4368
 284  360.8801
 285  353.0822
 286  373.9248
 287  310.8491
 288  339.6591
 289  391.337
 290  436.2789
 291  465.3833
 292  354.5534
 293  302.0352
 294  386.5799
 295  367.0326
 296  359.4298
 297  386.0132
 298  413.8193
 299  449.3695
 300  354.8348
 301  358.5338
 302  517.6036
 303  512.1475
 304  392.7268
 305  389.1103
 306  449.6309
 307  371.2917
 308  372.0551
 309  468.5432
 310  509.1325
 311  565.2834
 312  507.5297
 313  325.9548
 314  431.337
 315  501.7388
 316  420.1906
 317  507.5925
 318  415.6743
 319  434.1583
 320  348.0997
 321  491.8107
 322  454.1022
 323  354.3293
 324  321.9393
 325  413.209
 326  416.5699
 327  345.92
 328  441.0117
 329  348.477
 330  297.3549
 331  304.8277
 332  329.0183
 333  356.2659
 334  381.3972
 335  368.0903
 336  388.8365
 337  352.2113
 338  360.6641
 339  372.6077
 340  369.8527
 341  430.2635
 342  476.0233
 343  447.0003
 344  489.9773
 345  338.1172
 346  311.1068
 347  432.2194
 348  371.2936
 349  334.4966
 350  430.1432
 351  510.1152
 352  439.2177
 353  507.0076
 354  453.3805
 355  369.409
 356  353.9001
 357  437.3756
 358  419.3001
 359  351.8449
 360  437.1824
 361  508.5041
 362  495.449
 363  422.9921
 364  293.2318
 365  303.6123
 366  312.3208
 367  399.6984
 368  467.2443
 369  437.8291
 370  410.5544
 371  419.5669
 372  544.3945
 373  509.4415
 374  563.8165
 375  520.3946
 376  537.769
 377  533.6984
 378  560.7193
 379  505.5971
 380  388.6376
 381  326.9325
 382  403.4056
 383  497.6553
 384  509.9104
 385  479.1026
 386  499.824
 387  469.3877
 388  499.9484
 389  361.0747
 390  342.9309
 391  359.3845
 392  275.1866
 393  304.2833
 394  324.9212
 395  401.3545
 396  439.3287
 397  512.3318
 398  540.0228
 399  459.6111
 400  495.1571
 401  560.5936
 402  576.4451
 403  543.2728
 404  535.2588
 405  428.7283
 406  487.1864
 407  546.0676
 408  521.0462
 409  534.0416
 410  451.378
 411  408.5233
 412  413.3332
 413  472.5372
 414  492.1601
 415  448.9014
 416  494.8651
 417  516.0926
 418  395.4165
 419  381.8807
 420  411.1125
 421  445.9026
 422  403.7681
 423  510.7741
 424  516.0062
 425  483.2947
 426  460.3112
 427  364.7015
 428  472.6293
 429  532.9148
 430  495.3737
 431  319.0563
 432  405.304
 433  510.5622
 434  348.143
 435  307.724
 436  292.6594
 437  320.8959
 438  279.2303
 439  473.2705
 440  502.9405
 441  486.1609
 442  450.4934
 443  518.3572
 444  477.4103
 445  428.7043
 446  454.1071
 447  509.0529
 448  479.5736
 449  352.8103
 450  423.7516
 451  493.4235
 452  464.3683
 453  519.2444
 454  496.1544
 455  563.9075
 456  512.3257
 457  420.6989
 458  420.0069
 459  477.4043
 460  487.6026
 461  486.1221
 462  443.5963
 463  325.2744
 464  303.0219
 465  504.7936
 466  462.2449
 467  441.1245
 468  510.2332
 469  424.1257
 470  366.7674
 471  496.0148
 472  535.4723
 473  489.645
 474  395.8486
 475  269.1712
 476  322.6747
 477  458.2134
 478  456.1207
 479  409.8718
 480  338.5174
 481  338.1137
 482  412.5211
 483  477.873
 484  503.6948
 485  375.0188
 486  394.7
 487  421.2175
 488  378.6801
 489  277.0584
 490  335.9897
 491  447.7861
 492  494.6544
 493  507.2263
 494  502.1992
 495  372.5018
 496  413.3572
 497  405.0564
 498  439.6725
 499  345.5275
 500  320.3012
 501  392.4839
 502  379.5659
 503  502.3613
 504  489.8922
 505  453.5504
 506  516.4947
 507  592.962
 508  666.3388
 509  772.1107
 510  948.67
 511  1056.616
