# Input file       =  1210666695.126441_cleaned.dat
# Candidate        =  PSR_0332+5434
# Telescope        =  AR
# Epoch_topo       =  58256.346228315291
# Epoch_bary       =  N/A
# T_sample         =  0.002
# Data Folded      =  7340032
# Data Avg         =  0.0324825835779106
# Data StdDev      =  1.00004335081552 
# Profile Bins     =  512
# Profile Avg      =  465.663423585391 
# Profile StdDev   =  119.738226901538 
# Reduced chi-sqr  =  0.880
# Prob(Noise)      <  0.976   (~0.0 sigma)
# P_topo (ms)      =  714.530317718419  +/- 0.000544
# P'_topo (s/s)    =  -0                +/- 2.87e-10
# P''_topo (s/s^2) =  0                 +/- 1.27e-13
# P_bary (ms)      =  N/A
# P'_bary (s/s)    =  N/A
# P''_bary (s/s^2) =  N/A
# P_orb (s)        =  N/A
# asin(i)/c (s)    =  N/A
# eccentricity     =  N/A
# w (rad)          =  N/A
# T_peri           =  N/A
######################################################
   0  991.8802
   1  796.4684
   2  705.595
   3  557.3478
   4  430.4752
   5  432.4803
   6  409.2602
   7  425.5453
   8  395.6621
   9  411.3172
  10  394.3315
  11  480.3852
  12  497.3179
  13  423.0239
  14  455.1047
  15  453.6523
  16  488.6923
  17  561.4444
  18  557.3141
  19  464.2178
  20  564.3302
  21  596.4594
  22  581.71
  23  455.8695
  24  478.7523
  25  512.7933
  26  581.5155
  27  551.1153
  28  559.2859
  29  495.8751
  30  433.7245
  31  527.417
  32  492.9875
  33  467.4148
  34  583.2224
  35  497.3911
  36  535.4323
  37  518.5502
  38  540.7147
  39  537.9291
  40  533.0372
  41  509.1651
  42  478.756
  43  525.0512
  44  511.7132
  45  476.4221
  46  551.3632
  47  569.2007
  48  500.9243
  49  438.7496
  50  434.0914
  51  372.1436
  52  403.0143
  53  459.3083
  54  510.7198
  55  475.9426
  56  508.371
  57  451.9967
  58  449.2678
  59  431.4841
  60  538.9106
  61  560.9568
  62  531.5237
  63  507.01
  64  567.3109
  65  567.2407
  66  537.8719
  67  559.9473
  68  545.7084
  69  584.1135
  70  566.1779
  71  499.4129
  72  473.0839
  73  507.381
  74  526.7236
  75  601.9134
  76  659.6362
  77  593.7596
  78  451.935
  79  457.9151
  80  565.4099
  81  587.1555
  82  595.438
  83  587.9082
  84  562.5914
  85  547.6155
  86  557.4705
  87  595.7217
  88  574.0774
  89  573.9001
  90  548.1996
  91  515.6797
  92  573.7284
  93  472.34
  94  420.41
  95  605.1927
  96  559.8696
  97  541.9307
  98  545.8635
  99  561.0079
 100  548.69
 101  480.1288
 102  466.2835
 103  509.8522
 104  547.4391
 105  545.2578
 106  569.9665
 107  504.5164
 108  436.5062
 109  373.0892
 110  442.2116
 111  526.6796
 112  519.1323
 113  426.9905
 114  458.7183
 115  500.7993
 116  542.7534
 117  488.3046
 118  446.4364
 119  363.1782
 120  415.707
 121  428.228
 122  468.913
 123  412.7525
 124  489.6989
 125  505.2519
 126  492.7091
 127  525.0914
 128  464.0742
 129  467.3263
 130  505.5193
 131  500.851
 132  482.6988
 133  416.5726
 134  504.0317
 135  497.262
 136  425.721
 137  616.173
 138  502.1898
 139  477.2712
 140  464.8694
 141  577.2155
 142  534.8384
 143  468.8795
 144  378.0109
 145  427.6
 146  448.4529
 147  464.5323
 148  385.6589
 149  404.8737
 150  415.9503
 151  389.0952
 152  352.1087
 153  407.1588
 154  412.5203
 155  344.8025
 156  276.8006
 157  296.412
 158  274.2924
 159  291.9026
 160  348.4507
 161  348.077
 162  339.5237
 163  345.0005
 164  389.6478
 165  303.8167
 166  311.3121
 167  319.9878
 168  339.6412
 169  302.5172
 170  324.1627
 171  407.4747
 172  462.2957
 173  351.5763
 174  297.4579
 175  371.3948
 176  369.0957
 177  372.0649
 178  381.583
 179  395.8329
 180  424.4346
 181  424.8646
 182  380.2958
 183  418.8987
 184  482.04
 185  394.5259
 186  378.5009
 187  386.6231
 188  415.7917
 189  396.322
 190  346.5088
 191  406.766
 192  425.0376
 193  376.3357
 194  406.7934
 195  379.6959
 196  444.1768
 197  495.2839
 198  405.7568
 199  341.3192
 200  394.8605
 201  438.2513
 202  404.0442
 203  506.4492
 204  521.8235
 205  408.4848
 206  401.3108
 207  448.4528
 208  440.5604
 209  433.0246
 210  471.61
 211  457.8558
 212  441.8597
 213  428.0359
 214  459.4193
 215  434.8674
 216  471.8211
 217  476.1072
 218  443.0557
 219  400.6048
 220  389.3448
 221  486.4231
 222  587.8696
 223  479.5139
 224  425.3597
 225  480.6534
 226  444.8105
 227  472.3096
 228  407.2231
 229  396.8148
 230  397.8718
 231  463.2707
 232  407.8426
 233  394.7492
 234  367.1812
 235  326.9075
 236  282.6706
 237  391.6606
 238  415.3083
 239  357.6759
 240  337.1118
 241  340.7734
 242  388.431
 243  376.0301
 244  391.3014
 245  425.5393
 246  421.4261
 247  416.656
 248  477.2873
 249  344.1955
 250  385.4662
 251  422.7845
 252  384.9186
 253  406.3251
 254  451.3071
 255  504.944
 256  418.6301
 257  371.4121
 258  418.0056
 259  407.1415
 260  498.8953
 261  492.5783
 262  471.3448
 263  529.787
 264  455.2867
 265  460.367
 266  487.9402
 267  434.3528
 268  500.7165
 269  564.3632
 270  536.3737
 271  508.7134
 272  354.9601
 273  348.525
 274  451.8353
 275  536.2038
 276  454.4978
 277  446.8522
 278  507.0394
 279  397.4346
 280  438.1644
 281  448.3113
 282  417.2682
 283  426.6644
 284  461.9319
 285  412.5941
 286  443.3935
 287  447.8078
 288  565.0397
 289  588.3046
 290  571.9017
 291  524.54
 292  584.4167
 293  625.7666
 294  632.3211
 295  565.171
 296  570.5092
 297  476.4474
 298  485.0279
 299  446.9676
 300  463.775
 301  444.9932
 302  423.5681
 303  449.9526
 304  484.908
 305  564.518
 306  520.8447
 307  446.1022
 308  455.0262
 309  406.1103
 310  457.2435
 311  452.0947
 312  377.6906
 313  373.0289
 314  471.4757
 315  504.5309
 316  549.6023
 317  536.3531
 318  481.3941
 319  508.5271
 320  520.4767
 321  490.3114
 322  395.9796
 323  456.1039
 324  435.4868
 325  415.1761
 326  418.9449
 327  374.9524
 328  373.9604
 329  442.5578
 330  350.6985
 331  381.7514
 332  438.5576
 333  382.8358
 334  294.3827
 335  333.5652
 336  375.4693
 337  406.2022
 338  403.3552
 339  423.7935
 340  478.8928
 341  391.6922
 342  404.4701
 343  453.6164
 344  547.5912
 345  529.1016
 346  429.9592
 347  412.3583
 348  452.7914
 349  465.6759
 350  470.6501
 351  476.4129
 352  473.4595
 353  466.8568
 354  388.6288
 355  447.8718
 356  413.7772
 357  359.6405
 358  422.3039
 359  435.6522
 360  454.8292
 361  427.0707
 362  459.4807
 363  422.2676
 364  430.4572
 365  523.9522
 366  459.5835
 367  465.5768
 368  431.9838
 369  517.048
 370  510.4257
 371  466.0664
 372  422.7555
 373  437.2714
 374  466.7704
 375  454.4836
 376  418.4663
 377  440.1157
 378  493.0377
 379  509.2002
 380  433.614
 381  434.1305
 382  376.4227
 383  304.2518
 384  376.0839
 385  459.708
 386  516.9287
 387  488.2062
 388  430.2693
 389  496.4278
 390  542.5335
 391  480.9698
 392  445.4624
 393  488.0354
 394  526.9557
 395  589.5829
 396  566.8922
 397  488.7991
 398  508.0958
 399  491.5003
 400  520.9852
 401  517.7237
 402  434.4521
 403  496.5554
 404  541.8422
 405  469.6207
 406  519.5414
 407  445.2173
 408  369.1188
 409  456.0405
 410  464.5602
 411  548.0388
 412  511.296
 413  483.4368
 414  455.909
 415  443.1791
 416  435.9269
 417  504.4251
 418  471.9435
 419  454.5163
 420  436.299
 421  516.692
 422  506.0027
 423  494.1455
 424  481.5832
 425  473.5067
 426  490.5304
 427  435.0681
 428  471.0567
 429  497.8077
 430  464.4795
 431  445.2294
 432  497.9696
 433  502.3901
 434  476.6174
 435  457.1024
 436  456.918
 437  410.8718
 438  428.2797
 439  488.5805
 440  414.8693
 441  404.7796
 442  475.719
 443  510.9176
 444  446.71
 445  423.7468
 446  457.8748
 447  501.9019
 448  439.985
 449  431.3108
 450  520.3641
 451  477.9763
 452  500.8497
 453  471.9553
 454  458.9088
 455  467.7304
 456  490.9907
 457  457.5774
 458  440.4058
 459  436.2457
 460  479.7663
 461  553.7752
 462  581.3853
 463  565.2458
 464  512.5287
 465  613.663
 466  569.3168
 467  595.8785
 468  595.5892
 469  451.0777
 470  495.4835
 471  554.6556
 472  523.5121
 473  492.2905
 474  505.1714
 475  461.1648
 476  409.605
 477  365.3316
 478  361.8527
 479  456.6293
 480  438.9673
 481  507.3625
 482  525.0807
 483  522.2685
 484  397.7367
 485  329.9835
 486  368.6877
 487  392.2994
 488  364.0103
 489  348.7928
 490  403.5159
 491  431.1123
 492  415.1817
 493  429.4452
 494  380.6365
 495  454.5168
 496  472.557
 497  496.7562
 498  445.167
 499  367.2539
 500  373.8
 501  423.9344
 502  364.407
 503  406.9813
 504  483.9799
 505  483.7249
 506  510.3595
 507  527.5443
 508  555.2634
 509  639.6614
 510  928.0143
 511  1012.183
