# Input file       =  1210494378.115824_cleaned.dat
# Candidate        =  PSR_0332+5434
# Telescope        =  AR
# Epoch_topo       =  58254.351818470182
# Epoch_bary       =  N/A
# T_sample         =  0.002
# Data Folded      =  7340032
# Data Avg         =  0.0194965607123802
# Data StdDev      =  1.00018000614184 
# Profile Bins     =  512
# Profile Avg      =  279.516737143071 
# Profile StdDev   =  119.754589058695 
# Reduced chi-sqr  =  1.686
# Prob(Noise)      <  2.57e-20   (~9.2 sigma)
# P_topo (ms)      =  714.532272310516  +/- 0.000498
# P'_topo (s/s)    =  -0                +/- 2.63e-10
# P''_topo (s/s^2) =  0                 +/- 1.16e-13
# P_bary (ms)      =  N/A
# P'_bary (s/s)    =  N/A
# P''_bary (s/s^2) =  N/A
# P_orb (s)        =  N/A
# asin(i)/c (s)    =  N/A
# eccentricity     =  N/A
# w (rad)          =  N/A
# T_peri           =  N/A
######################################################
   0  1002.444
   1  962.9819
   2  745.4464
   3  499.2093
   4  284.1852
   5  355.0157
   6  393.9064
   7  246.8326
   8  279.9798
   9  294.8295
  10  269.6445
  11  253.8425
  12  299.1146
  13  344.6428
  14  376.7984
  15  349.7459
  16  342.9124
  17  285.3012
  18  237.4986
  19  194.3168
  20  174.4713
  21  236.323
  22  290.1999
  23  210.4196
  24  176.0383
  25  276.6919
  26  334.013
  27  274.1302
  28  220.7064
  29  171.3316
  30  189.2692
  31  200.5056
  32  244.2383
  33  213.0381
  34  251.5759
  35  285.6968
  36  217.3323
  37  118.1131
  38  25.45813
  39  82.30441
  40  193.2799
  41  207.83
  42  228.4233
  43  262.8918
  44  158.6582
  45  139.5873
  46  165.9858
  47  217.1581
  48  268.2918
  49  186.2444
  50  165.4552
  51  117.6227
  52  180.8863
  53  233.8106
  54  168.4089
  55  173.2009
  56  195.7985
  57  284.5462
  58  327.9671
  59  270.6909
  60  256.5685
  61  173.5454
  62  177.3054
  63  265.4815
  64  286.3777
  65  249.6713
  66  276.835
  67  315.986
  68  319.6376
  69  225.4285
  70  247.7028
  71  197.0052
  72  203.0963
  73  267.7427
  74  342.1449
  75  315.9441
  76  221.5631
  77  312.8333
  78  369.4089
  79  298.9881
  80  370.032
  81  413.82
  82  340.6626
  83  294.0045
  84  257.4864
  85  328.7686
  86  323.2824
  87  281.5396
  88  365.8967
  89  431.7509
  90  386.9033
  91  390.7278
  92  365.4569
  93  401.1096
  94  406.2161
  95  395.4334
  96  426.3988
  97  417.6015
  98  362.2038
  99  373.5508
 100  365.3134
 101  324.6246
 102  370.4452
 103  383.7953
 104  317.0991
 105  313.5747
 106  350.6479
 107  396.9236
 108  303.4498
 109  239.2872
 110  278.6282
 111  356.382
 112  205.7686
 113  237.6818
 114  264.9152
 115  270.7821
 116  249.4108
 117  301.4179
 118  208.4289
 119  231.9255
 120  303.3254
 121  335.0349
 122  288.3914
 123  307.84
 124  374.6377
 125  418.0972
 126  377.2198
 127  329.3178
 128  344.6351
 129  339.2149
 130  288.6991
 131  362.0358
 132  384.1622
 133  346.5256
 134  408.4491
 135  428.3068
 136  325.2833
 137  308.4722
 138  275.7609
 139  338.054
 140  315.9146
 141  324.2844
 142  344.4578
 143  280.9651
 144  321.5108
 145  317.4354
 146  323.5312
 147  312.5126
 148  330.5595
 149  410.9782
 150  324.5134
 151  247.0516
 152  324.3313
 153  364.619
 154  237.5396
 155  277.0335
 156  393.574
 157  390.14
 158  378.6926
 159  346.0688
 160  311.0489
 161  327.6859
 162  356.4965
 163  338.7099
 164  283.58
 165  300.0035
 166  344.6701
 167  318.6209
 168  291.8803
 169  328.2281
 170  333.8003
 171  361.7233
 172  335.6002
 173  345.7337
 174  347.1842
 175  318.9827
 176  311.6471
 177  356.3738
 178  307.9845
 179  364.1777
 180  349.683
 181  276.5927
 182  254.092
 183  346.2878
 184  403.8714
 185  263.9301
 186  303.5415
 187  329.4363
 188  343.1151
 189  324.6834
 190  392.0542
 191  396.1524
 192  305.587
 193  303.6172
 194  296.7055
 195  328.4365
 196  282.4187
 197  248.2498
 198  241.1163
 199  268.6793
 200  289.2555
 201  299.2827
 202  336.8358
 203  372.015
 204  362.6667
 205  321.0391
 206  305.7587
 207  242.6078
 208  237.1625
 209  317.1063
 210  276.993
 211  257.3934
 212  262.7672
 213  334.0048
 214  300.1843
 215  370.1506
 216  310.8217
 217  298.1188
 218  298.8156
 219  410.961
 220  371.8774
 221  373.3724
 222  379.0343
 223  351.381
 224  343.3892
 225  392.4944
 226  342.6239
 227  294.9738
 228  271.6142
 229  293.5102
 230  291.6907
 231  312.6364
 232  437.1825
 233  444.1119
 234  401.7221
 235  350.2903
 236  390.8326
 237  367.1527
 238  284.8151
 239  265.0983
 240  365.0291
 241  284.0382
 242  260.9239
 243  305.02
 244  313.5943
 245  308.7096
 246  366.8524
 247  297.7398
 248  309.8149
 249  341.6781
 250  405.0264
 251  449.4317
 252  402.9973
 253  443.1387
 254  364.0288
 255  365.2069
 256  363.6375
 257  368.7831
 258  350.2274
 259  363.9198
 260  340.8488
 261  391.257
 262  437.545
 263  450.0205
 264  358.25
 265  359.2309
 266  418.7115
 267  413.5779
 268  418.9872
 269  456.0634
 270  364.7544
 271  388.617
 272  325.2976
 273  285.1617
 274  217.3517
 275  313.3902
 276  350.1348
 277  330.3627
 278  301.6153
 279  297.6097
 280  365.6563
 281  391.9002
 282  302.0569
 283  290.5458
 284  317.4333
 285  327.8617
 286  281.9992
 287  305.6606
 288  263.8625
 289  273.854
 290  282.4741
 291  243.2206
 292  313.621
 293  328.7358
 294  292.2522
 295  260.9773
 296  179.8364
 297  225.72
 298  312.5568
 299  309.9606
 300  421.2572
 301  281.2153
 302  191.7656
 303  250.76
 304  277.1964
 305  270.1579
 306  366.2523
 307  255.5321
 308  176.8361
 309  153.5234
 310  232.1958
 311  243.0999
 312  216.3094
 313  221.2698
 314  153.8089
 315  114.5468
 316  162.8051
 317  150.2097
 318  65.68806
 319  13.4436
 320  7.362587
 321  -15.55923
 322  33.87241
 323  125.0914
 324  167.1827
 325  164.0958
 326  210.4676
 327  192.1972
 328  168.7253
 329  168.3565
 330  231.5965
 331  210.3359
 332  174.9611
 333  155.0909
 334  90.6533
 335  86.74692
 336  121.4361
 337  53.94054
 338  44.44514
 339  85.73853
 340  46.58472
 341  180.9552
 342  233.73
 343  162.8896
 344  201.712
 345  190.464
 346  244.3738
 347  199.5024
 348  152.3512
 349  156.2948
 350  71.54485
 351  45.55385
 352  57.52837
 353  93.50076
 354  126.8255
 355  235.7186
 356  226.4077
 357  214.5502
 358  56.94661
 359  118.7214
 360  162.7293
 361  104.3624
 362  100.4389
 363  122.1193
 364  116.7411
 365  143.299
 366  33.26248
 367  29.55967
 368  143.208
 369  159.1173
 370  96.77229
 371  110.0058
 372  156.2623
 373  176.7516
 374  149.8992
 375  252.5649
 376  253.6947
 377  189.9034
 378  152.9707
 379  191.6104
 380  175.2013
 381  216.3486
 382  220.9611
 383  248.6187
 384  224.6969
 385  183.4053
 386  250.6128
 387  190.1828
 388  87.48003
 389  117.9471
 390  201.5883
 391  259.0009
 392  201.8203
 393  141.7356
 394  197.8973
 395  202.4711
 396  141.1268
 397  142.7892
 398  293.7886
 399  251.1773
 400  189.3983
 401  173.0815
 402  129.0686
 403  183.0516
 404  187.3121
 405  138.3971
 406  73.22142
 407  131.016
 408  166.7678
 409  194.0894
 410  184.7455
 411  127.4009
 412  136.2464
 413  218.1292
 414  267.6548
 415  195.7897
 416  169.8913
 417  120.3846
 418  107.5857
 419  192.5093
 420  212.8737
 421  170.8158
 422  101.0849
 423  115.5956
 424  150.9893
 425  276.55
 426  269.7911
 427  259.6864
 428  279.4071
 429  300.8001
 430  251.3041
 431  282.0002
 432  284.6396
 433  253.0083
 434  296.2296
 435  289.5286
 436  286.4191
 437  304.3439
 438  318.972
 439  269.327
 440  218.5255
 441  226.056
 442  259.0756
 443  221.9443
 444  262.8406
 445  269.2524
 446  315.7758
 447  308.0988
 448  265.0695
 449  287.2035
 450  367.2052
 451  337.0341
 452  275.0925
 453  338.7465
 454  360.379
 455  304.2769
 456  350.637
 457  410.6022
 458  364.9961
 459  348.3486
 460  385.7683
 461  330.6397
 462  234.6445
 463  308.6658
 464  290.742
 465  290.1477
 466  293.4637
 467  284.5907
 468  278.1987
 469  291.2874
 470  259.4225
 471  287.9576
 472  372.6662
 473  331.8416
 474  294.1974
 475  268.5484
 476  278.1082
 477  230.9874
 478  218.0831
 479  267.3768
 480  262.8829
 481  289.252
 482  261.1387
 483  304.1162
 484  360.9583
 485  318.3172
 486  253.1675
 487  216.9944
 488  216.5313
 489  286.0422
 490  368.1985
 491  368.5838
 492  279.8517
 493  338.1883
 494  345.8977
 495  343.992
 496  293.4841
 497  256.8442
 498  264.25
 499  308.3978
 500  330.7682
 501  341.5392
 502  339.2237
 503  326.8803
 504  322.2431
 505  362.4355
 506  383.638
 507  466.3535
 508  514.2194
 509  713.5998
 510  883.6871
 511  980.4688
