# Input file       =  1210235853.118703_cleaned.dat
# Candidate        =  PSR_0332+5434
# Telescope        =  AR
# Epoch_topo       =  58251.359631003506
# Epoch_bary       =  N/A
# T_sample         =  0.002
# Data Folded      =  7340032
# Data Avg         =  -0.534858253380144
# Data StdDev      =  6.30241205965124 
# Profile Bins     =  512
# Profile Avg      =  -7669.95527319179
# Profile StdDev   =  754.606932399591 
# Reduced chi-sqr  =  0.784
# Prob(Noise)      <  1   (~0.0 sigma)
# P_topo (ms)      =  714.53518434302   +/- 0.000619
# P'_topo (s/s)    =  -0                +/- 3.27e-10
# P''_topo (s/s^2) =  0                 +/- 1.44e-13
# P_bary (ms)      =  N/A
# P'_bary (s/s)    =  N/A
# P''_bary (s/s^2) =  N/A
# P_orb (s)        =  N/A
# asin(i)/c (s)    =  N/A
# eccentricity     =  N/A
# w (rad)          =  N/A
# T_peri           =  N/A
######################################################
   0  -7832.419
   1  -7848.495
   2  -7829.354
   3  -7935.204
   4  -7757.122
   5  -7879.667
   6  -8440.789
   7  -8515.644
   8  -8614.142
   9  -8245.566
  10  -8391.308
  11  -7872.984
  12  -8060.767
  13  -8241.432
  14  -8122.249
  15  -8161.454
  16  -8124.766
  17  -8095.853
  18  -8056.762
  19  -8017.457
  20  -7733.752
  21  -7980.801
  22  -7662.717
  23  -7722.097
  24  -8075.826
  25  -7823.279
  26  -7718.687
  27  -7905.512
  28  -8031.391
  29  -8071.294
  30  -8200.576
  31  -7899.713
  32  -7528.101
  33  -7743.249
  34  -7984.762
  35  -7831.563
  36  -7954.142
  37  -8017.909
  38  -7970.275
  39  -7786.402
  40  -7777.071
  41  -7739.183
  42  -8015.574
  43  -7783.619
  44  -7567.062
  45  -7601.798
  46  -7725.326
  47  -7831.024
  48  -7436.856
  49  -7559.266
  50  -7287.678
  51  -7592.525
  52  -7669.756
  53  -7443.629
  54  -7329.71
  55  -7535.422
  56  -7408.253
  57  -7380.241
  58  -7570.824
  59  -7348.794
  60  -7448.649
  61  -7494.373
  62  -7608.966
  63  -7662.098
  64  -7447.122
  65  -7158.495
  66  -7341.531
  67  -7281.706
  68  -7252.713
  69  -7412.503
  70  -7340.446
  71  -7484.344
  72  -7859.624
  73  -8094.066
  74  -7734.294
  75  -7480.826
  76  -7326.478
  77  -7495.34
  78  -7515.352
  79  -7744.157
  80  -7779.139
  81  -8053.016
  82  -7951.372
  83  -7963.417
  84  -8309.189
  85  -8443.233
  86  -8337.731
  87  -8065.292
  88  -8287.974
  89  -8196.478
  90  -8262.942
  91  -7971.735
  92  -8117.745
  93  -8205.812
  94  -8180.102
  95  -8573.258
  96  -8457.461
  97  -8230.588
  98  -8206.289
  99  -7740.971
 100  -7941.841
 101  -8293.932
 102  -8148.866
 103  -8310.317
 104  -8112.721
 105  -8037.875
 106  -7985.958
 107  -8053.978
 108  -8055.539
 109  -7984.448
 110  -8281.077
 111  -7983.006
 112  -7957.209
 113  -7604.03
 114  -7748.442
 115  -8172.108
 116  -8306.162
 117  -8017.083
 118  -7912.536
 119  -7814.907
 120  -7792.075
 121  -7797.583
 122  -7544.242
 123  -7743.979
 124  -7822.888
 125  -8052.964
 126  -8066.977
 127  -7698.415
 128  -7682.007
 129  -7977.439
 130  -8145.753
 131  -8103.495
 132  -7976.162
 133  -8044.821
 134  -8427.175
 135  -8130.515
 136  -8168.16
 137  -8216.315
 138  -8302.472
 139  -8115.479
 140  -8114.32
 141  -8234.324
 142  -7822.992
 143  -7781.903
 144  -7718.268
 145  -7992.963
 146  -7593.292
 147  -7720.34
 148  -7511.282
 149  -7329.464
 150  -7611.785
 151  -7892.189
 152  -7983.133
 153  -7746.688
 154  -7954.128
 155  -7806.057
 156  -7636.212
 157  -7782.604
 158  -7711.256
 159  -7510.176
 160  -7408.464
 161  -7708.429
 162  -7550.549
 163  -7644.796
 164  -7862.309
 165  -7940.745
 166  -7796.881
 167  -7553.377
 168  -7641.802
 169  -7669.838
 170  -7828.418
 171  -7794.538
 172  -7872.982
 173  -7692.387
 174  -7850.949
 175  -8184.413
 176  -7759.16
 177  -7887.104
 178  -7742.181
 179  -7699.123
 180  -7815.993
 181  -7736.069
 182  -7774.188
 183  -7872.704
 184  -7830.938
 185  -7738.269
 186  -7797.933
 187  -7906.618
 188  -8302.715
 189  -7933.38
 190  -7321.908
 191  -7397.504
 192  -7291.655
 193  -7033.047
 194  -7269.351
 195  -7554.017
 196  -7421.3
 197  -7256.568
 198  -6858.941
 199  -6701.993
 200  -6568.617
 201  -7087.398
 202  -6942.288
 203  -6859.874
 204  -6551.7
 205  -6855.679
 206  -6883.947
 207  -6951.38
 208  -7125.486
 209  -7412.974
 210  -7461.764
 211  -7257.971
 212  -7043.383
 213  -7135.701
 214  -7988.032
 215  -7669.547
 216  -8081.638
 217  -8272.451
 218  -7911.648
 219  -7846.745
 220  -7750.006
 221  -7941.787
 222  -8039.736
 223  -7904.448
 224  -7839.614
 225  -7508.648
 226  -7424.961
 227  -7939.911
 228  -8293.519
 229  -8230.775
 230  -8008.688
 231  -8194.838
 232  -8074.031
 233  -8212.008
 234  -8437.271
 235  -8173.286
 236  -8371.556
 237  -8211.575
 238  -7960.428
 239  -8060.148
 240  -8186.301
 241  -8026.956
 242  -7814.552
 243  -7807.337
 244  -7916.973
 245  -7833.55
 246  -7597.926
 247  -7877.207
 248  -8003.903
 249  -7928.205
 250  -7915.016
 251  -8076.585
 252  -8048.941
 253  -8137.65
 254  -8043.875
 255  -8117.496
 256  -7958.391
 257  -7774.273
 258  -8396.738
 259  -8448.458
 260  -8362.751
 261  -7874.12
 262  -7810.116
 263  -8154.332
 264  -8113.898
 265  -8242.24
 266  -8557.485
 267  -8315.72
 268  -8013.552
 269  -8373.798
 270  -8378.423
 271  -8157.953
 272  -7779.074
 273  -8119.123
 274  -8061.06
 275  -8065.152
 276  -8295.781
 277  -8201.421
 278  -8062.809
 279  -7897.639
 280  -8047.973
 281  -8046.795
 282  -8062.821
 283  -7936.049
 284  -8111.62
 285  -7959.124
 286  -7552.625
 287  -7762.761
 288  -7975.686
 289  -8038.433
 290  -7780.093
 291  -8092.518
 292  -7915.147
 293  -7682.427
 294  -7580.475
 295  -7304.286
 296  -6829.907
 297  -6553.954
 298  -6190.692
 299  -5601.687
 300  -5650.645
 301  -6182.78
 302  -6329.749
 303  -7224.206
 304  -7860.486
 305  -7672.622
 306  -7203.049
 307  -7540.479
 308  -7928.946
 309  -8031.499
 310  -8151.709
 311  -7849.005
 312  -7563.297
 313  -7551.704
 314  -7469.562
 315  -7787.524
 316  -7755.411
 317  -7533.532
 318  -7434.45
 319  -7378.984
 320  -7580.429
 321  -7461.668
 322  -7130.813
 323  -7049.261
 324  -6916.801
 325  -7009.166
 326  -7069.369
 327  -7287.053
 328  -7356.992
 329  -7373.086
 330  -7324.002
 331  -6979.881
 332  -7201.405
 333  -7522.091
 334  -7300.421
 335  -7028.482
 336  -7109.84
 337  -6993.333
 338  -6721.69
 339  -6926.493
 340  -6935.744
 341  -7179.026
 342  -7279.692
 343  -6934.862
 344  -7228.448
 345  -7072.324
 346  -7254.251
 347  -7392.946
 348  -7229.641
 349  -7497.73
 350  -7638.758
 351  -7605.909
 352  -7488.221
 353  -7514.071
 354  -7607.725
 355  -7509.805
 356  -7562.311
 357  -7793.63
 358  -7665.993
 359  -7202.191
 360  -7147.648
 361  -7259.5
 362  -7519.267
 363  -7054.242
 364  -7175.268
 365  -7684.563
 366  -7834.33
 367  -7576.957
 368  -7501.132
 369  -7959.511
 370  -7840.072
 371  -7490.324
 372  -7741.715
 373  -7677.271
 374  -7560.92
 375  -7735.73
 376  -7773.328
 377  -7883.453
 378  -7837.587
 379  -7645.473
 380  -7581.558
 381  -7910.54
 382  -8163.611
 383  -8034.675
 384  -7948.285
 385  -7488.498
 386  -7760.892
 387  -8028.377
 388  -8150.442
 389  -8284.556
 390  -8205.827
 391  -8344.634
 392  -8525.393
 393  -8399.997
 394  -8313.22
 395  -8225.355
 396  -8424.413
 397  -8481.863
 398  -8541.42
 399  -8571.542
 400  -8072.135
 401  -7992.997
 402  -8245.965
 403  -8214.6
 404  -8009.133
 405  -7617.035
 406  -7731.133
 407  -8059.788
 408  -8423.332
 409  -8233.618
 410  -7993.831
 411  -8086.545
 412  -8063.404
 413  -8187.358
 414  -7807.225
 415  -7498.849
 416  -7882.991
 417  -7929.193
 418  -7883.734
 419  -7737.699
 420  -7975.014
 421  -7756.725
 422  -7434.068
 423  -7599.359
 424  -7763.918
 425  -7613.333
 426  -7515.358
 427  -7452.782
 428  -7603.549
 429  -7590.504
 430  -7684.922
 431  -7457.99
 432  -7395.609
 433  -7652.927
 434  -7623.146
 435  -7329.123
 436  -7640.815
 437  -7638.733
 438  -7560.13
 439  -7586.813
 440  -7377.862
 441  -7109.172
 442  -7164.132
 443  -7191.875
 444  -7221.695
 445  -7237.26
 446  -6946.756
 447  -6694.821
 448  -6759.846
 449  -6890.128
 450  -6949.466
 451  -6660.216
 452  -6808.888
 453  -6954.857
 454  -6763.07
 455  -6501.925
 456  -6926.16
 457  -6663.787
 458  -6872.422
 459  -6977.05
 460  -7075.927
 461  -7115.367
 462  -6517.375
 463  -6523.926
 464  -6494.275
 465  -6470.392
 466  -6448.021
 467  -6592.373
 468  -6432.316
 469  -6785.856
 470  -6558.318
 471  -6712.964
 472  -6957.376
 473  -6871.026
 474  -6730.358
 475  -6645.138
 476  -6914.45
 477  -6904.583
 478  -6700.452
 479  -6649.073
 480  -6895.721
 481  -6610.485
 482  -6894.105
 483  -7412.518
 484  -7493.039
 485  -7211.351
 486  -7162.802
 487  -7373.952
 488  -7250.74
 489  -7395.131
 490  -7557.354
 491  -7328.797
 492  -7536.881
 493  -7667.308
 494  -7583.865
 495  -7368.423
 496  -7527.042
 497  -7776.956
 498  -7677.973
 499  -7769.85
 500  -7800.715
 501  -7858.457
 502  -7719.64
 503  -7921.358
 504  -8115.419
 505  -8017.46
 506  -7992.52
 507  -7523.562
 508  -7539.716
 509  -7650.885
 510  -7834.485
 511  -7962.573
