# Input file       =  1210652082.10873_cleaned.dat
# Candidate        =  PSR_0332+5434
# Telescope        =  AR
# Epoch_topo       =  58256.177096165855
# Epoch_bary       =  N/A
# T_sample         =  0.002
# Data Folded      =  7143424
# Data Avg         =  0.0305148927237314
# Data StdDev      =  1.00007838826114 
# Profile Bins     =  512
# Profile Avg      =  425.719650302417 
# Profile StdDev   =  118.127843592313 
# Reduced chi-sqr  =  1.550
# Prob(Noise)      <  1.78e-14   (~7.6 sigma)
# P_topo (ms)      =  714.530469632003  +/- 0.00011
# P'_topo (s/s)    =  -0                +/- 5.96e-11
# P''_topo (s/s^2) =  0                 +/- 2.7e-14
# P_bary (ms)      =  N/A
# P'_bary (s/s)    =  N/A
# P''_bary (s/s^2) =  N/A
# P_orb (s)        =  N/A
# asin(i)/c (s)    =  N/A
# eccentricity     =  N/A
# w (rad)          =  N/A
# T_peri           =  N/A
######################################################
   0  1207.026
   1  1194.917
   2  981.8563
   3  725.7454
   4  607.2805
   5  509.1194
   6  401.8494
   7  408.7513
   8  479.2316
   9  609.2596
  10  640.4451
  11  471.4041
  12  318.7629
  13  351.4303
  14  391.5419
  15  352.7185
  16  438.6414
  17  446.8231
  18  476.5081
  19  402.5504
  20  299.1652
  21  249.9303
  22  347.8583
  23  606.4575
  24  467.8282
  25  303.6406
  26  375.3199
  27  371.8119
  28  369.5704
  29  466.8446
  30  308.2808
  31  316.3568
  32  411.5958
  33  423.6952
  34  408.1985
  35  428.7719
  36  509.658
  37  372.0375
  38  321.9122
  39  308.8291
  40  509.4439
  41  579.907
  42  434.7705
  43  448.0927
  44  413.6404
  45  396.6669
  46  312.7264
  47  288.5229
  48  265.0952
  49  263.5668
  50  400.0981
  51  436.8295
  52  415.012
  53  359.1068
  54  366.0522
  55  335.6116
  56  291.4647
  57  298.968
  58  512.8948
  59  526.4644
  60  375.6488
  61  367.2223
  62  390.6421
  63  431.2647
  64  414.9943
  65  456.651
  66  364.9074
  67  341.2696
  68  371.6631
  69  480.3694
  70  403.8102
  71  426.0523
  72  420.3706
  73  445.2546
  74  435.6548
  75  377.6991
  76  357.0829
  77  404.3951
  78  323.0049
  79  356.1413
  80  408.6651
  81  345.6076
  82  334.5707
  83  362.3488
  84  495.3753
  85  484.4854
  86  330.2629
  87  315.4753
  88  326.9335
  89  406.6097
  90  413.1287
  91  420.1329
  92  375.4212
  93  404.9849
  94  302.8112
  95  286.2311
  96  326.2339
  97  340.8586
  98  312.301
  99  309.3886
 100  353.5739
 101  412.507
 102  333.9016
 103  389.0947
 104  309.028
 105  328.4165
 106  385.4971
 107  456.4063
 108  371.886
 109  333.4742
 110  372.7193
 111  263.4178
 112  204.2571
 113  358.5039
 114  369.973
 115  251.7504
 116  409.1226
 117  398.8867
 118  359.0586
 119  314.3279
 120  391.8302
 121  471.8479
 122  354.7308
 123  354.4581
 124  213.5395
 125  360.3403
 126  566.9722
 127  577.2228
 128  394.058
 129  343.0339
 130  315.5748
 131  282.8096
 132  345.3052
 133  312.2646
 134  349.9081
 135  397.9812
 136  447.8268
 137  446.5262
 138  331.1235
 139  414.9503
 140  349.1678
 141  395.8082
 142  329.6223
 143  451.1959
 144  417.0844
 145  349.527
 146  384.3991
 147  394.7461
 148  360.8539
 149  415.0439
 150  492.2519
 151  499.8929
 152  352.7229
 153  183.2634
 154  291.3368
 155  291.4576
 156  311.7553
 157  303.2217
 158  433.1506
 159  494.921
 160  342.8858
 161  261.3739
 162  290.5367
 163  249.7217
 164  413.8779
 165  466.5699
 166  445.3333
 167  404.1317
 168  417.5739
 169  315.7576
 170  369.5018
 171  302.2211
 172  264.3536
 173  366.5885
 174  388.2909
 175  317.9718
 176  433.4769
 177  434.9473
 178  411.6924
 179  571.0345
 180  369.3263
 181  320.5652
 182  410.9816
 183  389.3487
 184  419.244
 185  459.0039
 186  368.3959
 187  388.9528
 188  398.869
 189  355.8229
 190  365.8816
 191  483.4844
 192  495.5494
 193  432.3367
 194  507.2101
 195  602.7495
 196  424.8274
 197  302.9216
 198  408.5289
 199  485.9523
 200  490.6058
 201  386.8554
 202  362.7142
 203  440.486
 204  428.3276
 205  455.482
 206  475.3044
 207  498.0438
 208  511.669
 209  466.2257
 210  475.2086
 211  375.7366
 212  381.9708
 213  508.5935
 214  520.3651
 215  466.1162
 216  391.808
 217  484.25
 218  463.268
 219  372.0403
 220  303.9087
 221  298.5782
 222  372.7296
 223  363.6779
 224  423.3645
 225  488.4648
 226  468.9287
 227  389.1015
 228  370.9848
 229  337.9469
 230  368.8549
 231  424.1572
 232  305.3472
 233  448.5035
 234  459.9114
 235  537.0084
 236  410.408
 237  426.6602
 238  408.6596
 239  474.4615
 240  568.2319
 241  331.873
 242  274.698
 243  325.0713
 244  323.6859
 245  276.1228
 246  467.5078
 247  425.8732
 248  352.2764
 249  353.8104
 250  412.1584
 251  406.5866
 252  458.4184
 253  546.9521
 254  475.118
 255  318.4744
 256  503.8249
 257  552.687
 258  584.3002
 259  442.4132
 260  301.1446
 261  336.3108
 262  363.6071
 263  410.4554
 264  306.9684
 265  330.2438
 266  589.0636
 267  660.1758
 268  555.6425
 269  483.1452
 270  425.8055
 271  420.0964
 272  406.5136
 273  345.5888
 274  479.2546
 275  477.9529
 276  513.9458
 277  378.0886
 278  419.4474
 279  433.2224
 280  315.4603
 281  248.316
 282  472.0554
 283  423.6032
 284  434.184
 285  371.5585
 286  446.5046
 287  513.8387
 288  390.5004
 289  413.2711
 290  538.8646
 291  538.9348
 292  356.1403
 293  342.5306
 294  509.553
 295  386.3967
 296  240.6938
 297  354.2516
 298  444.787
 299  597.1998
 300  548.1437
 301  454.1499
 302  334.695
 303  347.3062
 304  320.7654
 305  308.4161
 306  457.1962
 307  379.6306
 308  502.7385
 309  466.535
 310  461.5969
 311  422.2765
 312  337.131
 313  459.8346
 314  538.2636
 315  508.2578
 316  461.5624
 317  438.2263
 318  364.0124
 319  454.6752
 320  508.5884
 321  384.3248
 322  347.987
 323  502.773
 324  551.5383
 325  515.476
 326  464.0281
 327  405.0128
 328  407.9456
 329  350.5132
 330  404.506
 331  530.4854
 332  559.5813
 333  447.0559
 334  434.6993
 335  464.9181
 336  337.619
 337  329.2962
 338  417.777
 339  536.8936
 340  537.9268
 341  520.0645
 342  506.6341
 343  519.7366
 344  381.6533
 345  325.6126
 346  446.3128
 347  526.7676
 348  477.3528
 349  491.4351
 350  416.9983
 351  390.534
 352  417.6945
 353  421.5446
 354  385.9478
 355  358.9989
 356  417.1287
 357  488.2647
 358  469.429
 359  538.0836
 360  484.2605
 361  393.9274
 362  397.9189
 363  436.0542
 364  446.6782
 365  418.9828
 366  437.9571
 367  487.6246
 368  546.0216
 369  441.5667
 370  447.5055
 371  491.3508
 372  417.3288
 373  406.9428
 374  380.1669
 375  495.3467
 376  523.4509
 377  526.0327
 378  435.9695
 379  482.4359
 380  421.2322
 381  370.4503
 382  423.8362
 383  533.6055
 384  487.9536
 385  439.5022
 386  376.1994
 387  479.5241
 388  518.9293
 389  453.7816
 390  407.195
 391  361.15
 392  370.1418
 393  484.2137
 394  396.1533
 395  491.6041
 396  446.1473
 397  407.7211
 398  467.4414
 399  411.4967
 400  340.3484
 401  436.018
 402  393.9057
 403  470.0308
 404  415.2254
 405  462.5042
 406  570.5596
 407  413.1241
 408  342.1927
 409  438.1799
 410  422.8622
 411  418.2359
 412  476.9531
 413  462.921
 414  553.1688
 415  664.9493
 416  524.2435
 417  397.4481
 418  454.4359
 419  454.1288
 420  447.9613
 421  487.0901
 422  499.6379
 423  496.6291
 424  428.1028
 425  403.473
 426  422.7184
 427  396.8596
 428  405.2198
 429  413.7962
 430  500.8301
 431  510.1718
 432  476.4211
 433  374.5128
 434  373.3358
 435  373.2864
 436  342.4392
 437  399.7288
 438  459.2489
 439  496.4709
 440  437.2187
 441  356.7567
 442  304.4881
 443  370.2172
 444  424.1577
 445  465.9999
 446  329.1627
 447  365.4795
 448  399.404
 449  471.887
 450  405.2981
 451  410.4858
 452  383.6315
 453  442.3448
 454  365.9944
 455  376.3687
 456  474.8922
 457  493.5976
 458  451.8383
 459  503.4582
 460  553.0851
 461  402.9637
 462  346.3398
 463  281.507
 464  300.3375
 465  386.1869
 466  466.0203
 467  462.9074
 468  507.5494
 469  443.2226
 470  302.2239
 471  471.5638
 472  559.4388
 473  452.4697
 474  403.0155
 475  297.2978
 476  320.6754
 477  449.5497
 478  541.5485
 479  560.4835
 480  636.4626
 481  459.8553
 482  358.4338
 483  332.3863
 484  364.6441
 485  334.2561
 486  350.0739
 487  470.9105
 488  517.1212
 489  522.5146
 490  543.8152
 491  543.8792
 492  438.2724
 493  417.7808
 494  401.5599
 495  480.8983
 496  432.708
 497  428.1742
 498  439.9414
 499  403.1859
 500  455.2888
 501  397.9175
 502  379.1124
 503  332.1577
 504  490.8735
 505  719.1942
 506  718.9092
 507  659.0005
 508  648.4663
 509  745.7925
 510  934.7148
 511  1095.431
