# Input file       =  1210164609.112019_cleaned.dat
# Candidate        =  PSR_0332+5434
# Telescope        =  AR
# Epoch_topo       =  58250.535047592813
# Epoch_bary       =  N/A
# T_sample         =  0.002
# Data Folded      =  7340032
# Data Avg         =  0.0224740997110608
# Data StdDev      =  1.00007457046363 
# Profile Bins     =  512
# Profile Avg      =  322.131975515475 
# Profile StdDev   =  119.7419649248   
# Reduced chi-sqr  =  1.705
# Prob(Noise)      <  3.23e-21   (~9.4 sigma)
# P_topo (ms)      =  714.536314796703  +/- 0.000279
# P'_topo (s/s)    =  -0                +/- 1.47e-10
# P''_topo (s/s^2) =  0                 +/- 6.5e-14
# P_bary (ms)      =  N/A
# P'_bary (s/s)    =  N/A
# P''_bary (s/s^2) =  N/A
# P_orb (s)        =  N/A
# asin(i)/c (s)    =  N/A
# eccentricity     =  N/A
# w (rad)          =  N/A
# T_peri           =  N/A
######################################################
   0  1071.129
   1  1061.564
   2  859.4039
   3  617.3494
   4  521.9604
   5  426.6653
   6  345.0152
   7  331.5672
   8  378.8321
   9  326.8229
  10  252.183
  11  332.6554
  12  379.006
  13  356.5781
  14  342.457
  15  275.0929
  16  293.1143
  17  222.1886
  18  317.5407
  19  356.1291
  20  318.4325
  21  310.5821
  22  314.3251
  23  187.5538
  24  247.2113
  25  310.4021
  26  219.8699
  27  205.4795
  28  292.743
  29  256.1874
  30  262.6769
  31  208.1846
  32  231.6977
  33  323.5193
  34  314.8904
  35  285.9731
  36  270.1426
  37  360.5504
  38  330.6077
  39  260.7092
  40  291.0925
  41  241.0526
  42  202.6273
  43  375.2389
  44  418.2993
  45  311.8504
  46  258.3978
  47  258.2176
  48  299.1263
  49  350.8365
  50  361.9393
  51  325.0741
  52  303.3454
  53  348.6713
  54  446.5459
  55  405.2264
  56  356.6952
  57  232.1061
  58  142.857
  59  255.6515
  60  311.865
  61  154.5674
  62  279.981
  63  272.7215
  64  232.4685
  65  130.6163
  66  129.397
  67  248.9279
  68  483.3612
  69  369.0855
  70  209.6655
  71  328.0121
  72  372.7818
  73  427.3745
  74  317.4501
  75  316.0464
  76  395.7875
  77  406.6807
  78  403.369
  79  345.7926
  80  307.5137
  81  404.5121
  82  317.1599
  83  377.5581
  84  373.3328
  85  349.3028
  86  382.9018
  87  356.8694
  88  400.5157
  89  339.4255
  90  444.3998
  91  375.971
  92  368.135
  93  456.2264
  94  451.7796
  95  508.8521
  96  529.298
  97  405.5217
  98  358.9503
  99  307.1681
 100  361.3601
 101  427.5968
 102  393.4379
 103  493.0415
 104  446.1064
 105  458.3396
 106  444.7405
 107  459.1689
 108  540.2106
 109  484.1201
 110  365.8763
 111  428.2629
 112  423.7946
 113  452.8671
 114  433.4801
 115  370.914
 116  420.6258
 117  333.9938
 118  428.5172
 119  538.1921
 120  504.7992
 121  410.3391
 122  343.6658
 123  339.2645
 124  329.6982
 125  284.437
 126  370.0324
 127  419.1886
 128  230.1582
 129  213.4073
 130  270.8505
 131  263.2907
 132  359.3607
 133  359.6839
 134  315.0516
 135  309.7939
 136  220.0355
 137  242.3827
 138  263.774
 139  250.4534
 140  431.2482
 141  247.328
 142  267.0585
 143  323.1257
 144  355.515
 145  328.7129
 146  197.3547
 147  199.6815
 148  280.5071
 149  298.4284
 150  253.8696
 151  221.368
 152  323.0051
 153  343.4733
 154  286.7029
 155  258.6906
 156  146.6119
 157  195.9285
 158  242.9544
 159  306.533
 160  271.4277
 161  244.1843
 162  327.3823
 163  373.2437
 164  285.1181
 165  281.8998
 166  124.3205
 167  190.66
 168  198.4891
 169  391.8298
 170  406.0699
 171  326.4139
 172  400.3996
 173  544.6253
 174  427.4896
 175  243.3206
 176  274.1203
 177  344.9205
 178  366.6402
 179  454.8784
 180  390.3431
 181  407.1369
 182  550.0244
 183  547.8879
 184  368.4854
 185  332.6933
 186  287.7185
 187  327.0826
 188  334.6693
 189  366.7182
 190  339.602
 191  210.2071
 192  319.9895
 193  378.7948
 194  293.6202
 195  250.8783
 196  333.9953
 197  299.3869
 198  280.0633
 199  322.8293
 200  372.5874
 201  354.2128
 202  276.5914
 203  359.0717
 204  295.8651
 205  325.3442
 206  334.5681
 207  324.4775
 208  396.009
 209  396.7389
 210  228.9703
 211  352.3724
 212  311.2771
 213  390.5218
 214  360.8521
 215  243.1158
 216  194.9016
 217  206.8739
 218  128.0735
 219  196.3079
 220  410.0645
 221  461.1048
 222  357.868
 223  367.4419
 224  323.5921
 225  155.2012
 226  164.5889
 227  311.4081
 228  371.2128
 229  338.4276
 230  274.1061
 231  243.1306
 232  290.5436
 233  219.4268
 234  271.8631
 235  287.1451
 236  342.8832
 237  308.5233
 238  205.1878
 239  159.8054
 240  162.8256
 241  253.319
 242  331.851
 243  288.8914
 244  345.2708
 245  224.5395
 246  174.0372
 247  183.8107
 248  129.5688
 249  111.1821
 250  280.3232
 251  373.7287
 252  307.2869
 253  331.4488
 254  360.547
 255  283.137
 256  295.4944
 257  340.6941
 258  284.9515
 259  308.92
 260  370.9788
 261  292.7437
 262  327.7162
 263  248.5413
 264  260.5936
 265  221.4108
 266  250.7977
 267  315.5468
 268  325.6297
 269  195.6097
 270  308.7947
 271  297.2486
 272  330.8251
 273  457.7006
 274  418.4731
 275  260.5533
 276  152.737
 277  142.1425
 278  254.0202
 279  242.0501
 280  316.3708
 281  371.4982
 282  397.1932
 283  433.3034
 284  295.6154
 285  215.3211
 286  206.9587
 287  248.3496
 288  358.7335
 289  306.0126
 290  428.7426
 291  306.04
 292  324.6353
 293  297.7038
 294  320.0101
 295  292.9412
 296  315.6334
 297  362.5251
 298  281.1864
 299  232.442
 300  263.8351
 301  309.8806
 302  303.2126
 303  332.2257
 304  357.1754
 305  298.7774
 306  250.563
 307  340.3406
 308  332.9286
 309  288.9769
 310  238.5943
 311  217.5052
 312  262.1987
 313  264.2061
 314  356.8247
 315  370.9862
 316  373.6869
 317  355.5409
 318  340.9097
 319  314.1494
 320  390.8849
 321  416.025
 322  294.5864
 323  296.3919
 324  248.6106
 325  355.9855
 326  255.414
 327  274.7824
 328  330.3744
 329  324.4267
 330  245.6594
 331  240.8659
 332  186.9115
 333  301.5938
 334  166.8167
 335  146.0866
 336  251.5366
 337  435.8298
 338  312.1649
 339  316.4234
 340  293.4458
 341  264.306
 342  230.9548
 343  320.8509
 344  349.2988
 345  402.7306
 346  406.7942
 347  413.5866
 348  294.992
 349  242.2584
 350  315.92
 351  476.1844
 352  559.5597
 353  442.0067
 354  335.6357
 355  221.7354
 356  250.5941
 357  380.9192
 358  352.8662
 359  200.0041
 360  300.5794
 361  284.5217
 362  134.6218
 363  188.1871
 364  260.5808
 365  174.4808
 366  209.3161
 367  154.3831
 368  176.0891
 369  194.5439
 370  236.2269
 371  277.0958
 372  140.6286
 373  193.0881
 374  268.9459
 375  213.3425
 376  350.8359
 377  138.1724
 378  151.7947
 379  223.1089
 380  141.3874
 381  174.1172
 382  269.2186
 383  329.9027
 384  371.3016
 385  330.96
 386  341.1088
 387  330.9115
 388  192.3337
 389  107.8414
 390  276.6406
 391  248.3097
 392  242.4573
 393  123.392
 394  131.067
 395  285.5291
 396  297.1468
 397  319.2417
 398  282.0577
 399  288.1431
 400  285.5355
 401  251.2241
 402  260.8011
 403  270.2977
 404  264.2359
 405  319.0338
 406  297.9547
 407  246.8953
 408  323.2257
 409  275.5751
 410  327.7172
 411  407.7797
 412  353.7009
 413  329.4415
 414  238.2674
 415  200.0638
 416  216.807
 417  222.4739
 418  269.4311
 419  383.3176
 420  326.1048
 421  354.5691
 422  314.9103
 423  409.9112
 424  446.9131
 425  311.1001
 426  293.1359
 427  301.8882
 428  254.747
 429  314.5851
 430  322.7828
 431  355.3981
 432  430.2644
 433  396.4357
 434  368.3679
 435  243.1506
 436  315.6006
 437  304.0316
 438  360.3468
 439  351.9026
 440  349.8594
 441  415.5789
 442  283.6458
 443  289.2448
 444  280.8354
 445  318.3286
 446  400.6603
 447  508.9778
 448  480.8635
 449  347.6148
 450  276.8919
 451  254.0203
 452  302.9652
 453  250.5223
 454  271.6086
 455  353.982
 456  413.1596
 457  377.4492
 458  380.1348
 459  435.5343
 460  340.3555
 461  260.6729
 462  339.6588
 463  354.0104
 464  263.9926
 465  295.1368
 466  392.1155
 467  304.7254
 468  261.4105
 469  287.6016
 470  243.628
 471  289.9699
 472  401.9788
 473  464.0811
 474  444.5341
 475  340.3417
 476  330.7747
 477  291.497
 478  254.1481
 479  381.6665
 480  371.3102
 481  388.4373
 482  394.9739
 483  374.5112
 484  325.3274
 485  257.4588
 486  179.549
 487  276.0243
 488  319.7478
 489  351.8544
 490  314.8376
 491  418.2693
 492  444.5669
 493  391.8684
 494  300.7536
 495  338.542
 496  366.7097
 497  277.9306
 498  247.2017
 499  213.0088
 500  237.3814
 501  330.6839
 502  357.5189
 503  310.6731
 504  229.501
 505  267.2787
 506  344.8841
 507  595.8949
 508  683.6662
 509  795.8035
 510  1066.335
 511  1116.248
