# Input file       =  1210738238.106472_cleaned.dat
# Candidate        =  PSR_0332+5434
# Telescope        =  AR
# Epoch_topo       =  58257.174272065648
# Epoch_bary       =  N/A
# T_sample         =  0.002
# Data Folded      =  7143424
# Data Avg         =  0.157800069805063
# Data StdDev      =  5.11171682940181 
# Profile Bins     =  512
# Profile Avg      =  2201.73654856058 
# Profile StdDev   =  603.788756161079 
# Reduced chi-sqr  =  1.968
# Prob(Noise)      <  1.32e-34   (~12.2 sigma)
# P_topo (ms)      =  714.529491308335  +/- 1.98e-05
# P'_topo (s/s)    =  -0                +/- 1.07e-11
# P''_topo (s/s^2) =  0                 +/- 4.86e-15
# P_bary (ms)      =  N/A
# P'_bary (s/s)    =  N/A
# P''_bary (s/s^2) =  N/A
# P_orb (s)        =  N/A
# asin(i)/c (s)    =  N/A
# eccentricity     =  N/A
# w (rad)          =  N/A
# T_peri           =  N/A
######################################################
   0  2820.844
   1  2697.818
   2  2218.868
   3  2055.176
   4  2220.62
   5  2160.868
   6  2315.21
   7  2226.131
   8  2506.476
   9  2293.757
  10  2007.359
  11  2205.427
  12  2320.019
  13  2583.438
  14  2965.042
  15  3386.431
  16  3016.909
  17  2672.328
  18  2077.657
  19  1896.617
  20  2407.303
  21  2293.564
  22  2695.352
  23  2840.192
  24  2563.513
  25  2103.731
  26  1438.2
  27  1369.039
  28  1958.504
  29  2679.207
  30  2670.276
  31  3310.974
  32  3210.943
  33  2613.189
  34  2017.868
  35  1669.108
  36  1932.434
  37  2516.773
  38  3034.492
  39  3081.457
  40  2562.104
  41  2336.958
  42  1819.226
  43  1527.762
  44  1259.518
  45  1893.127
  46  2353.765
  47  2948.327
  48  3345.453
  49  2874.353
  50  2312.903
  51  1659.596
  52  1281.602
  53  1605.537
  54  2066.283
  55  2344.284
  56  2688.278
  57  2864.965
  58  2310.215
  59  1224.759
  60  803.9849
  61  1368.426
  62  1792.941
  63  2634.021
  64  3244.15
  65  3121.82
  66  2549.677
  67  2003.897
  68  1993.419
  69  1539.983
  70  1099.679
  71  1743.588
  72  2307.349
  73  2721.07
  74  2673.806
  75  2097.561
  76  1336.86
  77  785.1932
  78  1012.397
  79  1488.484
  80  2607.286
  81  3089.644
  82  2898.964
  83  2480.822
  84  1886.268
  85  1647.563
  86  1545.797
  87  1552.805
  88  1995.69
  89  2176.425
  90  2272.436
  91  2087.254
  92  1841.598
  93  1484.982
  94  1390.891
  95  1686.942
  96  2248.74
  97  2458.856
  98  2401.186
  99  2168.849
 100  1943.245
 101  1793.978
 102  1444.441
 103  1922.624
 104  1890.163
 105  2319.452
 106  2238.594
 107  1863.922
 108  1597.128
 109  1712.06
 110  1731.417
 111  1947.912
 112  2691.923
 113  3020.866
 114  2857.103
 115  2489.772
 116  2195.099
 117  1549.417
 118  1329.733
 119  1825.932
 120  2053.872
 121  2294.402
 122  2674.985
 123  2495.411
 124  2029.897
 125  1552.905
 126  1467.453
 127  1968.512
 128  2214.348
 129  2194.599
 130  3066.497
 131  3144.736
 132  2398.822
 133  2082.274
 134  1569.446
 135  1469.954
 136  1612.235
 137  2020.38
 138  2490.215
 139  2770.883
 140  2404.494
 141  1474.215
 142  1115.321
 143  802.3281
 144  1295.149
 145  2148.059
 146  3063.009
 147  3689.845
 148  3379.254
 149  2552.01
 150  1154.998
 151  884.0966
 152  1216.404
 153  1544.666
 154  2030.702
 155  2611.249
 156  2901.195
 157  2403.565
 158  1664.102
 159  1117.014
 160  1349.265
 161  1525.765
 162  2496.231
 163  3202.889
 164  3193.932
 165  2753.7
 166  2219.403
 167  1978.672
 168  1472.368
 169  1177.763
 170  2096.578
 171  2504.193
 172  2889.605
 173  2500.474
 174  2095.694
 175  1687.693
 176  1447.124
 177  1333.154
 178  1830.71
 179  2156.183
 180  2349.026
 181  3006.663
 182  2433.52
 183  1920.359
 184  1788.956
 185  1725.344
 186  2025.577
 187  1978.298
 188  1773.118
 189  1945.27
 190  1903.626
 191  1520.807
 192  1072.49
 193  1254.04
 194  1806.427
 195  2345.695
 196  2625.763
 197  2589.36
 198  2426.657
 199  1876.287
 200  1700.021
 201  1412.593
 202  2312.915
 203  2640.238
 204  2559.795
 205  2301.802
 206  1977.063
 207  1754.511
 208  1562.54
 209  1740.759
 210  2250.842
 211  3305.13
 212  2795.439
 213  2979.678
 214  2790.386
 215  1959.862
 216  1764.898
 217  1361.937
 218  1668.266
 219  2055.861
 220  2499.248
 221  2773.231
 222  2847.683
 223  2475.034
 224  1292.799
 225  1220.008
 226  1328.856
 227  1830.954
 228  3019.15
 229  3902.776
 230  3554.707
 231  2608.656
 232  2277.117
 233  1688.212
 234  1527.648
 235  1664.409
 236  1984.703
 237  2636.181
 238  2921.571
 239  2863.123
 240  2151.889
 241  2071.186
 242  1442.956
 243  1340.102
 244  2007.944
 245  2871.379
 246  3340.283
 247  3245.604
 248  2936.096
 249  2048.348
 250  1887.271
 251  1413.839
 252  1578.3
 253  2496.155
 254  2845.782
 255  2943.455
 256  2219.792
 257  2432.243
 258  1636.838
 259  1600.795
 260  1984.248
 261  2267.181
 262  2788.044
 263  2834.841
 264  2966.045
 265  2733.977
 266  2410.277
 267  2265.673
 268  2115.104
 269  2022.572
 270  2405.691
 271  2357.447
 272  2023.343
 273  2219.654
 274  1867.385
 275  1482.18
 276  2014.76
 277  2442.671
 278  2739.147
 279  2463.971
 280  2417.938
 281  2134.663
 282  1576.755
 283  1551.502
 284  1264.221
 285  1907.645
 286  1871.614
 287  2127.034
 288  2291.262
 289  2286.332
 290  1881.36
 291  1551.817
 292  1867.64
 293  1971.243
 294  2470.933
 295  2888.671
 296  3004.481
 297  2444.861
 298  1671.439
 299  1427.171
 300  1173.907
 301  1506.181
 302  2293.114
 303  2687.673
 304  2820.253
 305  2459.833
 306  2115.809
 307  1174.536
 308  1351.949
 309  1490.152
 310  2133.218
 311  2890.291
 312  3467.965
 313  3325.773
 314  2650.073
 315  2087.034
 316  1134.874
 317  1255.196
 318  1503.643
 319  1986.778
 320  2298.625
 321  3151.933
 322  2915.168
 323  1627.861
 324  1506.343
 325  1026.376
 326  1670.517
 327  2290.03
 328  2751.798
 329  3106.99
 330  3061.323
 331  2397.073
 332  1884.115
 333  1925.459
 334  1895.336
 335  1840.632
 336  1930.942
 337  2599.281
 338  2962.228
 339  2727.73
 340  2247.87
 341  1994.537
 342  1930.058
 343  1944.267
 344  1980.647
 345  2680.375
 346  3052.908
 347  2900.586
 348  2438.108
 349  1993.787
 350  1357.298
 351  1626.678
 352  2291.968
 353  2289.702
 354  2483.258
 355  2496.447
 356  2186.504
 357  1840.171
 358  1663.928
 359  2616.012
 360  2814.212
 361  2751.503
 362  2935.861
 363  2850.855
 364  2615.371
 365  2027.858
 366  1887.842
 367  1651.249
 368  2242.026
 369  2278.7
 370  2420.797
 371  2671.099
 372  2031.899
 373  1612.78
 374  1593.513
 375  2180.831
 376  2683.289
 377  3056.38
 378  3034.018
 379  2962.32
 380  2286.292
 381  1701.145
 382  1825.042
 383  1678.315
 384  2196.328
 385  2329.454
 386  2555.419
 387  2318.523
 388  2357.789
 389  1815.785
 390  1133.073
 391  1751.886
 392  2040.742
 393  2743.585
 394  2971.814
 395  3203.69
 396  2738.502
 397  1918.849
 398  1930.708
 399  1633.823
 400  1776.551
 401  2034.762
 402  2326.295
 403  2401.413
 404  2289.009
 405  2238.04
 406  1453.229
 407  1494.368
 408  1258.165
 409  1883.211
 410  2563.708
 411  3116.011
 412  2970.027
 413  1870.686
 414  1513.799
 415  1034.584
 416  1375.97
 417  1429.015
 418  1881.525
 419  2718.083
 420  2525.44
 421  2270.06
 422  2030.121
 423  1971.776
 424  1378.233
 425  1540.015
 426  2018.305
 427  2720.227
 428  3117.174
 429  3057.422
 430  2878.609
 431  2142.402
 432  1741.774
 433  1906.121
 434  1826.701
 435  2133.954
 436  2260.339
 437  2472.798
 438  2327.136
 439  2052.322
 440  1552.637
 441  1773.133
 442  2385.225
 443  2516.439
 444  2749.223
 445  2616.039
 446  2225.922
 447  2054.664
 448  1931.213
 449  1933.777
 450  2198.337
 451  2136.343
 452  2067.024
 453  1962.841
 454  2077.252
 455  1906.015
 456  1245.672
 457  1440.087
 458  2329.273
 459  2384.559
 460  2775.429
 461  2859.311
 462  2439.552
 463  1981.639
 464  1341.43
 465  1688.765
 466  1786.35
 467  2760.192
 468  2733.876
 469  2487.498
 470  2629.531
 471  1952.093
 472  1307.686
 473  1326.923
 474  2087.158
 475  2509.398
 476  3015.18
 477  3288.741
 478  3268.314
 479  2705
 480  1596.032
 481  1583.938
 482  1548.335
 483  2005.202
 484  2262.225
 485  2691.754
 486  3033.363
 487  2662.697
 488  2416.227
 489  2188.608
 490  2918.275
 491  3798.642
 492  4719.52
 493  5135.959
 494  4802.191
 495  3902.399
 496  2629.92
 497  2576.035
 498  1575.815
 499  1517.904
 500  1882.159
 501  2211.278
 502  2912.781
 503  3074.016
 504  2906.62
 505  2210.575
 506  1927.2
 507  1868.725
 508  1852.911
 509  2350.615
 510  2708.717
 511  3289.013
