# Input file       =  1210824426.118472_cleaned.dat
# Candidate        =  PSR_0332+5434
# Telescope        =  AR
# Epoch_topo       =  58258.171818500836
# Epoch_bary       =  N/A
# T_sample         =  0.002
# Data Folded      =  7143424
# Data Avg         =  0.165351387715702
# Data StdDev      =  5.23392571127538 
# Profile Bins     =  512
# Profile Avg      =  2306.85475435303 
# Profile StdDev   =  618.223896299098 
# Reduced chi-sqr  =  1.198
# Prob(Noise)      <  0.00136   (~3.0 sigma)
# P_topo (ms)      =  714.528510845236  +/- 3.37e-05
# P'_topo (s/s)    =  -0                +/- 1.83e-11
# P''_topo (s/s^2) =  0                 +/- 8.3e-15
# P_bary (ms)      =  N/A
# P'_bary (s/s)    =  N/A
# P''_bary (s/s^2) =  N/A
# P_orb (s)        =  N/A
# asin(i)/c (s)    =  N/A
# eccentricity     =  N/A
# w (rad)          =  N/A
# T_peri           =  N/A
######################################################
   0  2292.431
   1  2498.122
   2  2005.047
   3  1925.716
   4  2011.014
   5  2085.418
   6  1577.223
   7  1354.973
   8  1877.203
   9  2588.281
  10  2573.38
  11  2295.039
  12  2485.459
  13  2410.208
  14  2010.86
  15  1441.943
  16  1808.437
  17  2014.515
  18  1947.725
  19  1941.502
  20  1940.515
  21  1989.461
  22  2038.829
  23  1676.291
  24  2090.658
  25  2502.727
  26  2282.41
  27  2442.985
  28  2807.244
  29  2678.278
  30  2130.006
  31  1816.17
  32  1575.825
  33  2377.139
  34  2315.343
  35  2425.266
  36  1845.218
  37  1984.478
  38  2488.823
  39  2145.976
  40  2231.346
  41  2508.21
  42  3087.207
  43  2638.504
  44  2510.857
  45  2671.812
  46  2580.725
  47  2011.068
  48  1945.99
  49  2095.929
  50  2391.931
  51  2360.625
  52  2022.385
  53  1866.99
  54  2038.191
  55  1708.573
  56  2008.789
  57  2078.986
  58  2889.772
  59  3390.579
  60  2789.785
  61  2371.836
  62  2448.044
  63  2283.658
  64  1962.154
  65  2186.528
  66  2686.721
  67  3422.026
  68  2563.057
  69  2208.039
  70  2475.633
  71  2150.929
  72  1628.126
  73  1560.627
  74  2350.066
  75  3026.172
  76  3202.937
  77  2996.112
  78  2774.42
  79  2501.222
  80  1571.819
  81  1595.124
  82  2169.644
  83  2703.301
  84  2436.945
  85  2267.011
  86  2366.456
  87  2258.594
  88  2117.068
  89  1811.943
  90  2006.231
  91  2792.286
  92  2911.084
  93  2664.879
  94  2603.786
  95  2962.108
  96  2579.551
  97  2027.469
  98  2250.653
  99  2528.191
 100  2811.891
 101  2432.466
 102  2109.007
 103  2497.427
 104  2379.619
 105  1784.59
 106  1765.097
 107  2228.888
 108  2424.869
 109  2623.298
 110  2744.709
 111  3268.558
 112  3044.264
 113  2531.039
 114  2156.575
 115  2154.092
 116  2238.812
 117  2207.158
 118  2081.654
 119  2293.346
 120  2584.635
 121  2413.649
 122  1467.307
 123  2118.904
 124  2545.757
 125  2870.6
 126  2809.95
 127  2505.754
 128  2424.98
 129  2323.786
 130  1837.823
 131  1785.456
 132  2626.416
 133  2690.464
 134  2713.823
 135  2293.54
 136  2653.948
 137  2367.697
 138  1947.104
 139  2202.647
 140  2133.182
 141  3149.983
 142  3424.9
 143  2898.846
 144  2909.399
 145  2553.62
 146  2356.239
 147  1795.156
 148  1935.281
 149  2465.611
 150  2645.502
 151  2541.747
 152  2233.158
 153  2257.683
 154  1841.575
 155  1939.559
 156  1772.937
 157  2445.032
 158  2859.301
 159  2325.773
 160  2241.618
 161  2523.262
 162  2721.687
 163  1896.049
 164  2054.475
 165  2408.185
 166  2502.394
 167  2559.301
 168  1959.016
 169  2087.774
 170  2239.783
 171  2023.344
 172  1877.563
 173  2150.334
 174  2903.876
 175  2437.345
 176  2202.1
 177  2807.204
 178  3054.305
 179  2146.875
 180  1630.215
 181  2151.839
 182  2671.941
 183  2504.876
 184  1970.724
 185  2155.264
 186  1954.745
 187  1914.848
 188  2026.056
 189  2261.204
 190  2961.63
 191  3114.413
 192  3079.372
 193  2917.606
 194  2825.314
 195  2893.376
 196  2494.199
 197  2039.848
 198  2039.165
 199  2779.913
 200  2730.324
 201  2777.479
 202  2574.547
 203  2675.683
 204  2174.207
 205  2167.881
 206  2718.876
 207  2385.317
 208  2735.206
 209  2791.957
 210  3016.94
 211  2539.11
 212  2346.551
 213  2225.298
 214  2022.902
 215  2660.981
 216  2599.869
 217  1995.398
 218  1844.256
 219  2153.7
 220  2108.487
 221  1400.322
 222  1796.467
 223  2203.589
 224  2951.25
 225  2725.769
 226  2289.607
 227  2851.462
 228  2368.732
 229  1706.376
 230  1519.694
 231  2457.68
 232  2456.15
 233  2038.648
 234  1768.04
 235  2190.077
 236  2657.359
 237  1801.181
 238  2020.21
 239  2409.321
 240  2540.384
 241  2844.365
 242  2630.58
 243  2747.162
 244  2785.855
 245  2620.46
 246  2243.917
 247  2100.518
 248  2328.324
 249  2443.939
 250  2050.08
 251  1617.048
 252  2174.955
 253  2007.147
 254  1838.968
 255  1927.619
 256  2252.035
 257  2739.449
 258  2776.936
 259  2610.334
 260  2377.359
 261  2483.021
 262  1809.664
 263  1613.305
 264  2319.719
 265  2638.367
 266  3077.482
 267  2232.532
 268  2537.387
 269  2186.958
 270  1579.382
 271  1642.68
 272  1842.345
 273  2587.903
 274  2707.359
 275  2854.137
 276  2778.153
 277  2968.079
 278  2805.638
 279  2006.332
 280  1878.205
 281  2405.592
 282  2750.582
 283  2519.638
 284  2203.125
 285  2032.584
 286  1953.885
 287  1636.918
 288  1741.221
 289  2270.061
 290  2816.018
 291  3089.403
 292  2671.943
 293  3033.104
 294  3133.784
 295  2798.369
 296  3115.308
 297  3557.764
 298  4436.285
 299  4436.708
 300  4777.409
 301  4309.738
 302  3279.597
 303  2729.726
 304  2435.323
 305  3128.336
 306  3206.544
 307  3426.092
 308  3086.093
 309  2685.041
 310  3155.404
 311  2768.189
 312  2538.937
 313  2460.434
 314  3253.016
 315  3331.749
 316  2662.024
 317  2565.006
 318  2531.521
 319  2191.927
 320  1686.697
 321  1893.76
 322  2637.559
 323  3047.7
 324  3012.38
 325  2769.598
 326  3081.876
 327  2770.118
 328  1833.648
 329  1567.193
 330  2133.758
 331  2585.744
 332  2370.121
 333  2386.715
 334  2333.572
 335  2747.803
 336  1574.903
 337  1076.978
 338  1793.226
 339  2700.783
 340  3169.624
 341  3031.188
 342  3168.875
 343  2635.979
 344  2170.243
 345  1722.981
 346  2024.369
 347  2666.219
 348  2570.902
 349  2478.543
 350  2504.762
 351  2230.455
 352  1675.247
 353  1478.557
 354  1901.297
 355  2133.833
 356  2331.096
 357  2812.63
 358  2747.676
 359  2928.685
 360  3064.183
 361  1887.976
 362  1749.884
 363  2042.141
 364  2241.072
 365  2234.885
 366  1879.375
 367  1925.354
 368  2216.593
 369  1830.805
 370  1761.986
 371  2233.846
 372  2816.193
 373  2269.676
 374  2269.182
 375  2282.399
 376  2671.125
 377  2377.59
 378  1664.894
 379  1771.457
 380  2250.225
 381  2429.894
 382  1421.464
 383  1516.676
 384  2180.138
 385  1805.336
 386  1544.243
 387  1443.981
 388  2179.965
 389  2577.975
 390  2072.057
 391  1927.83
 392  2099.507
 393  2382.786
 394  1893.502
 395  1864.346
 396  2254.793
 397  2781.857
 398  2233.826
 399  1690.533
 400  1711.797
 401  1932.643
 402  1357.916
 403  1495.327
 404  1837.758
 405  2113.265
 406  2590.565
 407  2852.731
 408  2345.877
 409  2326.039
 410  2025.949
 411  1682.474
 412  1363.611
 413  1944.727
 414  2249.602
 415  2150.992
 416  1829.046
 417  1783.984
 418  2024.155
 419  1057.679
 420  1264.998
 421  1549.735
 422  2489.11
 423  2768.391
 424  2346.832
 425  2614.115
 426  2108.96
 427  1504.117
 428  1242.298
 429  1712.2
 430  2301.14
 431  2116.249
 432  2010.773
 433  2072.587
 434  2023.272
 435  1472.235
 436  1433.981
 437  1842.035
 438  2111.729
 439  2320.993
 440  2139.523
 441  2282.837
 442  2490.715
 443  2416.424
 444  2008.819
 445  1616.512
 446  1802.912
 447  2325.198
 448  2185.834
 449  1829.147
 450  2132.999
 451  2041.298
 452  1692.402
 453  2096.411
 454  2367.555
 455  2717.875
 456  1997.063
 457  2306.993
 458  2581.427
 459  2365.875
 460  1869.641
 461  1705.17
 462  2053.637
 463  2572.111
 464  2420.428
 465  1866.865
 466  1938.779
 467  2266.36
 468  2104.642
 469  2104.998
 470  2255.615
 471  2591.391
 472  2571.509
 473  2375.925
 474  2408.3
 475  2570.289
 476  2411.173
 477  1957.623
 478  1770.538
 479  2335.938
 480  2594.171
 481  2184.493
 482  1838.274
 483  2187.938
 484  1825.502
 485  1731.377
 486  1930.042
 487  2865.173
 488  2787.845
 489  2526.86
 490  2780.766
 491  2253.255
 492  2697.892
 493  2146.986
 494  1660.848
 495  1814.654
 496  2326.742
 497  2196.462
 498  2183.867
 499  2147.254
 500  1633.33
 501  1121.543
 502  1231.826
 503  2098.163
 504  3035.815
 505  2915.748
 506  2776.753
 507  2451.728
 508  2187.475
 509  1429.15
 510  1414.169
 511  1708.707
