# Input file       =  1210824426.118472_cleaned.dat
# Candidate        =  PSR_0332+5434
# Telescope        =  AR
# Epoch_topo       =  58258.171818500836
# Epoch_bary       =  N/A
# T_sample         =  0.002
# Data Folded      =  7143424
# Data Avg         =  0.0267155065128767
# Data StdDev      =  1.00003581362325 
# Profile Bins     =  512
# Profile Avg      =  372.68376245932  
# Profile StdDev   =  118.12281473635  
# Reduced chi-sqr  =  2.115
# Prob(Noise)      <  5.41e-43   (~13.7 sigma)
# P_topo (ms)      =  714.528510211747  +/- 8.73e-05
# P'_topo (s/s)    =  -0                +/- 4.74e-11
# P''_topo (s/s^2) =  0                 +/- 2.15e-14
# P_bary (ms)      =  N/A
# P'_bary (s/s)    =  N/A
# P''_bary (s/s^2) =  N/A
# P_orb (s)        =  N/A
# asin(i)/c (s)    =  N/A
# eccentricity     =  N/A
# w (rad)          =  N/A
# T_peri           =  N/A
######################################################
   0  1347.602
   1  1192.276
   2  874.1873
   3  651.9124
   4  542.2631
   5  583.2947
   6  535.1049
   7  647.1138
   8  525.2309
   9  394.3256
  10  509.4955
  11  501.5328
  12  464.8427
  13  411.256
  14  507.0094
  15  598.7396
  16  483.463
  17  424.1371
  18  450.1567
  19  368.986
  20  177.8309
  21  187.1939
  22  326.259
  23  356.2585
  24  398.5548
  25  381.6222
  26  477.8233
  27  517.9179
  28  391.3481
  29  278.9756
  30  329.4514
  31  433.6354
  32  349.6798
  33  364.0557
  34  393.9658
  35  545.5928
  36  336.8185
  37  212.8847
  38  333.6512
  39  428.5828
  40  552.3022
  41  529.0614
  42  501.8852
  43  396.7307
  44  319.2288
  45  356.0566
  46  326.9432
  47  406.8715
  48  429.8217
  49  451.6217
  50  425.0158
  51  420.5018
  52  294.7538
  53  226.7658
  54  299.4813
  55  271.7549
  56  265.3772
  57  427.1974
  58  470.659
  59  459.9409
  60  529.3563
  61  306.2527
  62  367.738
  63  335.6807
  64  337.567
  65  381.8482
  66  393.0446
  67  397.0851
  68  432.1127
  69  330.8215
  70  321.4258
  71  390.6311
  72  411.1776
  73  338.6987
  74  303.6202
  75  313.0164
  76  430.2401
  77  385.1472
  78  184.4541
  79  198.4098
  80  329.1016
  81  418.566
  82  266.7773
  83  210.4511
  84  383.3896
  85  321.4519
  86  201.2602
  87  216.6787
  88  287.6234
  89  245.2951
  90  250.4681
  91  283.5843
  92  274.9708
  93  326.6759
  94  343.4277
  95  281.0232
  96  261.233
  97  414.5923
  98  363.236
  99  258.6264
 100  255.8571
 101  275.8172
 102  171.6853
 103  259.9306
 104  247.4398
 105  266.2307
 106  339.2822
 107  451.7676
 108  271.5635
 109  292.559
 110  363.675
 111  302.5314
 112  286.7283
 113  289.4776
 114  337.4417
 115  342.029
 116  192.9126
 117  208.6915
 118  328.1552
 119  139.2454
 120  203.5282
 121  118.9784
 122  335.2189
 123  344.5693
 124  278.5129
 125  358.2492
 126  251.9299
 127  203.8729
 128  190.0879
 129  224.3692
 130  344.8461
 131  247.926
 132  215.7636
 133  379.89
 134  350.2109
 135  245.7335
 136  168.3012
 137  260.2353
 138  274.1087
 139  230.1515
 140  227.2094
 141  230.2701
 142  271.2285
 143  307.5956
 144  357.6849
 145  211.3459
 146  121.9095
 147  297.2561
 148  337.2447
 149  229.8182
 150  265.3036
 151  231.1445
 152  221.1616
 153  305.1157
 154  287.9462
 155  401.2115
 156  245.7316
 157  284.7042
 158  419.4883
 159  298.9356
 160  158.2555
 161  175.0112
 162  252.1193
 163  329.9548
 164  368.6854
 165  294.474
 166  337.1697
 167  387.9015
 168  345.9971
 169  300.1908
 170  358.2213
 171  302.6844
 172  306.1573
 173  338.7306
 174  325.4351
 175  374.7483
 176  407.8
 177  339.5776
 178  207.115
 179  325.1602
 180  370.333
 181  365.2322
 182  287.8538
 183  351.3622
 184  294.8408
 185  246.4111
 186  271.9265
 187  489.6485
 188  415.4514
 189  285.7551
 190  405.4281
 191  369.0478
 192  441.1282
 193  347.256
 194  238.9821
 195  268.4521
 196  298.0043
 197  298.6759
 198  389.9389
 199  353.0571
 200  157.5531
 201  50.0036
 202  254.2147
 203  401.4517
 204  487.3851
 205  425.8614
 206  406.669
 207  390.71
 208  299.7368
 209  226.0935
 210  213.8256
 211  284.9234
 212  418.9901
 213  464.1537
 214  286.8151
 215  285.1437
 216  377.5813
 217  336.9836
 218  291.5369
 219  270.5436
 220  289.0648
 221  472.2854
 222  418.0957
 223  372.5802
 224  336.6557
 225  312.3525
 226  324.2825
 227  205.7415
 228  174.791
 229  228.4038
 230  341.7338
 231  381.2499
 232  337.4979
 233  237.1164
 234  329.0769
 235  295.99
 236  298.9857
 237  407.8892
 238  388.2262
 239  477.5918
 240  553.6406
 241  428.6934
 242  359.6517
 243  378.0057
 244  262.6003
 245  356.0143
 246  309.7254
 247  439.9808
 248  331.475
 249  318.8684
 250  449.3112
 251  458.5943
 252  439.6091
 253  412.1881
 254  497.2274
 255  405.4068
 256  390.4731
 257  421.9591
 258  437.9509
 259  367.3343
 260  392.0186
 261  301.9316
 262  289.0754
 263  354.733
 264  348.3811
 265  240.6833
 266  328.3982
 267  319.4168
 268  416.0982
 269  333.7831
 270  398.9778
 271  552.1985
 272  435.7865
 273  366.5518
 274  407.4453
 275  366.8652
 276  324.9663
 277  369.4992
 278  458.0712
 279  586.1882
 280  380.0946
 281  333.3528
 282  417.2612
 283  329.6491
 284  269.4246
 285  284.7254
 286  346.9757
 287  466.8117
 288  561.9777
 289  526.214
 290  477.9733
 291  415.7036
 292  313.6526
 293  250.8951
 294  305.9377
 295  320.2798
 296  310.9417
 297  409.5915
 298  413.2188
 299  375.3956
 300  336.2393
 301  284.5812
 302  266.2548
 303  419.9825
 304  439.0995
 305  373.256
 306  368.3057
 307  477.5369
 308  413.8633
 309  420.325
 310  419.1977
 311  413.6084
 312  490.1294
 313  398.8605
 314  318.4658
 315  434.5823
 316  480.6768
 317  392.4355
 318  417.3148
 319  398.6233
 320  447.6102
 321  512.5819
 322  468.7735
 323  540.8331
 324  514.7379
 325  389.1878
 326  362.9566
 327  437.9569
 328  342.6702
 329  374.4222
 330  329.4315
 331  352.8776
 332  383.2717
 333  443.96
 334  282.7418
 335  357.945
 336  364.5465
 337  351.203
 338  446.0299
 339  350.1523
 340  280.822
 341  372.5899
 342  373.3221
 343  320.0202
 344  449.9759
 345  370.2537
 346  406.9817
 347  366.8419
 348  543.6277
 349  458.3057
 350  400.9359
 351  453.0294
 352  349.8186
 353  536.2224
 354  621.868
 355  416.4756
 356  503.1046
 357  444.9498
 358  424.3261
 359  375.4454
 360  375.0646
 361  426.4799
 362  435.6451
 363  507.0525
 364  480.4836
 365  389.625
 366  310.8867
 367  351.9776
 368  266.7727
 369  299.6797
 370  431.6511
 371  397.7381
 372  392.4671
 373  456.3398
 374  441.1791
 375  323.2607
 376  345.1588
 377  437.0458
 378  412.0547
 379  515.5402
 380  413.1845
 381  348.1987
 382  408.0397
 383  336.8015
 384  325.4428
 385  385.8115
 386  561.47
 387  422.9589
 388  266.4602
 389  453.0692
 390  533.8749
 391  394.9122
 392  327.56
 393  368.6716
 394  421.465
 395  313.1707
 396  324.4295
 397  385.393
 398  354.0351
 399  298.2456
 400  476.9211
 401  491.6906
 402  507.2573
 403  514.7955
 404  486.7252
 405  450.9656
 406  402.5741
 407  571.0159
 408  541.7433
 409  369.373
 410  270.4962
 411  396.9332
 412  508.6677
 413  520.6361
 414  416.2454
 415  437.9057
 416  372.3945
 417  435.154
 418  528.8314
 419  292.0631
 420  344.7086
 421  412.7391
 422  418.6596
 423  364.8558
 424  458.424
 425  452.6942
 426  388.1295
 427  388.6111
 428  301.8223
 429  182.4144
 430  212.7107
 431  344.4208
 432  370.5694
 433  203.9639
 434  324.6155
 435  301.3999
 436  341.8637
 437  321.0307
 438  256.3213
 439  391.4723
 440  321.9394
 441  192.7917
 442  166.3707
 443  325.8145
 444  265.1471
 445  227.4536
 446  217.5532
 447  281.9766
 448  481.2988
 449  378.1151
 450  319.2409
 451  358.4738
 452  305.1125
 453  405.3443
 454  398.633
 455  394.125
 456  510.9714
 457  487.9099
 458  441.6334
 459  330.1162
 460  409.2594
 461  439.329
 462  337.1911
 463  229.331
 464  321.3616
 465  376.4894
 466  374.7603
 467  369.9493
 468  377.4854
 469  426.4808
 470  405.4775
 471  350.0587
 472  273.1795
 473  395.6766
 474  360.9503
 475  224.9343
 476  311.8973
 477  418.152
 478  582.6691
 479  411.3199
 480  431.2029
 481  420.487
 482  283.002
 483  260.5607
 484  232.4148
 485  319.1704
 486  397.2361
 487  436.5704
 488  411.1859
 489  510.1202
 490  618.593
 491  464.2791
 492  390.9434
 493  415.1603
 494  456.9974
 495  444.2665
 496  418.9793
 497  301.692
 498  314.7574
 499  249.8061
 500  284.7742
 501  231.1228
 502  382.0202
 503  621.1097
 504  427.2929
 505  443.475
 506  597.5376
 507  667.1922
 508  657.6688
 509  782.6744
 510  1035.63
 511  1201.542
