# Input file       =  1210595454.117564_cleaned.dat
# Candidate        =  PSR_0332+5434
# Telescope        =  AR
# Epoch_topo       =  58255.521679601436
# Epoch_bary       =  N/A
# T_sample         =  0.002
# Data Folded      =  7340032
# Data Avg         =  0.279093918173333
# Data StdDev      =  5.46745835108926 
# Profile Bins     =  512
# Profile Avg      =  4001.09766961644 
# Profile StdDev   =  654.635389639424 
# Reduced chi-sqr  =  0.988
# Prob(Noise)      <  0.567   (~0.0 sigma)
# P_topo (ms)      =  714.531462539412  +/- 0.000203
# P'_topo (s/s)    =  -0                +/- 1.07e-10
# P''_topo (s/s^2) =  0                 +/- 4.74e-14
# P_bary (ms)      =  N/A
# P'_bary (s/s)    =  N/A
# P''_bary (s/s^2) =  N/A
# P_orb (s)        =  N/A
# asin(i)/c (s)    =  N/A
# eccentricity     =  N/A
# w (rad)          =  N/A
# T_peri           =  N/A
######################################################
   0  3675.032
   1  3410.296
   2  3980.005
   3  3575.757
   4  4138.146
   5  4168.129
   6  3977.496
   7  4330.937
   8  4274.7
   9  4523.295
  10  4211.685
  11  4367.015
  12  4156.244
  13  4253.342
  14  4220.062
  15  4277.773
  16  4287.103
  17  4072.534
  18  3880.846
  19  4016.097
  20  4122.699
  21  4577.31
  22  4970.743
  23  4960.282
  24  4795.242
  25  5165.916
  26  4817.442
  27  4386.32
  28  4059.907
  29  4419.672
  30  4861.53
  31  4813.972
  32  4881.765
  33  4668.051
  34  4729.598
  35  4441.157
  36  4654.803
  37  4716.041
  38  4319.182
  39  4697.548
  40  4797.586
  41  4240.406
  42  3894.571
  43  3573.464
  44  3601.687
  45  3945.488
  46  4049.066
  47  4146.058
  48  4469.597
  49  4405.403
  50  4251.908
  51  4409.911
  52  4551.375
  53  4169.74
  54  4508.392
  55  4910.321
  56  4850.604
  57  5064.065
  58  5027.467
  59  4562.965
  60  4147.974
  61  4554.132
  62  4688.084
  63  4678.829
  64  4797.367
  65  4900.245
  66  4459.171
  67  4465.484
  68  4234.182
  69  3881.125
  70  3775.773
  71  3903.411
  72  4549.67
  73  4832.846
  74  4596.755
  75  4170.002
  76  3993.631
  77  3883.77
  78  3464.478
  79  3614.518
  80  3515.906
  81  3383.252
  82  3600.367
  83  3800.335
  84  3540.249
  85  3599.812
  86  3355.37
  87  4052.533
  88  4151.494
  89  3480.504
  90  3278.471
  91  3501.344
  92  3541.995
  93  3647.434
  94  4047.815
  95  4338.65
  96  4536.262
  97  4773.735
  98  4471.82
  99  4066.602
 100  3914.594
 101  3729.405
 102  4071.729
 103  4296.51
 104  4151.889
 105  3772.898
 106  3731.763
 107  3894.482
 108  3492.32
 109  3679.438
 110  3722.341
 111  3769.726
 112  3737.792
 113  3889.023
 114  4174.57
 115  4225.856
 116  3720.951
 117  3199.478
 118  3246.552
 119  3084.633
 120  3793.961
 121  3823.061
 122  3579.478
 123  3392.19
 124  3194.118
 125  3641.717
 126  3638.752
 127  3407.429
 128  3641.694
 129  3711.581
 130  3628.934
 131  3881.464
 132  3648.752
 133  3344.881
 134  3843.864
 135  3715.399
 136  3920.41
 137  4083.828
 138  4040.89
 139  3961.642
 140  4030.08
 141  4217.896
 142  4046.389
 143  4030.02
 144  4037.765
 145  3790.338
 146  4016.827
 147  4071.421
 148  4224.233
 149  4067.812
 150  3811.115
 151  3511.938
 152  3616.602
 153  4043.988
 154  4109.153
 155  4479.366
 156  4649.672
 157  4262.976
 158  3870.37
 159  3823.581
 160  3292.253
 161  3359.596
 162  3515.414
 163  3437.485
 164  3569.604
 165  3757.43
 166  3664.842
 167  3517.659
 168  3360.936
 169  3803.308
 170  4055.611
 171  3845.911
 172  3843.631
 173  3717.735
 174  4079.503
 175  3991.757
 176  3773.32
 177  3984.706
 178  4004.111
 179  4021.829
 180  4240.379
 181  4336.495
 182  4454.548
 183  4492.062
 184  4151.507
 185  4299.184
 186  4287.093
 187  4900.362
 188  4879.896
 189  4719.012
 190  4502.225
 191  4329.858
 192  4299.963
 193  4406.67
 194  4701.342
 195  4716.262
 196  4522.079
 197  4025.614
 198  3522.383
 199  3698.281
 200  3895.933
 201  4085.745
 202  4165.581
 203  4403.76
 204  4118.183
 205  4011.309
 206  4031.841
 207  4047.117
 208  3970.593
 209  3561.921
 210  3678.393
 211  3349.362
 212  3407.997
 213  3793.937
 214  3739.413
 215  4249.135
 216  3956.661
 217  3919.421
 218  3958.148
 219  4076.581
 220  3880.29
 221  3517.891
 222  3643.436
 223  4284.349
 224  4534.345
 225  4441.947
 226  4243.661
 227  3947.317
 228  4034.215
 229  4271.25
 230  4019.683
 231  3907.3
 232  3933.303
 233  4110.42
 234  3923.011
 235  4186.245
 236  4363.772
 237  4440.397
 238  4427.826
 239  4166
 240  4008.52
 241  3703.226
 242  3931.284
 243  4146.705
 244  4130.922
 245  4321.543
 246  4366.86
 247  3828.858
 248  3380.372
 249  3489.965
 250  3996.428
 251  3843.055
 252  3646.182
 253  3204.77
 254  2690.47
 255  3117.596
 256  3460.834
 257  3640.599
 258  3632.262
 259  3689.256
 260  3443.257
 261  3415.589
 262  3515.806
 263  3739.107
 264  3636.472
 265  3984.077
 266  4122.793
 267  4071.915
 268  3860.978
 269  3881.257
 270  3873.152
 271  4081.101
 272  3891.139
 273  4186.42
 274  4072
 275  3400.282
 276  3769.581
 277  3975.021
 278  4005.075
 279  4266.604
 280  4895.88
 281  4716.056
 282  3764.708
 283  3854.425
 284  3972.254
 285  3613.244
 286  3547.367
 287  3510.601
 288  3698.301
 289  3942.193
 290  3317.759
 291  3255.761
 292  3092.712
 293  3001.003
 294  3220.979
 295  3452.29
 296  3859.698
 297  4533.092
 298  5418.002
 299  6244.293
 300  6114.821
 301  5576.953
 302  4842.133
 303  4187.935
 304  4164.985
 305  4414.795
 306  4619.873
 307  4370.786
 308  3966.293
 309  3629.064
 310  3247.826
 311  3738.77
 312  4484.126
 313  4777.189
 314  4929.673
 315  4700.31
 316  3971.233
 317  3566.317
 318  4068.374
 319  4063.534
 320  4228.533
 321  4052.717
 322  4089.319
 323  3609.494
 324  3378.879
 325  3329.33
 326  3253.918
 327  3643.792
 328  3758.006
 329  4046.115
 330  3787.009
 331  3338.482
 332  3157.601
 333  3334.929
 334  3818.791
 335  3777.941
 336  4009.011
 337  4057.916
 338  3889.905
 339  4049.184
 340  3509.504
 341  2918.472
 342  3339.474
 343  3817.284
 344  3779.474
 345  3906.33
 346  3864.357
 347  3451.657
 348  3742.575
 349  3817.528
 350  3810.739
 351  4382.366
 352  4123.169
 353  3479.721
 354  3901.609
 355  4355.782
 356  4311.452
 357  4021.265
 358  4215.793
 359  4068.325
 360  4444.73
 361  4472.79
 362  4272.048
 363  4183.568
 364  3740.559
 365  3420.583
 366  3590.849
 367  3804.545
 368  3617.222
 369  3928.224
 370  4081.659
 371  3548.31
 372  3073.456
 373  3029.133
 374  3194.744
 375  3270.488
 376  3741.71
 377  3954.739
 378  3863.92
 379  3651.25
 380  3478.457
 381  3554.858
 382  3518.298
 383  3702.146
 384  3516.9
 385  3681.804
 386  3665.035
 387  3742.878
 388  3853.094
 389  3750.321
 390  3890.85
 391  3996.466
 392  4204.63
 393  4572.118
 394  4440.045
 395  4371.079
 396  3949.12
 397  4056.74
 398  4242.801
 399  4685.63
 400  4775.939
 401  4363.612
 402  4412.249
 403  4374.499
 404  4499.273
 405  4347.696
 406  4671.08
 407  4757.085
 408  3822.845
 409  3630.31
 410  3781.784
 411  3914.471
 412  3833.063
 413  3698.244
 414  3686.521
 415  3386.551
 416  3325.504
 417  3021.325
 418  3147.201
 419  3525.148
 420  3537.545
 421  3474.535
 422  3455.166
 423  3399.512
 424  3289.97
 425  3379.209
 426  3847.247
 427  3400.311
 428  3677.392
 429  3679.426
 430  3418.345
 431  3689.368
 432  3462.146
 433  3771.144
 434  3947.982
 435  4122.202
 436  4274.098
 437  4106.654
 438  4481.149
 439  4279.138
 440  4042.715
 441  4813.133
 442  4882.586
 443  3997.397
 444  4064.108
 445  4384.202
 446  4538.167
 447  4346.376
 448  4300.68
 449  4224.156
 450  4556.023
 451  4767.606
 452  4760.541
 453  4384.339
 454  4072.284
 455  3887.341
 456  3735.453
 457  3459.585
 458  3354.682
 459  3888.421
 460  3781.755
 461  4256.846
 462  4282.308
 463  4187.014
 464  4162.851
 465  3618.148
 466  3727.544
 467  3840.671
 468  3830.599
 469  4072.366
 470  4135.434
 471  4044.989
 472  3742.541
 473  3964.208
 474  3614.363
 475  3542.599
 476  3860.502
 477  4097.994
 478  4403.174
 479  4096.286
 480  4004.423
 481  3667.863
 482  3469.082
 483  4183.062
 484  4388.533
 485  4204.627
 486  4409.726
 487  4678.686
 488  4644.86
 489  4564.527
 490  4868.318
 491  4698.719
 492  4811.875
 493  4626.671
 494  4543.005
 495  4920.254
 496  4817.294
 497  3869.631
 498  3834.243
 499  3695.545
 500  4098.346
 501  3974.279
 502  3620.603
 503  3262.536
 504  3540.671
 505  3433.46
 506  3151.55
 507  3768.146
 508  3900.247
 509  3742.252
 510  3576.267
 511  3799.066
