# Input file       =  1210221222.103815_cleaned.dat
# Candidate        =  PSR_0332+5434
# Telescope        =  AR
# Epoch_topo       =  58251.190290553415
# Epoch_bary       =  N/A
# T_sample         =  0.002
# Data Folded      =  7208960
# Data Avg         =  0.397265404843808
# Data StdDev      =  7.94737151946372 
# Profile Bins     =  1024
# Profile Avg      =  2796.72526612841 
# Profile StdDev   =  666.82188554472  
# Reduced chi-sqr  =  1.035
# Prob(Noise)      <  0.214   (~0.8 sigma)
# P_topo (ms)      =  714.535334985937  +/- 2.79e-05
# P'_topo (s/s)    =  -0                +/- 1.5e-11
# P''_topo (s/s^2) =  0                 +/- 6.73e-15
# P_bary (ms)      =  N/A
# P'_bary (s/s)    =  N/A
# P''_bary (s/s^2) =  N/A
# P_orb (s)        =  N/A
# asin(i)/c (s)    =  N/A
# eccentricity     =  N/A
# w (rad)          =  N/A
# T_peri           =  N/A
######################################################
   0  3084.006
   1  2934.367
   2  2845.829
   3  2909.336
   4  3048.655
   5  3421.426
   6  3137.472
   7  3012.232
   8  3152.132
   9  3041.669
  10  2881.003
  11  2480.545
  12  2571.177
  13  2551.61
  14  2339.364
  15  2521.598
  16  2489.253
  17  2563.378
  18  2588.106
  19  2862.467
  20  3152.297
  21  3048.436
  22  3491.86
  23  3567.087
  24  3372.694
  25  3162.595
  26  2961.779
  27  3213.585
  28  2974.202
  29  2960.2
  30  3063.124
  31  2980.397
  32  3355.853
  33  2998.292
  34  2778.449
  35  2866.482
  36  2858.015
  37  3218.44
  38  2918.215
  39  2859.999
  40  2926.204
  41  2693.692
  42  2785.341
  43  2443.066
  44  2640.738
  45  2778.833
  46  2554.1
  47  2571.659
  48  2436.374
  49  2615.251
  50  2808.751
  51  2773.128
  52  3144.768
  53  3127.665
  54  3517.033
  55  3548.285
  56  3196.547
  57  3147.229
  58  3058.15
  59  3343.073
  60  3219.495
  61  2693.237
  62  2706.23
  63  2489.825
  64  2740.354
  65  2708.036
  66  2617.542
  67  2708.84
  68  2609.963
  69  2982.203
  70  3010.459
  71  2939.54
  72  3139.76
  73  3049.5
  74  3156.518
  75  2814.266
  76  2677.375
  77  2735.348
  78  2452.262
  79  2540.713
  80  2343.427
  81  2389.796
  82  2522.264
  83  2552.611
  84  2743.028
  85  2571.736
  86  2813.048
  87  3260.804
  88  3292.869
  89  3489.163
  90  3442.85
  91  3454.656
  92  3256.508
  93  2878.001
  94  3104.128
  95  2965.792
  96  3113.06
  97  3136.86
  98  2806.773
  99  2723.026
 100  2562.656
 101  2918.526
 102  2985.734
 103  2953.627
 104  3050.42
 105  2791.096
 106  2645.035
 107  2449.951
 108  2388.661
 109  2576.616
 110  2372.311
 111  2556.888
 112  2527.847
 113  2589.208
 114  2566.511
 115  2563.859
 116  2695.983
 117  2953.084
 118  3028.715
 119  3413.017
 120  3249.82
 121  3386.414
 122  3082.855
 123  3060.073
 124  3266.645
 125  2963.864
 126  2787.036
 127  2534.357
 128  2713.341
 129  2856.755
 130  2513.792
 131  2669.236
 132  2568.478
 133  2721.317
 134  2805.345
 135  2780.803
 136  3147.509
 137  3198.311
 138  3355.383
 139  3244.72
 140  2828.913
 141  2815.999
 142  2625.499
 143  2463.994
 144  2239.35
 145  1931.563
 146  2280.851
 147  2081.628
 148  2261.872
 149  2484.966
 150  2631.224
 151  3050.367
 152  3122.052
 153  3407.443
 154  3465.108
 155  3571.107
 156  3770.605
 157  3299.665
 158  2966.167
 159  2650.914
 160  2667.293
 161  2885.557
 162  2704.136
 163  2701.927
 164  2740.931
 165  2686.646
 166  2794.156
 167  2536.674
 168  2756.503
 169  2807.274
 170  2901.492
 171  3163.271
 172  2831.249
 173  2828.672
 174  2611.307
 175  2766.261
 176  2732.954
 177  2696.206
 178  2994.314
 179  2787.82
 180  2453.468
 181  2337.265
 182  2390.099
 183  2789.604
 184  2954.858
 185  3164.01
 186  3200.24
 187  2908.037
 188  3269.134
 189  3097.789
 190  2947.794
 191  2847.198
 192  2807.33
 193  3091.937
 194  2840.71
 195  2904.237
 196  2810.2
 197  2770.768
 198  2877.733
 199  2628.436
 200  2763.908
 201  2856.293
 202  2958.39
 203  3125.75
 204  2984.81
 205  2823.293
 206  2670.548
 207  2484.067
 208  2551.287
 209  2263.416
 210  2357.448
 211  2251.692
 212  2199.359
 213  2402.672
 214  2377.094
 215  2545.197
 216  2493.262
 217  2704.927
 218  2969.274
 219  2848.661
 220  3234.123
 221  3284.087
 222  3193.136
 223  3062.775
 224  2784.944
 225  2957.573
 226  2824.02
 227  2760.914
 228  2770.682
 229  2533.65
 230  2879.942
 231  2753.665
 232  2677.5
 233  2634.162
 234  2453.258
 235  2920.736
 236  2794.414
 237  2852.019
 238  2760.439
 239  2522.239
 240  2510.094
 241  2164.382
 242  2385.491
 243  2660.217
 244  2529.622
 245  2543.084
 246  2337.893
 247  2521.305
 248  2720.205
 249  2750.16
 250  3175.362
 251  3048.162
 252  3207.676
 253  3217.535
 254  3048.519
 255  3048.351
 256  2801.924
 257  2874.815
 258  2637.009
 259  2273.828
 260  2457.857
 261  2666.786
 262  3140.77
 263  3109.026
 264  2773.545
 265  2817.065
 266  2726.538
 267  3106.732
 268  3066.666
 269  2982.521
 270  2915.92
 271  2683.424
 272  2727.215
 273  2268
 274  2070.763
 275  2056.331
 276  1896.251
 277  2086.989
 278  2013.668
 279  2335.473
 280  2385.036
 281  2365.086
 282  2852.627
 283  3029.862
 284  3210.478
 285  3268.322
 286  3243.543
 287  3399.94
 288  3096.692
 289  3335.83
 290  3332.593
 291  3079.018
 292  2770.261
 293  2495.198
 294  2737.133
 295  2959.816
 296  2864.88
 297  2991.237
 298  2675.769
 299  2719.919
 300  2723.434
 301  2727.408
 302  2906.178
 303  2777.204
 304  3143.231
 305  3069.527
 306  2912.894
 307  2811.619
 308  2616.848
 309  2666.093
 310  2352.076
 311  2199.11
 312  2284.231
 313  2146.006
 314  2386.5
 315  2523.708
 316  2721.804
 317  3041.135
 318  3148.108
 319  3387.39
 320  3077.917
 321  3246.9
 322  3378.549
 323  3005.393
 324  2789.927
 325  2659.625
 326  3019.177
 327  3052.282
 328  2756.565
 329  2621.33
 330  2548.076
 331  2817.633
 332  2981.19
 333  2806.46
 334  2897.852
 335  2759.637
 336  2972.958
 337  3113.02
 338  2826.069
 339  2736.825
 340  2246.43
 341  2528.87
 342  2402.508
 343  2290.5
 344  2411.853
 345  2390.826
 346  2544.45
 347  2638.072
 348  2599.743
 349  2810.943
 350  2725.736
 351  3141.7
 352  3134.268
 353  3160.552
 354  3492.227
 355  3304.86
 356  3248.781
 357  2966.132
 358  2963.667
 359  3087.073
 360  2665.063
 361  2656.728
 362  2426.151
 363  2489.561
 364  2626.926
 365  2719.878
 366  2907.311
 367  2796.782
 368  2849.871
 369  3048.639
 370  2769.146
 371  2635.798
 372  2437.553
 373  2310.892
 374  2266.795
 375  2183.586
 376  2472
 377  2077.211
 378  1898.086
 379  2210.049
 380  2498.958
 381  2842.477
 382  2713.922
 383  3093.239
 384  3094.773
 385  2898.843
 386  2984.591
 387  2854.319
 388  2925.83
 389  2834.26
 390  2811.43
 391  3086.152
 392  2896.388
 393  3025.191
 394  3070.458
 395  3104.667
 396  3245.449
 397  2870.047
 398  2957.869
 399  2727.953
 400  2628.662
 401  2775.539
 402  2566.037
 403  2528.264
 404  2332.713
 405  2276.353
 406  2443.017
 407  2117.834
 408  2293.562
 409  2267.127
 410  2382.604
 411  2472.273
 412  2338.092
 413  2590.885
 414  2780.146
 415  3064.647
 416  3350.375
 417  3142.919
 418  3355.208
 419  3333.697
 420  3221.42
 421  2990.252
 422  2552.705
 423  2777.656
 424  2525.278
 425  2469.023
 426  2321.265
 427  2292.529
 428  2578.715
 429  2515.666
 430  2766.479
 431  2794.483
 432  2904.409
 433  3202.419
 434  3231.851
 435  3157.7
 436  2836.173
 437  2661.502
 438  2741.4
 439  2333.755
 440  2318.471
 441  2313.554
 442  2265.151
 443  2149.687
 444  1837.602
 445  2072.831
 446  2271.346
 447  2504.602
 448  2944.695
 449  2972.921
 450  3416.801
 451  3398.744
 452  3390.926
 453  3245.885
 454  3047.795
 455  3317.789
 456  3132.103
 457  3052.871
 458  2818.614
 459  2617.413
 460  2850.603
 461  2770.771
 462  2722.149
 463  2730.912
 464  2567.476
 465  2747.828
 466  2709.739
 467  3040.143
 468  3185.023
 469  2885.989
 470  3029.746
 471  2669.459
 472  2677.415
 473  2523.117
 474  2463.331
 475  2460.501
 476  2187.27
 477  2195.423
 478  2370.866
 479  2355.143
 480  2609.908
 481  2655.004
 482  3271.391
 483  3619.957
 484  3648.193
 485  3541.443
 486  3089.083
 487  3255.645
 488  3236.376
 489  2942.156
 490  2719.283
 491  2284.67
 492  2607.688
 493  2561.279
 494  2626.793
 495  2698.242
 496  2639.792
 497  2969.834
 498  2951.293
 499  3241.582
 500  3432.113
 501  3164.913
 502  3234.132
 503  2932.791
 504  2613.262
 505  2374.366
 506  2103.835
 507  2356.206
 508  2080.761
 509  1954.4
 510  2073.615
 511  1993.79
 512  2336.016
 513  2396.049
 514  2633.569
 515  2873.115
 516  2949.043
 517  3486.496
 518  3289.741
 519  3274.258
 520  3238.299
 521  3246.747
 522  3265.475
 523  2784.931
 524  2841.929
 525  2898.597
 526  2807.236
 527  2829.176
 528  2549.129
 529  2675.942
 530  2597.805
 531  2559.181
 532  2762.307
 533  2590.187
 534  2861.26
 535  2853.786
 536  2634.962
 537  2591.735
 538  2477.376
 539  2783.198
 540  2412.105
 541  2218.084
 542  2346.207
 543  2075.597
 544  2147.622
 545  2234.127
 546  2631.12
 547  2785.322
 548  2657.115
 549  2896.151
 550  2859.672
 551  2845.287
 552  3038.863
 553  2813.979
 554  3043.917
 555  2648.22
 556  2698.417
 557  2646.779
 558  2460.912
 559  2581.504
 560  2447.59
 561  2859.7
 562  3021.096
 563  2826.223
 564  2952.503
 565  2831.414
 566  2852.709
 567  2841.603
 568  2552.573
 569  2538.883
 570  2106.25
 571  2197.918
 572  2103.832
 573  1879.184
 574  2033.18
 575  2009.044
 576  2313.537
 577  2358.546
 578  2331.436
 579  2616.014
 580  2734.511
 581  3298.185
 582  3305.423
 583  3276.218
 584  3409.75
 585  3399.662
 586  3234.487
 587  2944.071
 588  2824.998
 589  2974.596
 590  2752.655
 591  2842.528
 592  2714.009
 593  2787.408
 594  3225.771
 595  3466.63
 596  3762.813
 597  3774.628
 598  4069.91
 599  4435.838
 600  4243.318
 601  4174.717
 602  3806.954
 603  3564.174
 604  3404.86
 605  2927.951
 606  2810.189
 607  2318.344
 608  2119.787
 609  2210.983
 610  2149.667
 611  2616.01
 612  2616.314
 613  2803.546
 614  2916.578
 615  2873.155
 616  3177.871
 617  2999.664
 618  3023.6
 619  2825.218
 620  2710.78
 621  2973.804
 622  2770.666
 623  2920.337
 624  2599.22
 625  2611.354
 626  2870.512
 627  2728.575
 628  2756.379
 629  2717.265
 630  3046.73
 631  3399.009
 632  3338.098
 633  3520.901
 634  3110.916
 635  2668.926
 636  2456.689
 637  2059.81
 638  2085.667
 639  1875.146
 640  2028.586
 641  2031.186
 642  1820.918
 643  2035.266
 644  2167.851
 645  2463.445
 646  2865.86
 647  3028.172
 648  3459.972
 649  3378.984
 650  3530.857
 651  3509.37
 652  3259.968
 653  3315.144
 654  3140.953
 655  3036.325
 656  2746.193
 657  2290.583
 658  2441.992
 659  2429.94
 660  2652.09
 661  2628.402
 662  2513.379
 663  2808.973
 664  2930.096
 665  3247.262
 666  3199.154
 667  3017.23
 668  3036.118
 669  2918.417
 670  2769.106
 671  2572.157
 672  2310.457
 673  2482.758
 674  2250.359
 675  2237.318
 676  2075.884
 677  1989.575
 678  2362.368
 679  2755.549
 680  3204.209
 681  3184.936
 682  3134.486
 683  3243.785
 684  3025.733
 685  3078.388
 686  2807.142
 687  2742.879
 688  2603.636
 689  2424.52
 690  2649.37
 691  2699.951
 692  2755.174
 693  2740.605
 694  2658.194
 695  2848.849
 696  2801.291
 697  2846.218
 698  3168.146
 699  2938.559
 700  3143.28
 701  2720.972
 702  2591.263
 703  2328.933
 704  2107.547
 705  2434.368
 706  2240.623
 707  2402.036
 708  2443.187
 709  2430.184
 710  2576.896
 711  2452.816
 712  2737.069
 713  2968.786
 714  3157.514
 715  3353.026
 716  3032.711
 717  3066.463
 718  3243.161
 719  3103.902
 720  3152.255
 721  2632.916
 722  2742.624
 723  2696.871
 724  2573.076
 725  2677.955
 726  2300.151
 727  2717.704
 728  2785.515
 729  3006.677
 730  3070.641
 731  2877.175
 732  3042.632
 733  2883.513
 734  2774.843
 735  2677.274
 736  2382.066
 737  2452.591
 738  2203.953
 739  2226.415
 740  2339.264
 741  2138.082
 742  2352.79
 743  2429.559
 744  2640.083
 745  2717.213
 746  2593.232
 747  3097.583
 748  3046.131
 749  3283.364
 750  3354.934
 751  3103.113
 752  3098.273
 753  2846.324
 754  2896.088
 755  2885.226
 756  2789.763
 757  3141.174
 758  2875.949
 759  2918.661
 760  2803.971
 761  2635.955
 762  2625.393
 763  2592.473
 764  2797.109
 765  2979.025
 766  2623.299
 767  2653.589
 768  2145.817
 769  2325.779
 770  2233.517
 771  2343.141
 772  2579.488
 773  2439.672
 774  2454.428
 775  2163.065
 776  2206.752
 777  2494.607
 778  2708.197
 779  3170.49
 780  3260.909
 781  3307.928
 782  3443.409
 783  3402.423
 784  3408.364
 785  2953.533
 786  2651.319
 787  2674.133
 788  2490.545
 789  2654.367
 790  2288.043
 791  2358.043
 792  2462.961
 793  2582.032
 794  2991.608
 795  2945.253
 796  3213.2
 797  3371.643
 798  3342.917
 799  3496.616
 800  3007.958
 801  2934.772
 802  2781.253
 803  2464.213
 804  2303.755
 805  1928.722
 806  2063.908
 807  1960.476
 808  1742.398
 809  2036.552
 810  2225.878
 811  2805.025
 812  3127.135
 813  3169.842
 814  3401.264
 815  3203.802
 816  3284.973
 817  3062.592
 818  3053.442
 819  3279.253
 820  3060.724
 821  2986.041
 822  2688.876
 823  2664.347
 824  2806.003
 825  2785.2
 826  2858.042
 827  2601.688
 828  2500.321
 829  2681.64
 830  2656.164
 831  2977.528
 832  2878.012
 833  2834.583
 834  2589.578
 835  2361.397
 836  2483.378
 837  2490.198
 838  2538.938
 839  2537.676
 840  2307.494
 841  2477.531
 842  2404.71
 843  2625.331
 844  2834.439
 845  2819.595
 846  3241.747
 847  3331.815
 848  3717.956
 849  3572.102
 850  3251.581
 851  3328.031
 852  3140.454
 853  3011.861
 854  2590.141
 855  2385.932
 856  2625.485
 857  2563.335
 858  2677.734
 859  2577.907
 860  2569.172
 861  2941.352
 862  3146.312
 863  3440.138
 864  3315.385
 865  3004.211
 866  3080.97
 867  2737.92
 868  2545.471
 869  2113.465
 870  1929.227
 871  2245.821
 872  2073.398
 873  2391.297
 874  2417.809
 875  2749.803
 876  2881.638
 877  2862.206
 878  2979.394
 879  2929.84
 880  3302.623
 881  3573.792
 882  3286.111
 883  3204.621
 884  2946.614
 885  3096.72
 886  3034.007
 887  2988.404
 888  3082.5
 889  2852.655
 890  2931.311
 891  2961.293
 892  2649.665
 893  2780.504
 894  2507.518
 895  2879.257
 896  2833.253
 897  2708.671
 898  2846.706
 899  2650.477
 900  2661.259
 901  2396.789
 902  2475.967
 903  2783.972
 904  2460.858
 905  2533.857
 906  2589.283
 907  2495.479
 908  2698.621
 909  2615.032
 910  3124.367
 911  3176.775
 912  3173.129
 913  3361.96
 914  3093.207
 915  3216.526
 916  3253.275
 917  3186.875
 918  3115.579
 919  2543.539
 920  2694.393
 921  2688.996
 922  2915.719
 923  2975.782
 924  2696.825
 925  2780.648
 926  2795.469
 927  2817.047
 928  3038.4
 929  2921.669
 930  3292.995
 931  3123.413
 932  2958.249
 933  2563.196
 934  2312.355
 935  2485.691
 936  2336.197
 937  2348.656
 938  2306.93
 939  2196.352
 940  2250.311
 941  2241.727
 942  2490.039
 943  2741.393
 944  3030.878
 945  3703.465
 946  3452.801
 947  3261.695
 948  3174.02
 949  3437.861
 950  3570.582
 951  3216.385
 952  2981.612
 953  2701.52
 954  2495.272
 955  2685.193
 956  2350.471
 957  2529.502
 958  2699.464
 959  2946.764
 960  3079.122
 961  2657.923
 962  2853.3
 963  2824.446
 964  2955.615
 965  2937.413
 966  2653.563
 967  2594.547
 968  2271.289
 969  2260.178
 970  2546.984
 971  2482.069
 972  2585.134
 973  2365.296
 974  2337.554
 975  2629.997
 976  2687.299
 977  3078.221
 978  3054.009
 979  3207.266
 980  3320.96
 981  3151.547
 982  3252.177
 983  2841.64
 984  2827.662
 985  2850.219
 986  2880.771
 987  3035.447
 988  2774.1
 989  2998.419
 990  3114.326
 991  3214.29
 992  3163.615
 993  2779.186
 994  2785.84
 995  2968.157
 996  3034.863
 997  3275.042
 998  2889.459
 999  2803.542
1000  2527.508
1001  2370.669
1002  2466.477
1003  2193.401
1004  2483.862
1005  2405.673
1006  2414.33
1007  2483.11
1008  2384.042
1009  2815.32
1010  3098.563
1011  3220.272
1012  3373.183
1013  3344.518
1014  3826.7
1015  3561.781
1016  3337.645
1017  3368.105
1018  3288.915
1019  3288.833
1020  2893.436
1021  2667.911
1022  2836.556
1023  2762.548
