# Input file       =  1210250771.112735_cleaned.dat
# Candidate        =  PSR_0332+5434
# Telescope        =  AR
# Epoch_topo       =  58251.532292971468
# Epoch_bary       =  N/A
# T_sample         =  0.002
# Data Folded      =  7340032
# Data Avg         =  0.183122314267426
# Data StdDev      =  4.37375863497485 
# Profile Bins     =  256
# Profile Avg      =  5249.95776295402 
# Profile StdDev   =  740.600169136945 
# Reduced chi-sqr  =  1.293
# Prob(Noise)      <  0.00109   (~3.1 sigma)
# P_topo (ms)      =  714.535352038526  +/- 0.000504
# P'_topo (s/s)    =  -0                +/- 2.66e-10
# P''_topo (s/s^2) =  0                 +/- 1.17e-13
# P_bary (ms)      =  N/A
# P'_bary (s/s)    =  N/A
# P''_bary (s/s^2) =  N/A
# P_orb (s)        =  N/A
# asin(i)/c (s)    =  N/A
# eccentricity     =  N/A
# w (rad)          =  N/A
# T_peri           =  N/A
######################################################
   0  4929.827
   1  4061.582
   2  4834.301
   3  4878.655
   4  6135.073
   5  5555.486
   6  5758.342
   7  5788.246
   8  5890.136
   9  6406.709
  10  5963.47
  11  6036.859
  12  6141.532
  13  6208.831
  14  6285.336
  15  5939.152
  16  5655.603
  17  4780.859
  18  4078.007
  19  5173.711
  20  5049.753
  21  4824.558
  22  4677.838
  23  4919.838
  24  5322.033
  25  5233.756
  26  5811.406
  27  6139.078
  28  5569.075
  29  5911.789
  30  5410.694
  31  5566.825
  32  5585.562
  33  5575.401
  34  6037.869
  35  5048.675
  36  4975.338
  37  4736.668
  38  5010.715
  39  5001.195
  40  5730.094
  41  5996.58
  42  5424.167
  43  4908.737
  44  5135.236
  45  5218.572
  46  5560.833
  47  5666.929
  48  5212.205
  49  5040.056
  50  5240.811
  51  6160.217
  52  5525.396
  53  5552.689
  54  5687.466
  55  6043.228
  56  5586.009
  57  5097.58
  58  5063.466
  59  5276.699
  60  4806.792
  61  4257.667
  62  4760.512
  63  4192.457
  64  5147.654
  65  4527.924
  66  4060.333
  67  4195.383
  68  4789.235
  69  5155.617
  70  5322.137
  71  5564.8
  72  5867.683
  73  4882.257
  74  5661.234
  75  5664.726
  76  5866.21
  77  5438.432
  78  4630.798
  79  4820.202
  80  4800.931
  81  4355.151
  82  3990.892
  83  4121.142
  84  3989.64
  85  3779.218
  86  3741.871
  87  3896.165
  88  3651.064
  89  4278.42
  90  4377.043
  91  5301.033
  92  5082.152
  93  4872.423
  94  4736.623
  95  4162.865
  96  4630.455
  97  4867.784
  98  4374.09
  99  3643.724
 100  4117.955
 101  4694.788
 102  5149.497
 103  4580.105
 104  4330.957
 105  4545.28
 106  4917.524
 107  4312.761
 108  4741.144
 109  5370.011
 110  5728.911
 111  6130.182
 112  5367.221
 113  5192.698
 114  6049.947
 115  5725.079
 116  5056.629
 117  5520.176
 118  5627.558
 119  5434.982
 120  5626.063
 121  5948.746
 122  6021.942
 123  5537.754
 124  5198.894
 125  4728.344
 126  6230.613
 127  5077.793
 128  4624.157
 129  5108.341
 130  4961.311
 131  5298.763
 132  4551.44
 133  4671.91
 134  4981.059
 135  5037.203
 136  5234.679
 137  5332.605
 138  5859.45
 139  5319.397
 140  5852.596
 141  5514.557
 142  5262.514
 143  4878.503
 144  5022.561
 145  6040.707
 146  5558.426
 147  6353.179
 148  7194.476
 149  9106.241
 150  9585.247
 151  7690.783
 152  5443.377
 153  5077.928
 154  6015.934
 155  5936.484
 156  6279.233
 157  6077.262
 158  6099.204
 159  5817.006
 160  6069.391
 161  5218.819
 162  4827.127
 163  4869.131
 164  5157.162
 165  5131.687
 166  5290.544
 167  5611.685
 168  5625.41
 169  5840.531
 170  5546.252
 171  5390.975
 172  5960.543
 173  5847.704
 174  5590.72
 175  5585.879
 176  5774.463
 177  5544.503
 178  5760.14
 179  5936.066
 180  5156.945
 181  5253.594
 182  4320.365
 183  5072.75
 184  4796.788
 185  4960.721
 186  3923.724
 187  3935.824
 188  5002.069
 189  4481.001
 190  4217.778
 191  4372.312
 192  4270.393
 193  4760.65
 194  4693.466
 195  5468.028
 196  4914.466
 197  5569.819
 198  5542.471
 199  6047.081
 200  6426.948
 201  5930.393
 202  6009.594
 203  5844.388
 204  5516.871
 205  4698.789
 206  5273.513
 207  5094.427
 208  4324.023
 209  4626.036
 210  4920.309
 211  4717.097
 212  4731.119
 213  5414.422
 214  5179.636
 215  5886.917
 216  5581.884
 217  5317.312
 218  5868.267
 219  5337.213
 220  5756.704
 221  5359.895
 222  5876.303
 223  5608.897
 224  5152.222
 225  5433.947
 226  5005.038
 227  5594.714
 228  4969.24
 229  4455.362
 230  4832.66
 231  4531.729
 232  4275.144
 233  4708.069
 234  4911.902
 235  5309.897
 236  4794.444
 237  5039.947
 238  5007.361
 239  6189.121
 240  5597.703
 241  4749.883
 242  5256.875
 243  5378.08
 244  4846.86
 245  4663.286
 246  4865.216
 247  4838.114
 248  5614.657
 249  5403.309
 250  5998.661
 251  5444.871
 252  5321.952
 253  5157.364
 254  4295.374
 255  4654.664
