# Input file       =  1210824426.118472_cleaned.dat
# Candidate        =  PSR_0332+5434
# Telescope        =  AR
# Epoch_topo       =  58258.171818500836
# Epoch_bary       =  N/A
# T_sample         =  0.002
# Data Folded      =  7143424
# Data Avg         =  0.0267155065128767
# Data StdDev      =  1.00003581362325 
# Profile Bins     =  512
# Profile Avg      =  372.683759180472 
# Profile StdDev   =  118.12281473635  
# Reduced chi-sqr  =  2.115
# Prob(Noise)      <  5.48e-43   (~13.7 sigma)
# P_topo (ms)      =  714.528510945819  +/- 8.92e-05
# P'_topo (s/s)    =  -0                +/- 4.83e-11
# P''_topo (s/s^2) =  0                 +/- 2.19e-14
# P_bary (ms)      =  N/A
# P'_bary (s/s)    =  N/A
# P''_bary (s/s^2) =  N/A
# P_orb (s)        =  N/A
# asin(i)/c (s)    =  N/A
# eccentricity     =  N/A
# w (rad)          =  N/A
# T_peri           =  N/A
######################################################
   0  425.1567
   1  317.3186
   2  365.1006
   3  324.0978
   4  357.8681
   5  388.8969
   6  401.495
   7  423.2128
   8  392.064
   9  308.0816
  10  351.4875
  11  420.3709
  12  385.8823
  13  310.4811
  14  293.1978
  15  370.5187
  16  440.9081
  17  292.032
  18  159.6951
  19  243.3999
  20  403.2975
  21  362.1565
  22  213.9844
  23  271.8645
  24  393.3152
  25  245.5509
  26  197.2135
  27  267.4141
  28  255.7467
  29  262.583
  30  247.4391
  31  296.0296
  32  279.0062
  33  362.6298
  34  314.9824
  35  244.4739
  36  318.4754
  37  422.3038
  38  302.1301
  39  249.9007
  40  287.9754
  41  228.0602
  42  189.3431
  43  279.6649
  44  231.9682
  45  297.6024
  46  406.0465
  47  390.2346
  48  227.0287
  49  367.2387
  50  333.9886
  51  301.3351
  52  261.2176
  53  316.638
  54  342.8042
  55  295.9862
  56  146.4403
  57  314.5835
  58  229.1415
  59  170.9698
  60  161.9965
  61  187.104
  62  399.2851
  63  277.6546
  64  328.9511
  65  307.1433
  66  224.1699
  67  199.1876
  68  189.4888
  69  283.2228
  70  339.2665
  71  172.5177
  72  310.1218
  73  380.1289
  74  326.002
  75  184.0249
  76  211.2864
  77  272.21
  78  252.9247
  79  224.4873
  80  221.3566
  81  249.3317
  82  274.6334
  83  342.8376
  84  323.7366
  85  130.2133
  86  194.6033
  87  345.8122
  88  276.0626
  89  246.6403
  90  255.7234
  91  216.9263
  92  270.7621
  93  307.2347
  94  334.3242
  95  356.3626
  96  203.425
  97  367.1347
  98  397.7714
  99  197.1002
 100  168.0219
 101  210.5186
 102  283.9587
 103  377.0272
 104  319.1274
 105  310.8286
 106  358.8393
 107  387.7121
 108  304.0179
 109  332.1987
 110  343.4632
 111  290.857
 112  328.4508
 113  329.4317
 114  341.0187
 115  393.5114
 116  397.6652
 117  261.4408
 118  230.9076
 119  374.6404
 120  376.2205
 121  317.7055
 122  312.5528
 123  336.7592
 124  273.0949
 125  229.9862
 126  373.1932
 127  503.7675
 128  311.3676
 129  345.7478
 130  399.7932
 131  401.9967
 132  428.3776
 133  268.2987
 134  241.1033
 135  300.0791
 136  286.4486
 137  332.9482
 138  404.2805
 139  265.7809
 140  85.62434
 141  105.0269
 142  356.0325
 143  441.9267
 144  481.2267
 145  401.4989
 146  401.2708
 147  358.6966
 148  258.7278
 149  210.2624
 150  236.7122
 151  344.1946
 152  468.413
 153  398.4472
 154  240.1262
 155  354.1379
 156  357.1605
 157  315.3111
 158  281.956
 159  258.3121
 160  385.2896
 161  455.8521
 162  397.3479
 163  348.9055
 164  326.4096
 165  321.7804
 166  283.47
 167  174.1523
 168  197.0087
 169  279.0764
 170  361.7387
 171  369.7239
 172  278.874
 173  266.2804
 174  355.2017
 175  258.5331
 176  360.5579
 177  390.9902
 178  414.1492
 179  537.4407
 180  517.8629
 181  371.9408
 182  383.1558
 183  311.1089
 184  303.2547
 185  329.4526
 186  368.1339
 187  418.0545
 188  297.2292
 189  369.1063
 190  470.6042
 191  449.687
 192  426.7663
 193  444.6572
 194  497.1029
 195  353.9022
 196  420.2729
 197  428.0946
 198  422.1284
 199  368.826
 200  378.8149
 201  247.7732
 202  342.5771
 203  342.7199
 204  318.9509
 205  241.3155
 206  347.4978
 207  344.144
 208  414.4872
 209  312.6565
 210  511.3648
 211  496.6502
 212  393.2448
 213  378.5736
 214  404.9232
 215  346.0669
 216  329.1205
 217  406.9909
 218  536.8552
 219  528.94
 220  302.7046
 221  389.1293
 222  397.3395
 223  273.7912
 224  293.9342
 225  279.201
 226  409.7577
 227  530.7246
 228  542.8049
 229  503.5021
 230  434.7514
 231  390.8843
 232  275.1672
 233  256.282
 234  339.4948
 235  290.5399
 236  373.2688
 237  421.8375
 238  402.3219
 239  346.9182
 240  318.8474
 241  244.8188
 242  344.8247
 243  445.8482
 244  426.079
 245  341.486
 246  433.9253
 247  456.3602
 248  400.5535
 249  429.8334
 250  398.3852
 251  454.8253
 252  463.4015
 253  336.1835
 254  369.6619
 255  473.573
 256  442.3551
 257  395.0342
 258  414.7079
 259  405.1902
 260  486.6747
 261  495.0252
 262  482.25
 263  570.2124
 264  439.7156
 265  369.8871
 266  401.7982
 267  414.589
 268  330.9058
 269  355.067
 270  320.5938
 271  376.977
 272  428.4735
 273  372.8529
 274  296.8275
 275  394.9337
 276  341.2736
 277  387.3438
 278  429.9715
 279  283.1399
 280  312.1333
 281  408.98
 282  321.6287
 283  402.1499
 284  411.2727
 285  381.3057
 286  386.422
 287  434.7281
 288  552.3459
 289  380.5136
 290  443.8882
 291  408.3104
 292  398.671
 293  636.3113
 294  517.2654
 295  430.0701
 296  506.3368
 297  415.4493
 298  414.4638
 299  355.1536
 300  402.342
 301  424.1382
 302  466.6466
 303  508.3981
 304  443.2438
 305  336.0246
 306  346.3625
 307  309.7993
 308  263.9924
 309  359.6709
 310  450.7463
 311  366.7616
 312  431.7877
 313  453.4053
 314  397.6783
 315  302.9316
 316  408.014
 317  423.2743
 318  444.5589
 319  500.8214
 320  368.1914
 321  369.4589
 322  397.4778
 323  298.965
 324  343.579
 325  468.0207
 326  559.8716
 327  306.5538
 328  319.4698
 329  541.1638
 330  464.5561
 331  360.908
 332  322.6085
 333  423.9623
 334  356.7033
 335  307.3746
 336  343.3771
 337  415.2339
 338  285.3388
 339  382.7051
 340  488.4042
 341  494.7065
 342  523.8422
 343  504.6835
 344  484.6111
 345  400.8391
 346  483.5781
 347  574.3907
 348  481.0811
 349  279.3023
 350  327.6862
 351  448.8804
 352  542.0733
 353  469.3988
 354  419.9806
 355  428.1712
 356  363.0898
 357  523.6007
 358  418.0722
 359  264.6449
 360  392.5328
 361  427.1373
 362  402.9265
 363  386.3909
 364  484.1681
 365  399.9137
 366  410.0384
 367  349.0434
 368  238.4979
 369  172.5429
 370  269.3274
 371  401.4638
 372  264.2174
 373  238.7673
 374  343.5214
 375  304.6836
 376  380.9883
 377  249.7122
 378  330.584
 379  368.6049
 380  259.5974
 381  160.7621
 382  232.0747
 383  327.6406
 384  227.822
 385  226.7762
 386  226.1504
 387  388.4364
 388  472.8061
 389  313.1512
 390  341.8417
 391  345.1626
 392  311.9299
 393  454.3445
 394  344.7438
 395  481.3295
 396  494.0763
 397  496.1885
 398  360.2106
 399  360.2874
 400  431.0977
 401  420.3444
 402  258.6353
 403  256.3421
 404  352.382
 405  385.637
 406  375.3065
 407  368.4695
 408  405.5789
 409  417.4467
 410  394.847
 411  289.6738
 412  317.5212
 413  420.3914
 414  286.9795
 415  252.5455
 416  351.7797
 417  498.497
 418  531.8898
 419  372.2622
 420  480.4135
 421  345.3061
 422  262.6161
 423  244.895
 424  251.1859
 425  369.7215
 426  432.1134
 427  414.4665
 428  434.2491
 429  577.5532
 430  565.5207
 431  410.9119
 432  398.112
 433  447.1898
 434  451.0011
 435  441.8591
 436  366.5758
 437  290.5836
 438  287.8077
 439  262.23
 440  260.7553
 441  266.0253
 442  517.3044
 443  581.2205
 444  370.4722
 445  540.4909
 446  610.7333
 447  688.3978
 448  663.4557
 449  926.4165
 450  1115.955
 451  1279.415
 452  1331.137
 453  1028.246
 454  772.6324
 455  567.6168
 456  566.3325
 457  553.8931
 458  567.1776
 459  651.8141
 460  417.4162
 461  438.2551
 462  532.6843
 463  455.8309
 464  476.6389
 465  406.3815
 466  594.3773
 467  544.8065
 468  440.1936
 469  433.0197
 470  440.3277
 471  272.98
 472  144.7832
 473  261.9541
 474  347.2168
 475  396.401
 476  387.6045
 477  398.9958
 478  513.6142
 479  472.9375
 480  333.2732
 481  272.6279
 482  394.9849
 483  405.533
 484  346.0837
 485  370.5092
 486  449.9773
 487  515.4485
 488  208.7252
 489  292.5489
 490  363.4897
 491  495.8824
 492  546.5925
 493  519.9863
 494  470.9132
 495  340.9184
 496  333.3973
 497  347.0399
 498  349.502
 499  428.7989
 500  443.3833
 501  430.7278
 502  432.5162
 503  368.2156
 504  253.1109
 505  246.9546
 506  318.6495
 507  228.2195
 508  351.9476
 509  459.3956
 510  448.1795
 511  515.8027
