# Input file       =  1210250771.112735_cleaned.dat
# Candidate        =  PSR_0332+5434
# Telescope        =  AR
# Epoch_topo       =  58251.532292971468
# Epoch_bary       =  N/A
# T_sample         =  0.002
# Data Folded      =  7340032
# Data Avg         =  0.183122314267426
# Data StdDev      =  4.37375863497485 
# Profile Bins     =  512
# Profile Avg      =  2624.97888151878 
# Profile StdDev   =  523.683401744638 
# Reduced chi-sqr  =  0.999
# Prob(Noise)      <  0.501   (~0.0 sigma)
# P_topo (ms)      =  714.535352032487  +/- 0.000475
# P'_topo (s/s)    =  -0                +/- 2.51e-10
# P''_topo (s/s^2) =  0                 +/- 1.11e-13
# P_bary (ms)      =  N/A
# P'_bary (s/s)    =  N/A
# P''_bary (s/s^2) =  N/A
# P_orb (s)        =  N/A
# asin(i)/c (s)    =  N/A
# eccentricity     =  N/A
# w (rad)          =  N/A
# T_peri           =  N/A
######################################################
   0  2912.174
   1  3098.349
   2  2974.345
   3  2916.204
   4  2502.079
   5  2494.712
   6  2340.12
   7  2491.788
   8  2420.255
   9  2409.916
  10  2659.603
  11  2506.615
  12  2537.553
  13  2757.102
  14  2573.592
  15  2628.83
  16  2848.665
  17  2976.676
  18  2774.418
  19  2850.673
  20  2927.563
  21  2825.114
  22  2790.221
  23  2630.896
  24  2739.979
  25  2870.241
  26  3020.783
  27  2835.673
  28  2926.274
  29  3104.343
  30  2686.252
  31  2717.43
  32  2753.474
  33  2958.673
  34  2850.821
  35  2832.266
  36  2713.282
  37  2915.339
  38  2816.552
  39  3087.392
  40  2933.733
  41  2710.189
  42  2613.074
  43  2421.215
  44  2699
  45  2396.795
  46  2080.089
  47  2356.684
  48  2626.263
  49  2410.818
  50  2372.617
  51  2551.343
  52  2506.283
  53  2211.64
  54  1968.495
  55  1647.06
  56  2071.756
  57  2269.877
  58  2594.692
  59  2330.315
  60  2188.436
  61  2336.866
  62  1965.075
  63  2190.802
  64  2201.731
  65  2062.727
  66  2181.14
  67  2133.566
  68  2429.887
  69  2647.646
  70  2257.761
  71  2394.994
  72  2885.906
  73  2528.983
  74  2415.52
  75  2569.841
  76  2850.066
  77  2811.031
  78  2732.146
  79  2917.884
  80  3040.301
  81  3189.382
  82  3271.746
  83  3030.949
  84  2929.095
  85  3027.3
  86  2979.646
  87  2965.353
  88  2918.81
  89  2844.788
  90  2728.777
  91  2632.278
  92  2291.507
  93  2380.276
  94  2659.183
  95  2831.669
  96  2491.434
  97  2152.036
  98  2164.571
  99  2269.917
 100  2266.682
 101  2442.24
 102  2447.75
 103  2440.107
 104  2366.313
 105  2264.797
 106  2431.858
 107  2404.523
 108  2805.084
 109  2898.631
 110  2493.254
 111  2538.364
 112  3039.34
 113  3084.798
 114  2682.578
 115  2681.183
 116  2594.2
 117  2859.497
 118  2985.873
 119  2762.052
 120  2661.21
 121  2629.596
 122  2987.811
 123  2789.887
 124  2609.984
 125  3031.173
 126  2925.157
 127  2747.763
 128  2824.271
 129  2592.685
 130  2552.666
 131  2702.225
 132  2778.038
 133  2532.978
 134  2445.797
 135  2829.344
 136  2781.007
 137  2672.423
 138  2434.094
 139  2318.693
 140  2162.894
 141  2404.079
 142  2421.836
 143  2296.376
 144  2198.494
 145  2374.483
 146  2003.548
 147  2298.975
 148  2381.273
 149  2209.032
 150  2479.94
 151  2682.546
 152  2648.406
 153  2604.572
 154  2286.938
 155  2490.091
 156  2512.202
 157  2492.801
 158  2435.18
 159  2921.438
 160  3112.135
 161  3060.219
 162  2752.171
 163  2489.149
 164  2358.151
 165  2437.566
 166  2650.808
 167  2795.638
 168  2611.775
 169  2648.085
 170  2347.317
 171  2407.192
 172  2337.214
 173  2250.707
 174  2476.064
 175  2481.009
 176  2353.865
 177  2760.914
 178  2768.092
 179  2790.249
 180  2610.844
 181  2792.471
 182  3085.877
 183  2903.58
 184  2673.886
 185  2653.495
 186  2648.671
 187  2846.327
 188  2568.099
 189  2053.502
 190  2224.375
 191  2246.643
 192  2365.388
 193  2396.551
 194  2479.509
 195  2272.379
 196  1872.798
 197  2348.328
 198  2420.333
 199  2238.621
 200  2367.078
 201  3116.134
 202  3095.746
 203  2806.193
 204  2765.389
 205  2858.534
 206  2869.016
 207  2971.541
 208  2874.033
 209  2689.37
 210  2993.256
 211  3403.58
 212  3125.221
 213  2923.71
 214  3013.819
 215  2979.377
 216  3052.956
 217  3011.174
 218  3074.337
 219  3175.052
 220  3100.744
 221  3022.445
 222  3179.382
 223  3052.514
 224  2953.243
 225  2908.26
 226  2776.391
 227  2854.501
 228  2272.204
 229  1965.217
 230  1996.169
 231  2454.271
 232  2654.197
 233  2419.399
 234  2547.598
 235  2700.555
 236  2407.958
 237  2053.645
 238  2438.433
 239  2442.057
 240  2446.136
 241  2665.53
 242  2671.152
 243  2557.214
 244  2654.482
 245  2714.564
 246  2921.344
 247  3174.793
 248  3002.28
 249  2969.662
 250  2722.055
 251  2745.251
 252  3019.501
 253  2915.287
 254  2599.865
 255  2704.446
 256  2753.595
 257  2931.912
 258  2766.131
 259  2773.062
 260  2726.59
 261  3084.755
 262  2979.002
 263  2853.913
 264  2511.565
 265  2148.539
 266  2651.001
 267  2405.331
 268  2377.594
 269  2489.82
 270  2538.274
 271  2378.243
 272  2496.474
 273  2861.644
 274  2874.025
 275  2787.573
 276  3125.615
 277  2761.562
 278  2692.581
 279  2687.739
 280  2381.609
 281  2343.727
 282  2605.11
 283  2828.107
 284  2532.266
 285  2568.101
 286  2941.33
 287  2596.097
 288  2935.523
 289  2925.3
 290  2510.085
 291  2502.193
 292  2533.309
 293  2522.736
 294  2559.046
 295  2970.956
 296  3155.311
 297  2830.352
 298  2758.875
 299  2791.752
 300  2756.584
 301  2857.311
 302  2807.922
 303  2838.67
 304  3045.493
 305  3119.613
 306  2783.256
 307  2359.514
 308  2636.915
 309  2545.241
 310  2521.782
 311  2694.493
 312  2635.243
 313  2506.322
 314  2376.773
 315  2321.279
 316  2084.44
 317  2039.589
 318  2446.343
 319  2483.348
 320  1886.25
 321  2366.282
 322  2611.591
 323  2628.91
 324  2177.542
 325  1956.221
 326  2043.031
 327  2057.292
 328  2069.329
 329  2296.478
 330  2433.317
 331  2452.378
 332  2586.474
 333  2685.996
 334  2661.01
 335  2623.318
 336  2786.928
 337  3067.121
 338  2953.86
 339  2526.029
 340  2400.775
 341  2640.183
 342  2887.262
 343  2831.462
 344  2839.101
 345  2871.359
 346  2941.494
 347  2974.059
 348  2697.606
 349  2316.004
 350  2350.289
 351  2320.416
 352  2465.996
 353  2403.912
 354  2422.072
 355  2132.742
 356  2191.061
 357  2273.078
 358  1908.088
 359  1989.175
 360  2124.39
 361  1915.875
 362  1999.222
 363  2086.068
 364  1804.262
 365  1758.129
 366  1910.221
 367  1918.486
 368  1990.672
 369  1897.76
 370  1885.363
 371  1801.475
 372  2173.465
 373  2346.708
 374  2056.255
 375  2474.92
 376  2694.802
 377  2624.389
 378  2495.056
 379  2607.124
 380  2403.988
 381  2215.321
 382  2426.365
 383  2386.379
 384  1984.248
 385  2047.951
 386  2370.061
 387  2558.784
 388  2418.575
 389  2256.711
 390  2222.879
 391  1905.071
 392  1746.787
 393  1995.23
 394  1965.879
 395  2409.364
 396  2182.225
 397  2770.931
 398  2477.859
 399  2289.25
 400  2337.433
 401  2112.097
 402  2191.939
 403  2222.027
 404  2279.957
 405  2504.538
 406  2435.083
 407  2343.868
 408  2034.376
 409  2271.067
 410  2343.322
 411  2573.597
 412  2697.92
 413  2651.505
 414  2920.842
 415  3170.477
 416  3004.608
 417  2935.83
 418  2606.522
 419  2616.645
 420  2556.348
 421  2923.01
 422  3052.485
 423  2813.069
 424  2918.392
 425  2704.895
 426  2515.74
 427  2510.94
 428  2783.984
 429  2924.079
 430  2826.762
 431  2654.6
 432  2764.39
 433  2651.891
 434  2794.175
 435  3210.995
 436  2869.461
 437  2852.413
 438  3053.656
 439  3073.628
 440  2716.423
 441  2490.574
 442  2629.183
 443  2586.924
 444  2211.436
 445  2932.497
 446  3217.983
 447  2640.728
 448  2609.52
 449  2144.191
 450  2398.613
 451  2369.006
 452  2611.233
 453  2632.734
 454  2404.366
 455  2671.291
 456  2635.327
 457  2427.199
 458  2206.06
 459  2415.842
 460  2251.789
 461  2578.649
 462  2450.918
 463  2382.076
 464  2565.222
 465  2569.488
 466  2629.861
 467  2626.253
 468  2645.356
 469  2738.977
 470  3040.644
 471  2797.932
 472  2667.938
 473  2619.907
 474  3075.454
 475  2866.679
 476  2738.492
 477  2705.677
 478  2574.081
 479  2701.321
 480  2314.107
 481  2340.446
 482  2501.827
 483  2920.292
 484  3051.91
 485  2951.8
 486  2715.241
 487  2884.101
 488  3274.867
 489  3284.856
 490  3664.016
 491  4020.8
 492  4683.135
 493  4879.154
 494  4848.533
 495  4331.118
 496  3855.511
 497  2976.214
 498  2752.799
 499  2438.487
 500  2513.723
 501  2889.598
 502  3030.06
 503  3020.835
 504  2958.747
 505  3011.501
 506  3138.204
 507  3310.308
 508  2921.411
 509  2912.486
 510  3130.276
 511  2915.482
