# Input file       =  1210408190.122714_cleaned.dat
# Candidate        =  PSR_0332+5434
# Telescope        =  AR
# Epoch_topo       =  58253.354272253637
# Epoch_bary       =  N/A
# T_sample         =  0.002
# Data Folded      =  7340032
# Data Avg         =  0.135533390949214
# Data StdDev      =  4.54440841776603 
# Profile Bins     =  512
# Profile Avg      =  1942.63767655028 
# Profile StdDev   =  544.115818395262 
# Reduced chi-sqr  =  0.971
# Prob(Noise)      <  0.67   (~0.0 sigma)
# P_topo (ms)      =  714.533246848031  +/- 0.00057
# P'_topo (s/s)    =  -0                +/- 3.01e-10
# P''_topo (s/s^2) =  0                 +/- 1.33e-13
# P_bary (ms)      =  N/A
# P'_bary (s/s)    =  N/A
# P''_bary (s/s^2) =  N/A
# P_orb (s)        =  N/A
# asin(i)/c (s)    =  N/A
# eccentricity     =  N/A
# w (rad)          =  N/A
# T_peri           =  N/A
######################################################
   0  1672.613
   1  1793.525
   2  1886.065
   3  1700.07
   4  1933.366
   5  1756.951
   6  1436.442
   7  1761.475
   8  1607.851
   9  1681.973
  10  1725.213
  11  1654.198
  12  1496.206
  13  1840.572
  14  1976.079
  15  1806.18
  16  1711.025
  17  1667.197
  18  1635.36
  19  1677.64
  20  1570.062
  21  1682.491
  22  1833.131
  23  1669.988
  24  1753.793
  25  1663.934
  26  1372.308
  27  1682.253
  28  1802.139
  29  1586.821
  30  1571.228
  31  1616.3
  32  1757.687
  33  1273.588
  34  1202.061
  35  1526.151
  36  1843.66
  37  1937.905
  38  1873.3
  39  1929.442
  40  1636.059
  41  1385.383
  42  1477.157
  43  2093.528
  44  1956.898
  45  1752.674
  46  1733.592
  47  1643.767
  48  1597.415
  49  1549.346
  50  1565.108
  51  1519.348
  52  1768.117
  53  1669.195
  54  1512.589
  55  1621.109
  56  1499.549
  57  1742.874
  58  1890.771
  59  1610.107
  60  1794.362
  61  1794.783
  62  1422.274
  63  1315.211
  64  1264.855
  65  1110.069
  66  1612.369
  67  1838.174
  68  1774.079
  69  1761.551
  70  1779.35
  71  1935.604
  72  1828.507
  73  1896.255
  74  2232.729
  75  2151.609
  76  1870.634
  77  1661.696
  78  1744.71
  79  1629.155
  80  1475.32
  81  1582.629
  82  1773.034
  83  1380.874
  84  1401.918
  85  1692.204
  86  1509.946
  87  1524.434
  88  1712.063
  89  1935.023
  90  1938.287
  91  1528.412
  92  1387.791
  93  1347.269
  94  1468.748
  95  1634.456
  96  1336.842
  97  1536.029
  98  1979.222
  99  2133.722
 100  1730.495
 101  1622.479
 102  1947.15
 103  1796.661
 104  1859.403
 105  2130.527
 106  2034.297
 107  1928.011
 108  1669.037
 109  1730.928
 110  1711.917
 111  1677.678
 112  2241.912
 113  1989.792
 114  1939.336
 115  1818.893
 116  1790.373
 117  2020.242
 118  2432.033
 119  1969.369
 120  1956.11
 121  2009.436
 122  2157.027
 123  2207.568
 124  2108.714
 125  1908.701
 126  1790.202
 127  1879.863
 128  1847.451
 129  1984.804
 130  2242.363
 131  1938.607
 132  1758.405
 133  1966.255
 134  1930.09
 135  1844.047
 136  2129.239
 137  1888.564
 138  2123.683
 139  2497.047
 140  2567.564
 141  2708.989
 142  2636.304
 143  2629.857
 144  2207.599
 145  2299.534
 146  2350.086
 147  2323.139
 148  2336.758
 149  2244.114
 150  2494.314
 151  2506.997
 152  2328.07
 153  2001.259
 154  1888.274
 155  1761.964
 156  2028.506
 157  2147.22
 158  1696.074
 159  1628.359
 160  2012.259
 161  2019.283
 162  2104.997
 163  2127.136
 164  1712.555
 165  2152.471
 166  2160.601
 167  2096.594
 168  2333.616
 169  1947.146
 170  2023.908
 171  2092.743
 172  1751.936
 173  1674.168
 174  1633.98
 175  1769.998
 176  1688.686
 177  1815.555
 178  1851.175
 179  2168.566
 180  2175.598
 181  1892.56
 182  2007.935
 183  2264.084
 184  2258.544
 185  2135.803
 186  2197.525
 187  2085.222
 188  2204.318
 189  1740.849
 190  1614.102
 191  1630.881
 192  2156.431
 193  2550.664
 194  2004.078
 195  1989.255
 196  1515.543
 197  1791.452
 198  1583.64
 199  1783.702
 200  1662.184
 201  1559.677
 202  1611.014
 203  1628.247
 204  1789.234
 205  1744.49
 206  1881.48
 207  1936.221
 208  1965.034
 209  1699.109
 210  1737.822
 211  1348.455
 212  1472.782
 213  1243.26
 214  1290.534
 215  1357.787
 216  1505.677
 217  1437.972
 218  1076.896
 219  1179.25
 220  1363.58
 221  1341.262
 222  1310.219
 223  1401.137
 224  1629.562
 225  1737.941
 226  1879.073
 227  1982.459
 228  2047.168
 229  2052.366
 230  1610.956
 231  1699.078
 232  2035.782
 233  2237.826
 234  2046.578
 235  1776.818
 236  1602.468
 237  1744.712
 238  1547.565
 239  1651.473
 240  2034.936
 241  2208.926
 242  1948.87
 243  2217.218
 244  1976.792
 245  1691.737
 246  1981.598
 247  1968.691
 248  2121.582
 249  2047.316
 250  2288.779
 251  1776.583
 252  1690.111
 253  1403.348
 254  1719.579
 255  1852.603
 256  2004.428
 257  1833.899
 258  1923.877
 259  2131.972
 260  1952.017
 261  2179.291
 262  2062.995
 263  2111.903
 264  2021.602
 265  1688.815
 266  1872.788
 267  2259.185
 268  2320.616
 269  2199.338
 270  2266.781
 271  2265.002
 272  1934.05
 273  1905.941
 274  2290.58
 275  2233.1
 276  2159.422
 277  2000.325
 278  1983.878
 279  1764.403
 280  2082.081
 281  2356.105
 282  2298.746
 283  2661.687
 284  2621.486
 285  2344.959
 286  2201.136
 287  2297.683
 288  2431.723
 289  2074.227
 290  2140.254
 291  2353.712
 292  2102.949
 293  2346.143
 294  2538.305
 295  2630.943
 296  3051.91
 297  2980.504
 298  3976.096
 299  4509.979
 300  4515.888
 301  4260.207
 302  3924.526
 303  3194.278
 304  2760.616
 305  2516.621
 306  2235.609
 307  2422.345
 308  2580.156
 309  2618.281
 310  2725.501
 311  2691.11
 312  2511.022
 313  2658.558
 314  3005.947
 315  2667.788
 316  2174.634
 317  2043.537
 318  2088.421
 319  2153.349
 320  2142.285
 321  2122.606
 322  1953.79
 323  2040.074
 324  1828.572
 325  1731.433
 326  1885.47
 327  1909.285
 328  2076.555
 329  1914.85
 330  1980.917
 331  2081.652
 332  1930.71
 333  2312.707
 334  2109.351
 335  1921.969
 336  2106.164
 337  2047.085
 338  1931.561
 339  2109.207
 340  2134.6
 341  1570.618
 342  1585.815
 343  2084.648
 344  2205.711
 345  2169.781
 346  2219.372
 347  2244.577
 348  1652.649
 349  1558.218
 350  1891.168
 351  2078.11
 352  1976.33
 353  1972.719
 354  2297.551
 355  2394.466
 356  2232.751
 357  2342.637
 358  2258.494
 359  2014.49
 360  2153.076
 361  1917.071
 362  1871.633
 363  1502.391
 364  1498.74
 365  1742.3
 366  1588.596
 367  1537.515
 368  1515.552
 369  2116.22
 370  2375.27
 371  2020.474
 372  1849.144
 373  2183.246
 374  2365.47
 375  2049.232
 376  2201.771
 377  2380.621
 378  2376.206
 379  2290.265
 380  2141.534
 381  1679.937
 382  1780.3
 383  2022.695
 384  1927.151
 385  1832.285
 386  1844.177
 387  1859.602
 388  1854.565
 389  1843.489
 390  1708.28
 391  2027.218
 392  1840.53
 393  1468.363
 394  1600.668
 395  1721.989
 396  2029.959
 397  2161.806
 398  2159.088
 399  1914.124
 400  2087.842
 401  1875.053
 402  1882.879
 403  1972.837
 404  2051.61
 405  1923.349
 406  1924.067
 407  1985.792
 408  1828.969
 409  2307.35
 410  1994.755
 411  1691.873
 412  1864.039
 413  2004.141
 414  2113.452
 415  2037.732
 416  1937.972
 417  1801.091
 418  1687.44
 419  1820.405
 420  1894.932
 421  1841.493
 422  1578.788
 423  1399.158
 424  1325.141
 425  1378.522
 426  1692.569
 427  1503.873
 428  1577.714
 429  1757.138
 430  1937.433
 431  1946.433
 432  1763.795
 433  1635.425
 434  1874.285
 435  1984.389
 436  2097.789
 437  2065.016
 438  1679.983
 439  1614.483
 440  2130.94
 441  2353.723
 442  2050.765
 443  1972.977
 444  1911.123
 445  1924.622
 446  1542.47
 447  1838.312
 448  2302.338
 449  1921.17
 450  1919.069
 451  1869.493
 452  1802.363
 453  2067.963
 454  2073.609
 455  1679.515
 456  1684.492
 457  1798.425
 458  1924.279
 459  1917.778
 460  2146.904
 461  2035.632
 462  1900.119
 463  1961.833
 464  1957.525
 465  2420.407
 466  2147.097
 467  1966.611
 468  1573.142
 469  1413.894
 470  1557.911
 471  1476.877
 472  1980.539
 473  1992.234
 474  1864.42
 475  1842.252
 476  2165.225
 477  2024.886
 478  1772.616
 479  2236.32
 480  2357.283
 481  2285.968
 482  2020.421
 483  1814.358
 484  1918.629
 485  2144.112
 486  2059.063
 487  2330.639
 488  2211.947
 489  1887.463
 490  1722.158
 491  2030.352
 492  2303.886
 493  2289.003
 494  1828.327
 495  2096.274
 496  2061.534
 497  2332.28
 498  2297.19
 499  2178.645
 500  1905.893
 501  1765.342
 502  1645.916
 503  1721.09
 504  1909.393
 505  1897.834
 506  1772.109
 507  1689.622
 508  1711.164
 509  1920.427
 510  1546.614
 511  1467.851
