# Input file       =  1210164609.112019-PSRB0329-2ms-sampling-dd.dat
# Candidate        =  PSR_0332+5434
# Telescope        =  AR
# Epoch_topo       =  58250.535047592813
# Epoch_bary       =  N/A
# T_sample         =  0.002
# Data Folded      =  7340032
# Data Avg         =  2.50919017760217e-10
# Data StdDev      =  4.96508921295753 
# Profile Bins     =  512
# Profile Avg      =  -0.304565344435407
# Profile StdDev   =  594.485207348933 
# Reduced chi-sqr  =  0.869
# Prob(Noise)      <  0.985   (~0.0 sigma)
# P_topo (ms)      =  714.536315634415  +/- 0.000304
# P'_topo (s/s)    =  -0                +/- 1.6e-10
# P''_topo (s/s^2) =  0                 +/- 7.08e-14
# P_bary (ms)      =  N/A
# P'_bary (s/s)    =  N/A
# P''_bary (s/s^2) =  N/A
# P_orb (s)        =  N/A
# asin(i)/c (s)    =  N/A
# eccentricity     =  N/A
# w (rad)          =  N/A
# T_peri           =  N/A
######################################################
   0  -15.08078
   1  -39.98895
   2  174.1688
   3  116.604
   4  -15.66211
   5  -319.9649
   6  -483.2943
   7  -744.2645
   8  -705.7084
   9  -335.0796
  10  -385.9928
  11  -304.9337
  12  -378.0448
  13  -661.0643
  14  -516.8939
  15  -672.9294
  16  -880.953
  17  -665.8828
  18  -222.1921
  19  -282.7174
  20  -211.9476
  21  61.96784
  22  -132.8076
  23  -193.3098
  24  -428.424
  25  -271.9756
  26  -461.2934
  27  111.7783
  28  -47.69138
  29  40.86703
  30  -207.0014
  31  -551.533
  32  -617.3761
  33  -868.2153
  34  -534.9935
  35  -157.4528
  36  -394.5006
  37  -398.2231
  38  -394.3684
  39  -207.7198
  40  -103.1393
  41  -166.3238
  42  -500.0988
  43  -703.458
  44  -699.0637
  45  -623.3137
  46  -497.5894
  47  -387.1499
  48  -41.457
  49  -78.62679
  50  93.92699
  51  -13.4552
  52  -315.5632
  53  -450.4633
  54  -507.3688
  55  -104.0115
  56  -268.7241
  57  -102.3979
  58  -210.31
  59  -435.9441
  60  -132.1786
  61  -304.8963
  62  -351.6493
  63  -457.3042
  64  -50.73301
  65  -226.9724
  66  -490.0892
  67  -233.7502
  68  -113.4981
  69  182.4404
  70  -219.5896
  71  -276.8839
  72  -410.5581
  73  -561.7605
  74  -324.3585
  75  -32.45412
  76  28.17813
  77  -107.5989
  78  -227.7507
  79  -112.5822
  80  -41.88096
  81  165.0787
  82  128.0177
  83  383.1691
  84  288.4579
  85  240.8796
  86  7.230276
  87  210.0016
  88  484.478
  89  64.74182
  90  -224.306
  91  -412.9899
  92  -275.1483
  93  -299.4245
  94  -525.2194
  95  -196.242
  96  -182.0466
  97  -229.8719
  98  -669.7592
  99  -867.1274
 100  -638.5471
 101  -443.6394
 102  -707.4709
 103  -599.6655
 104  -80.89887
 105  -52.21161
 106  -327.8264
 107  -506.1017
 108  -407.2138
 109  -362.8521
 110  -131.1396
 111  84.90128
 112  138.9549
 113  228.5101
 114  267.8569
 115  118.556
 116  -270.0335
 117  -237.9347
 118  251.3276
 119  576.2749
 120  519.5345
 121  320.3083
 122  122.3022
 123  69.2057
 124  -90.91743
 125  221.9094
 126  -311.2035
 127  -83.67291
 128  -186.9727
 129  -486.0068
 130  -373.5397
 131  -132.9236
 132  -410.6928
 133  -537.1242
 134  -440.9404
 135  -785.0831
 136  -559.7803
 137  -693.5765
 138  -432.5471
 139  -668.0412
 140  -748.5705
 141  -428.8804
 142  -645.8064
 143  -263.4744
 144  -440.4626
 145  -521.8818
 146  -382.0434
 147  -375.2456
 148  -583.6861
 149  -459.7208
 150  68.76913
 151  224.8382
 152  269.7442
 153  -21.58998
 154  54.81541
 155  -44.59783
 156  -714.2723
 157  -230.9721
 158  40.15009
 159  156.3031
 160  -251.5681
 161  -708.6362
 162  -378.6523
 163  -214.6237
 164  -87.37215
 165  90.46295
 166  -17.34452
 167  53.30289
 168  -257.7321
 169  -230.8054
 170  18.16754
 171  10.92372
 172  51.26071
 173  100.6661
 174  19.24148
 175  -37.05225
 176  114.7259
 177  81.4121
 178  251.6904
 179  158.7297
 180  -83.81787
 181  16.80268
 182  73.23138
 183  -33.93742
 184  -114.0243
 185  -27.01893
 186  -88.65568
 187  133.2393
 188  -92.19258
 189  188.1806
 190  111.7629
 191  479.7414
 192  358.1457
 193  -208.3068
 194  -152.8991
 195  -315.3849
 196  169.2319
 197  176.9347
 198  149.372
 199  374.3129
 200  89.79706
 201  -74.80526
 202  -375.2401
 203  -122.8092
 204  53.74609
 205  -6.315391
 206  225.3958
 207  150.028
 208  505.3802
 209  179.9884
 210  -4.555699
 211  -33.98821
 212  -60.1382
 213  82.57244
 214  494.8174
 215  753.5889
 216  512.8067
 217  209.827
 218  150.7599
 219  202.8212
 220  -178.7116
 221  -373.7223
 222  -145.2876
 223  188.4139
 224  289.9769
 225  143.1163
 226  125.8786
 227  78.92566
 228  -414.3922
 229  -220.001
 230  -56.54706
 231  -90.98369
 232  -221.2761
 233  109.6958
 234  251.9893
 235  -183.3091
 236  122.0678
 237  -6.433687
 238  -54.61534
 239  119.2857
 240  392.8627
 241  601.5086
 242  307.8593
 243  169.0598
 244  161.0244
 245  8.846922
 246  -20.61639
 247  245.1372
 248  383.9168
 249  442.2745
 250  343.9947
 251  270.9287
 252  169.5042
 253  -86.49133
 254  18.18171
 255  163.193
 256  455.392
 257  511.8002
 258  616.7911
 259  742.0193
 260  418.2967
 261  -23.47753
 262  -254.0787
 263  -196.1294
 264  -132.2036
 265  36.27931
 266  50.23508
 267  -109.8076
 268  55.17839
 269  -58.79141
 270  9.257454
 271  -138.8298
 272  -185.97
 273  50.8957
 274  758.2801
 275  1244.107
 276  1151.426
 277  1762.549
 278  2525.676
 279  2351.619
 280  2294.144
 281  1908.896
 282  1475.049
 283  917.3376
 284  514.4062
 285  390.1129
 286  59.78173
 287  130.9839
 288  -105.6584
 289  -110.9638
 290  -33.51973
 291  308.7053
 292  -3.661001
 293  24.17908
 294  -150.989
 295  -323.1388
 296  -255.7025
 297  -281.1097
 298  231.4056
 299  255.4913
 300  212.5637
 301  143.957
 302  -219.3775
 303  -266.462
 304  -94.256
 305  -73.3707
 306  -356.5397
 307  95.92054
 308  204.0736
 309  -79.59393
 310  -146.5539
 311  -394.2906
 312  -188.37
 313  -314.0416
 314  -240.5208
 315  -279.7739
 316  50.46609
 317  104.5675
 318  -291.3466
 319  -241.4897
 320  -330.1864
 321  -514.1244
 322  -311.1237
 323  299.4926
 324  179.1133
 325  -10.38816
 326  -165.7953
 327  -322.5448
 328  -358.8185
 329  -355.9336
 330  -378.5378
 331  -180.9586
 332  -120.1357
 333  131.9488
 334  240.9717
 335  23.38966
 336  -288.0396
 337  -652.1861
 338  -512.9333
 339  -180.2541
 340  -293.8786
 341  -169.2645
 342  320.9898
 343  136.1232
 344  -165.585
 345  -434.0745
 346  -444.5724
 347  247.1601
 348  476.8576
 349  23.8896
 350  144.4022
 351  209.4397
 352  427.0284
 353  170.5798
 354  -221.0043
 355  -35.40536
 356  156.056
 357  311.4534
 358  455.7961
 359  319.8608
 360  303.4892
 361  318.6942
 362  26.8866
 363  227.626
 364  115.1645
 365  279.0443
 366  241.1768
 367  406.4903
 368  254.658
 369  260.2816
 370  398.1349
 371  -33.21915
 372  289.8437
 373  439.2326
 374  472.2679
 375  566.1635
 376  405.2978
 377  193.5869
 378  267.3308
 379  184.4273
 380  339.2495
 381  321.4746
 382  492.0363
 383  743.973
 384  612.0524
 385  795.8051
 386  591.1467
 387  556.6466
 388  705.2839
 389  282.0729
 390  363.388
 391  499.8254
 392  331.9035
 393  422.4812
 394  100.8074
 395  81.48632
 396  -181.5423
 397  -190.231
 398  368.3109
 399  578.5633
 400  331.5192
 401  72.46655
 402  -134.7605
 403  -68.00417
 404  -195.2521
 405  36.69431
 406  228.3096
 407  -48.78255
 408  -467.2054
 409  -378.3856
 410  -231.2684
 411  -40.28656
 412  -8.782129
 413  -262.0919
 414  -252.0558
 415  -281.0319
 416  -592.0995
 417  -257.1364
 418  -447.8946
 419  32.58868
 420  -6.867546
 421  -451.9673
 422  -324.0529
 423  82.14909
 424  258.1476
 425  53.87776
 426  -229.7365
 427  13.07896
 428  -173.3525
 429  -237.8836
 430  -195.3445
 431  81.90009
 432  499.2734
 433  252.8714
 434  303.5965
 435  -239.6575
 436  -479.5214
 437  -263.4386
 438  -146.629
 439  -39.3343
 440  39.40289
 441  -106.2941
 442  -25.95988
 443  -186.2355
 444  159.8618
 445  -206.2219
 446  -204.0925
 447  -321.694
 448  -206.1396
 449  314.0416
 450  103.8445
 451  224.3717
 452  643.6412
 453  498.9174
 454  -29.30416
 455  -395.4499
 456  -120.5634
 457  50.73426
 458  399.7472
 459  494.1477
 460  220.836
 461  446.6036
 462  514.5207
 463  267.7875
 464  150.5785
 465  94.19084
 466  255.6863
 467  505.7244
 468  457.7169
 469  345.9899
 470  69.88122
 471  9.688605
 472  378.92
 473  489.677
 474  110.1672
 475  323.9066
 476  344.9192
 477  168.7797
 478  181.8616
 479  329.5997
 480  262.4942
 481  313.0066
 482  190.4229
 483  58.39957
 484  -306.1969
 485  -27.48962
 486  9.950301
 487  52.21015
 488  550.1969
 489  154.7301
 490  -116.0794
 491  -54.08825
 492  280.3885
 493  604.8131
 494  135.2465
 495  -177.4147
 496  -299.0802
 497  -303.0221
 498  -330.8541
 499  164.2805
 500  576.5244
 501  270.963
 502  53.82156
 503  74.63872
 504  -321.2713
 505  -276.1669
 506  135.9586
 507  530.0049
 508  156.3555
 509  145.421
 510  -150.7127
 511  36.85534
