# Input file       =  1210250771.112735-PSRB0329-2ms-sampling-dd.dat
# Candidate        =  PSR_0332+5434
# Telescope        =  AR
# Epoch_topo       =  58251.532292971468
# Epoch_bary       =  N/A
# T_sample         =  0.002
# Data Folded      =  7340032
# Data Avg         =  -7.30565831879195e-10
# Data StdDev      =  6.07684690890556 
# Profile Bins     =  512
# Profile Avg      =  -0.278890047449757
# Profile StdDev   =  727.599332000029 
# Reduced chi-sqr  =  0.754
# Prob(Noise)      <  1   (~0.0 sigma)
# P_topo (ms)      =  714.535352032487  +/- 0.000185
# P'_topo (s/s)    =  -0                +/- 9.74e-11
# P''_topo (s/s^2) =  0                 +/- 4.3e-14
# P_bary (ms)      =  N/A
# P'_bary (s/s)    =  N/A
# P''_bary (s/s^2) =  N/A
# P_orb (s)        =  N/A
# asin(i)/c (s)    =  N/A
# eccentricity     =  N/A
# w (rad)          =  N/A
# T_peri           =  N/A
######################################################
   0  -173.9626
   1  -115.7692
   2  -89.47282
   3  -15.43271
   4  -419.0308
   5  -465.8123
   6  -504.1998
   7  -384.8029
   8  -294.9619
   9  -621.8786
  10  -254.8154
  11  -174.784
  12  -165.9657
  13  -67.21006
  14  -221.9854
  15  -72.51208
  16  77.19285
  17  161.4936
  18  254.0932
  19  421.552
  20  467.6284
  21  179.1355
  22  89.07227
  23  -45.70659
  24  67.73074
  25  81.30396
  26  282.5831
  27  210.8466
  28  384.2157
  29  624.1558
  30  64.77891
  31  122.5053
  32  51.432
  33  132.8716
  34  -137.3807
  35  -73.09824
  36  73.09741
  37  92.11726
  38  -28.65231
  39  19.6567
  40  -206.3193
  41  -422.628
  42  -529.8964
  43  -658.0551
  44  -355.5688
  45  -543.4328
  46  -880.4272
  47  -560.7396
  48  -187.9295
  49  -392.0276
  50  -412.8788
  51  -446.7729
  52  -526.7947
  53  -675.7218
  54  -761.3293
  55  -1002.43
  56  -666.5131
  57  -501.5466
  58  -191.2732
  59  -265.004
  60  -325.9914
  61  -216.9597
  62  -640.1567
  63  -474.738
  64  -627.8848
  65  -703.4084
  66  -621.5267
  67  -733.9941
  68  -233.412
  69  62.18274
  70  -271.0235
  71  -169.5133
  72  -13.59978
  73  -475.8012
  74  -447.2652
  75  -292.3858
  76  -279.0762
  77  -257.494
  78  -391.7816
  79  -73.32881
  80  -48.20991
  81  72.92333
  82  223.7738
  83  -78.22715
  84  -159.6674
  85  109.2771
  86  130.2073
  87  73.08098
  88  109.3885
  89  282.6105
  90  147.4708
  91  -205.1103
  92  -733.0806
  93  -638.5737
  94  -18.90798
  95  204.2117
  96  -74.15627
  97  -426.9998
  98  -711.253
  99  -665.9022
 100  -597.7495
 101  -283.308
 102  -129.2755
 103  65.47677
 104  -111.0942
 105  -450.3892
 106  -483.5594
 107  -545.7127
 108  -25.41303
 109  301.6409
 110  230.234
 111  282.0228
 112  595.6742
 113  470.2654
 114  -56.42345
 115  -189.3753
 116  -242.1178
 117  94.8159
 118  183.0101
 119  -36.31676
 120  -72.16328
 121  -130.1895
 122  244.017
 123  -112.2639
 124  -402.3394
 125  -75.43525
 126  -142.7602
 127  -241.2772
 128  29.95083
 129  -303.3241
 130  -415.0044
 131  -329.5961
 132  -367.8603
 133  -524.1058
 134  -510.3792
 135  122.126
 136  189.7478
 137  66.85427
 138  -284.2177
 139  -425.7171
 140  -557.0767
 141  -142.2597
 142  51.46938
 143  -153.6419
 144  -295.6678
 145  -230.8571
 146  -702.8964
 147  -520.731
 148  -384.7665
 149  -404.2586
 150  -2.657996
 151  135.1251
 152  250.3642
 153  76.7185
 154  -276.8834
 155  -60.34279
 156  -126.7079
 157  -193.9718
 158  -343.7466
 159  217.6466
 160  402.857
 161  483.6196
 162  27.88085
 163  -408.9494
 164  -583.378
 165  -571.7458
 166  -175.5304
 167  -32.51376
 168  -3.147028
 169  -67.43353
 170  -261.5453
 171  -281.4913
 172  -487.1305
 173  -507.4389
 174  -138.2044
 175  -60.2024
 176  -156.5255
 177  350.6444
 178  360.265
 179  259.2349
 180  -85.27773
 181  -18.21414
 182  455.6239
 183  401.5309
 184  140.9903
 185  162.4933
 186  172.2878
 187  306.5565
 188  76.87697
 189  -439.5144
 190  -427.9385
 191  -231.3223
 192  -61.017
 193  164.3834
 194  245.6673
 195  -134.2007
 196  -537.1125
 197  -276.4872
 198  -261.745
 199  -488.0188
 200  -214.9957
 201  668.0134
 202  771.4082
 203  410.041
 204  313.6247
 205  212.6139
 206  88.48306
 207  474.35
 208  501.2661
 209  256.8782
 210  674.6547
 211  885.5568
 212  648.4675
 213  332.3669
 214  385.7794
 215  496.5678
 216  410.9024
 217  458.0612
 218  652.9564
 219  871.1216
 220  370.4869
 221  428.9148
 222  688.0735
 223  485.4218
 224  551.3151
 225  476.3805
 226  340.0739
 227  198.7127
 228  -358.9627
 229  -668.2288
 230  -631.4227
 231  -94.90163
 232  338.8201
 233  131.3932
 234  280.6788
 235  403.4744
 236  -98.08321
 237  -390.745
 238  -119.6539
 239  259.7531
 240  598.7357
 241  937.8941
 242  793.8016
 243  444.2231
 244  609.9026
 245  479.452
 246  525.5753
 247  847.4454
 248  637.7264
 249  469.5797
 250  123.414
 251  99.40843
 252  105.3398
 253  52.21943
 254  -136.2897
 255  -29.30159
 256  148.754
 257  208.3248
 258  -42.95483
 259  196.57
 260  417.5841
 261  521.1167
 262  460.7941
 263  256.3199
 264  -118.9263
 265  -283.7881
 266  276.0252
 267  162.5582
 268  161.8307
 269  349.3898
 270  319.7708
 271  173.4674
 272  469.9871
 273  878.6693
 274  1018.971
 275  759.5801
 276  1138.59
 277  708.6064
 278  395.98
 279  180.8562
 280  38.65673
 281  70.23067
 282  238.5247
 283  517.6852
 284  282.0459
 285  42.39441
 286  259.4261
 287  -46.67765
 288  244.8741
 289  206.2871
 290  59.32555
 291  88.60546
 292  89.76607
 293  -273.0167
 294  -420.6813
 295  -124.2236
 296  3.231832
 297  -83.50629
 298  67.21063
 299  166.8441
 300  121.2899
 301  112.3844
 302  132.8351
 303  169.4524
 304  431.721
 305  392.0613
 306  604.3164
 307  167.0948
 308  288.2418
 309  149.9466
 310  59.49135
 311  65.45211
 312  -71.03883
 313  -125.5903
 314  -139.1883
 315  -135.4775
 316  -447.4705
 317  -624.679
 318  -472.7261
 319  -503.232
 320  -933.1079
 321  -514.5112
 322  -7.974578
 323  172.0991
 324  -120.9935
 325  -477.0735
 326  -583.5662
 327  -572.1696
 328  -789.079
 329  -561.9675
 330  -501.1306
 331  -422.5777
 332  -369.7804
 333  -296.2185
 334  -406.3617
 335  -527.71
 336  -293.8486
 337  -54.47396
 338  36.77745
 339  -276.7491
 340  -321.778
 341  -339.4049
 342  -192.1461
 343  -4.250247
 344  45.35381
 345  83.75704
 346  205.358
 347  171.2289
 348  -218.4004
 349  -699.6237
 350  -769.6627
 351  -898.3393
 352  -867.6802
 353  -785.9932
 354  -707.1237
 355  -897.6434
 356  -589.4602
 357  -355.0838
 358  -731.8224
 359  -884.5601
 360  -825.2334
 361  -895.9709
 362  -910.8621
 363  -738.0952
 364  -723.2198
 365  -727.4263
 366  -653.8812
 367  -854.1817
 368  -873.0718
 369  -961.1091
 370  -908.6937
 371  -702.9736
 372  -407.2327
 373  -203.7041
 374  -507.7977
 375  110.934
 376  -77.25267
 377  -69.25551
 378  124.0982
 379  195.3161
 380  55.65965
 381  -343.4472
 382  -177.0591
 383  -270.6624
 384  -543.7339
 385  -441.9122
 386  -268.8481
 387  6.579945
 388  -72.47953
 389  -118.2085
 390  -148.5763
 391  -443.1133
 392  -729.9057
 393  -840.3567
 394  -711.3987
 395  -182.1756
 396  -301.7573
 397  367.4522
 398  65.33747
 399  -38.64804
 400  -151.0902
 401  -361.1136
 402  -458.6819
 403  -338.6873
 404  107.2248
 405  496.8444
 406  322.4153
 407  95.63892
 408  -310.0991
 409  -136.3051
 410  -99.53283
 411  235.6303
 412  196.5634
 413  281.7371
 414  502.4178
 415  709.3958
 416  178.4017
 417  38.44587
 418  -53.45307
 419  74.14066
 420  -151.3964
 421  334.7107
 422  521.96
 423  254.7474
 424  211.4592
 425  -7.399382
 426  15.73513
 427  -111.1692
 428  125.9828
 429  180.1345
 430  -83.83222
 431  -204.1922
 432  42.72525
 433  -19.70769
 434  144.2986
 435  526.9777
 436  369.6489
 437  519.8763
 438  478.7772
 439  678.3585
 440  418.2263
 441  82.96769
 442  367.211
 443  474.9907
 444  388.5729
 445  974.1268
 446  1175.893
 447  496.9092
 448  255.3275
 449  -158.1379
 450  -20.65329
 451  308.0846
 452  428.8919
 453  373.3908
 454  52.59157
 455  242.795
 456  254.6291
 457  80.56788
 458  -1.301152
 459  149.116
 460  -172.1259
 461  149.1976
 462  200.6223
 463  204.6749
 464  234.3353
 465  40.83727
 466  157.4478
 467  201.8014
 468  119.444
 469  239.2158
 470  548.1739
 471  235.8538
 472  102.6538
 473  208.1853
 474  674.4811
 475  323.0869
 476  31.72178
 477  112.9566
 478  55.60511
 479  134.5735
 480  -374.5588
 481  -428.8647
 482  -202.0988
 483  399.5116
 484  621.6038
 485  599.817
 486  310.6521
 487  395.4761
 488  845.2094
 489  834.2348
 490  1164.775
 491  1445.576
 492  2177.297
 493  2320.997
 494  2291.729
 495  1872.067
 496  1395.398
 497  349.0603
 498  1.495526
 499  -443.9289
 500  -278.9638
 501  12.40492
 502  427.7384
 503  760.8062
 504  475.3199
 505  226.5374
 506  473.9298
 507  433.4891
 508  21.07836
 509  62.70609
 510  436.6351
 511  334.8082
