# Input file       =  1210767789.121276_cleaned.dat
# Candidate        =  PSR_0332+5434
# Telescope        =  AR
# Epoch_topo       =  58257.516297699949
# Epoch_bary       =  N/A
# T_sample         =  0.002
# Data Folded      =  7340032
# Data Avg         =  0.179394462801741
# Data StdDev      =  4.40408173590674 
# Profile Bins     =  512
# Profile Avg      =  2571.8017846506  
# Profile StdDev   =  527.314078691573 
# Reduced chi-sqr  =  0.848
# Prob(Noise)      <  0.994   (~0.0 sigma)
# P_topo (ms)      =  714.52950462154   +/- 0.000479
# P'_topo (s/s)    =  -0                +/- 2.52e-10
# P''_topo (s/s^2) =  0                 +/- 1.11e-13
# P_bary (ms)      =  N/A
# P'_bary (s/s)    =  N/A
# P''_bary (s/s^2) =  N/A
# P_orb (s)        =  N/A
# asin(i)/c (s)    =  N/A
# eccentricity     =  N/A
# w (rad)          =  N/A
# T_peri           =  N/A
######################################################
   0  2973.28
   1  3303.958
   2  3074.692
   3  2825.036
   4  2716.192
   5  2529.125
   6  2514.329
   7  2679.199
   8  3050.686
   9  2775.993
  10  2705.276
  11  3036.687
  12  2454.995
  13  1843.429
  14  2331.803
  15  2625.28
  16  2626.383
  17  2650.789
  18  2410.278
  19  2240.684
  20  1996.155
  21  2147.966
  22  2333.588
  23  2372.679
  24  2338.429
  25  2464.758
  26  2408.395
  27  2118.902
  28  1990.117
  29  2310.872
  30  2592.668
  31  2926.245
  32  2572.19
  33  2403.785
  34  2532.378
  35  2416.481
  36  2550.243
  37  2562.975
  38  2645.372
  39  2582.685
  40  2595.569
  41  2715.221
  42  3098.216
  43  2842.048
  44  3024.998
  45  2857.395
  46  2781.403
  47  2367.47
  48  2176.128
  49  2410.33
  50  2383.53
  51  2511.197
  52  2942.682
  53  2680.702
  54  2537.808
  55  2403.149
  56  2748.153
  57  2767.594
  58  2612.369
  59  2757.823
  60  2658.49
  61  2793.679
  62  3062.158
  63  3067.966
  64  2782.649
  65  2686.459
  66  2241.236
  67  2206.723
  68  2370.265
  69  2883.797
  70  2878.419
  71  2641.019
  72  2551.391
  73  3024.534
  74  3001.635
  75  2775.387
  76  3010.32
  77  2990.941
  78  2933.184
  79  2629.403
  80  2522.876
  81  2820.075
  82  3083.111
  83  2927.907
  84  2683.112
  85  2621.719
  86  2588.18
  87  2989.992
  88  3298.929
  89  3050.746
  90  2999.427
  91  2881.22
  92  2619.289
  93  2549.706
  94  2389.269
  95  2594.49
  96  2622.73
  97  2419.207
  98  2327.471
  99  2445.604
 100  2489.895
 101  1689.721
 102  1668.795
 103  1963.756
 104  2094.626
 105  2260.249
 106  2368.53
 107  2238.273
 108  2015.287
 109  2235.37
 110  2358.036
 111  2546.233
 112  2484.66
 113  2013.938
 114  2169.708
 115  2344.293
 116  2368.837
 117  2323.932
 118  2206.749
 119  2367.139
 120  2248.567
 121  2068.616
 122  2430.982
 123  2823.416
 124  2541.456
 125  2284.441
 126  2453.434
 127  2214.32
 128  2239.685
 129  2422.904
 130  2717.955
 131  2749.031
 132  2814.138
 133  2290.051
 134  1981.758
 135  2429.519
 136  2398.136
 137  2576.965
 138  2538.76
 139  2470.817
 140  2335.815
 141  2373.869
 142  2578.795
 143  2310.197
 144  1937.55
 145  2079.411
 146  2256.473
 147  2119.531
 148  2279.871
 149  2407.609
 150  2047.364
 151  1945.555
 152  1897.376
 153  1961.721
 154  2126.518
 155  2162.185
 156  2106.026
 157  2170.381
 158  2183.689
 159  2200.12
 160  2266.354
 161  2261.236
 162  2328.173
 163  2440.914
 164  2438.828
 165  2320.692
 166  1994.452
 167  2057.327
 168  2144.6
 169  2001.781
 170  2210.751
 171  2484.887
 172  2409.621
 173  2423.229
 174  2699.095
 175  2513.936
 176  2185.265
 177  2226.703
 178  2471.657
 179  2397.486
 180  2388.833
 181  2681.35
 182  2670.926
 183  2491.073
 184  2218.696
 185  1987.606
 186  2155.88
 187  2205.797
 188  2527.402
 189  2630.313
 190  2551.873
 191  2433.912
 192  2637.71
 193  2975.811
 194  2783.582
 195  3027.242
 196  2898.742
 197  2944.393
 198  2878.213
 199  2840.247
 200  2719.813
 201  2184.064
 202  2327.579
 203  2399.605
 204  2702.369
 205  2453.554
 206  2592.607
 207  2485.148
 208  2584.667
 209  2390.778
 210  2121.413
 211  2258.916
 212  2105.962
 213  2120.458
 214  2381.477
 215  2505.895
 216  2681.354
 217  2662.776
 218  2845.043
 219  2865.666
 220  2732.56
 221  3046.486
 222  3023.625
 223  3090.04
 224  3023.301
 225  2869.712
 226  2811.66
 227  3206.886
 228  3245.607
 229  3121.795
 230  3086.677
 231  2580.273
 232  2501.541
 233  2401.72
 234  2820.464
 235  2833.647
 236  2650.698
 237  2779.95
 238  2604.538
 239  2488.745
 240  2393.864
 241  2491.371
 242  2413.762
 243  2743.43
 244  3156.773
 245  3084.521
 246  2898.309
 247  2519.479
 248  2601.343
 249  2969.455
 250  3062.611
 251  2604.445
 252  2078.443
 253  2570.698
 254  2425.054
 255  2031.819
 256  2058.439
 257  2235.012
 258  2140.534
 259  2210.784
 260  2702.15
 261  2633.223
 262  2456.557
 263  2512.077
 264  2374.45
 265  2405.548
 266  2160.911
 267  2387.164
 268  2624.8
 269  2494.17
 270  2396.353
 271  2672.411
 272  2733.815
 273  2649.034
 274  2601.026
 275  2647.431
 276  2736.54
 277  2599.583
 278  2309.631
 279  2467.154
 280  2643.364
 281  2527.083
 282  2391.516
 283  2268.935
 284  2050.697
 285  2109.733
 286  2571.919
 287  2228.902
 288  2350.766
 289  2340.897
 290  2128.949
 291  2267.782
 292  2659.49
 293  2567.791
 294  2347.61
 295  1845.863
 296  1916.919
 297  2107.397
 298  2487.277
 299  2403.256
 300  2293.334
 301  2094.841
 302  2291.081
 303  2347.57
 304  2473.406
 305  2342.428
 306  2163.624
 307  2090.569
 308  1961.608
 309  1926.288
 310  1696.895
 311  2107.811
 312  2287.391
 313  2428.721
 314  2502.061
 315  2047.884
 316  1775.805
 317  1997.943
 318  1806.032
 319  1925.157
 320  1661.117
 321  1937.07
 322  1923.799
 323  2062.913
 324  2400.376
 325  2242.34
 326  2349.646
 327  2529.521
 328  2677.728
 329  3005.48
 330  3443.845
 331  3919.471
 332  4130.825
 333  3816.412
 334  3212.698
 335  2902.078
 336  2549.708
 337  2272.642
 338  2217.706
 339  2694.602
 340  2831.714
 341  2848.216
 342  2874.716
 343  2866.531
 344  2544.844
 345  2742.944
 346  3049.921
 347  2857.74
 348  2923.101
 349  3043.402
 350  2632.683
 351  2887.802
 352  3180.367
 353  3105.404
 354  3233.956
 355  3194.097
 356  3201.884
 357  2843.038
 358  3061.695
 359  3285.538
 360  2943.37
 361  2540.81
 362  2920.328
 363  2988.807
 364  2592.522
 365  2947.801
 366  2999.668
 367  2652.659
 368  2531.724
 369  2552.346
 370  2760.249
 371  2724.878
 372  2856.44
 373  2731.423
 374  2480.61
 375  2300.876
 376  2530.645
 377  2697.701
 378  2816.638
 379  2552.237
 380  2717.222
 381  2555.939
 382  2504.329
 383  2744.166
 384  2696.724
 385  2769.876
 386  2866.278
 387  3043.835
 388  3492.07
 389  3072.64
 390  2754.041
 391  2934.44
 392  3113.173
 393  3010.866
 394  2986.881
 395  2603.379
 396  2688.205
 397  3008.17
 398  2741.807
 399  2596.323
 400  2566.111
 401  2788.987
 402  2876.76
 403  3040.335
 404  2983.536
 405  2592.84
 406  2892.462
 407  2768.782
 408  2846.074
 409  2849.003
 410  2929.52
 411  2880.447
 412  2764.625
 413  2892.718
 414  3074.5
 415  3013.304
 416  3061.209
 417  2629.406
 418  2376.141
 419  2945.395
 420  3073.745
 421  2709.03
 422  2755.333
 423  2616.582
 424  2957.322
 425  2903.331
 426  2662.087
 427  2477.302
 428  2644.972
 429  2721.207
 430  2821.326
 431  2603.56
 432  2882.634
 433  2694.955
 434  2529.411
 435  2485.51
 436  2758.734
 437  3134.184
 438  2666.738
 439  2823.855
 440  2714.176
 441  2565.988
 442  2735.415
 443  2565.515
 444  2431.068
 445  2769.927
 446  2350.968
 447  2395.13
 448  1972.316
 449  1990.478
 450  2219.879
 451  2459.725
 452  2681.627
 453  2772.824
 454  2384.803
 455  2224.788
 456  1917.63
 457  2140.622
 458  2361.476
 459  2419.628
 460  2538.242
 461  2648.575
 462  2344.925
 463  2310.066
 464  2062.216
 465  2112.217
 466  2317.387
 467  2347.057
 468  2516.033
 469  3100.385
 470  3092.715
 471  2980.595
 472  2710.953
 473  2269.248
 474  2370.412
 475  2817.548
 476  2818.61
 477  2571.783
 478  2378.509
 479  2125.326
 480  1831.154
 481  2161.656
 482  2865.445
 483  2698.166
 484  2511.286
 485  2519.164
 486  2579.555
 487  2543.571
 488  2726.406
 489  2652.033
 490  2340.437
 491  2287.806
 492  2578.205
 493  2765.586
 494  3139.741
 495  3303.627
 496  3149.869
 497  2942.933
 498  2804.469
 499  2789.704
 500  2763.13
 501  2492.165
 502  2860.688
 503  2962.48
 504  3258.334
 505  3176.746
 506  3092.797
 507  2895.952
 508  2486.639
 509  2612.693
 510  2472.867
 511  2711.851
