# Input file       =  1210666695.126441_cleaned.dat
# Candidate        =  PSR_0332+5434
# Telescope        =  AR
# Epoch_topo       =  58256.346228315291
# Epoch_bary       =  N/A
# T_sample         =  0.002
# Data Folded      =  7340032
# Data Avg         =  0.0324825835779106
# Data StdDev      =  1.00004335081552 
# Profile Bins     =  512
# Profile Avg      =  465.663427167543 
# Profile StdDev   =  119.738226901538 
# Reduced chi-sqr  =  0.881
# Prob(Noise)      <  0.975   (~0.0 sigma)
# P_topo (ms)      =  714.53031829861   +/- 0.00054
# P'_topo (s/s)    =  -0                +/- 2.85e-10
# P''_topo (s/s^2) =  0                 +/- 1.26e-13
# P_bary (ms)      =  N/A
# P'_bary (s/s)    =  N/A
# P''_bary (s/s^2) =  N/A
# P_orb (s)        =  N/A
# asin(i)/c (s)    =  N/A
# eccentricity     =  N/A
# w (rad)          =  N/A
# T_peri           =  N/A
######################################################
   0  645.8666
   1  480.6311
   2  438.4815
   3  523.2184
   4  604.5474
   5  576.5249
   6  597.7856
   7  567.2471
   8  561.9656
   9  539.7073
  10  590.0699
  11  572.8906
  12  581.9582
  13  561.3524
  14  530.4637
  15  546.7129
  16  527.2695
  17  402.9758
  18  545.7961
  19  595.7756
  20  524.9564
  21  557.8522
  22  547.2078
  23  568.6873
  24  503.1549
  25  458.5083
  26  497.8902
  27  537.6942
  28  554.1662
  29  552.3981
  30  546.5651
  31  432.253
  32  407.711
  33  393.9374
  34  514.8075
  35  529.1091
  36  454.7862
  37  438.6783
  38  483.9813
  39  532.3881
  40  505.6718
  41  475.4328
  42  384.5321
  43  392.9801
  44  426.3357
  45  459.9637
  46  432.3839
  47  439.4631
  48  531.0342
  49  472.1593
  50  531.7968
  51  481.1918
  52  457.3619
  53  503.1649
  54  494.2169
  55  505.6765
  56  413.9474
  57  474.7705
  58  526.3251
  59  426.1497
  60  565.5922
  61  554.7626
  62  471.3112
  63  456.8757
  64  536.4075
  65  566.5815
  66  492.5313
  67  401.1535
  68  401.0767
  69  454.709
  70  466.5376
  71  412.8047
  72  387.4321
  73  414.6754
  74  398.5243
  75  368.1341
  76  377.3017
  77  421.0387
  78  368.8634
  79  297.0309
  80  289.2372
  81  288.8596
  82  272.3791
  83  330.4274
  84  361.5552
  85  337.5079
  86  332.4959
  87  380.4327
  88  345.3322
  89  297.9773
  90  324.8928
  91  324.9563
  92  322.6008
  93  292.1601
  94  384.7212
  95  455.5137
  96  407.7074
  97  285.9799
  98  350.3845
  99  380.4117
 100  360.0535
 101  387.5205
 102  381.2007
 103  423.5355
 104  423.2649
 105  401.9125
 106  382.4126
 107  490.1205
 108  424.1027
 109  372.533
 110  374.8672
 111  412.5796
 112  415.713
 113  354.7882
 114  365.6944
 115  441.1035
 116  383.8304
 117  398.8219
 118  397.1031
 119  402.6739
 120  503.9546
 121  439.7254
 122  361.9187
 123  345.6971
 124  454.2299
 125  388.0023
 126  470.3344
 127  537.7778
 128  455.1465
 129  378.8942
 130  447.2758
 131  437.3594
 132  438.1706
 133  452.4846
 134  467.8881
 135  446.4751
 136  422.8234
 137  459.3579
 138  442.0544
 139  461.3743
 140  469.5987
 141  466.5115
 142  410.1421
 143  389.7093
 144  437.9517
 145  571.9053
 146  530.8551
 147  416.7461
 148  472.1753
 149  459.6315
 150  464.2029
 151  434.4412
 152  395.5449
 153  387.452
 154  450.2159
 155  425.6364
 156  392.3093
 157  379.3193
 158  350.7221
 159  284.9799
 160  338.7344
 161  433.1259
 162  367.4068
 163  349.6916
 164  322.3503
 165  370.8539
 166  392.2557
 167  381.594
 168  422.4221
 169  427.657
 170  406.1011
 171  470.0812
 172  394.8111
 173  346.1767
 174  429.9124
 175  391.0428
 176  395.1281
 177  430.6222
 178  487.8684
 179  465.9961
 180  374.0704
 181  403.6913
 182  405.0157
 183  456.5223
 184  518.5594
 185  467.0083
 186  519.3476
 187  489.3902
 188  437.5199
 189  491.3778
 190  451.6165
 191  462.2776
 192  558.0757
 193  534.1552
 194  542.248
 195  401.5692
 196  342.8158
 197  404.0958
 198  518.7728
 199  491.4447
 200  424.6204
 201  518.133
 202  429.623
 203  401.4924
 204  462.6001
 205  421.3904
 206  420.8027
 207  464.408
 208  425.4408
 209  425.1521
 210  442.7379
 211  514.6686
 212  600.2776
 213  576.0221
 214  541.22
 215  550.9356
 216  622.4092
 217  629.7184
 218  590.7045
 219  563.6545
 220  518.515
 221  471.8946
 222  470.0498
 223  446.7855
 224  464.7022
 225  409.5843
 226  452.7034
 227  454.986
 228  561.7623
 229  539.5118
 230  464.3241
 231  448.5833
 232  427.2075
 233  434.567
 234  466.2104
 235  400.1037
 236  355.7884
 237  437.1425
 238  500.3052
 239  520.9188
 240  574.9591
 241  474.5568
 242  512.0635
 243  502.9026
 244  524.0588
 245  416.6931
 246  431.6343
 247  448.4132
 248  418.199
 249  411.5853
 250  408.2058
 251  343.9437
 252  450.4692
 253  375.0142
 254  362.0557
 255  427.4905
 256  408.4277
 257  320.5948
 258  295.6414
 259  366.262
 260  397.7433
 261  413.0611
 262  410.994
 263  468.4473
 264  426.6024
 265  383.0966
 266  430.8325
 267  520.4351
 268  552.3644
 269  466.7191
 270  409.9267
 271  432.6129
 272  463.2887
 273  470.8451
 274  475.4152
 275  470.2261
 276  486.0293
 277  412.5412
 278  407.4178
 279  454.3295
 280  342.3772
 281  416.4184
 282  425.6947
 283  460.5032
 284  429.8051
 285  447.6535
 286  441.0654
 287  412.5724
 288  500.4988
 289  490.5499
 290  465.5685
 291  434.3162
 292  480.9753
 293  523.0048
 294  483.3785
 295  437.1396
 296  423.6997
 297  454.7285
 298  464.2454
 299  427.3199
 300  433.23
 301  470.5505
 302  519.9209
 303  456.7188
 304  431.3669
 305  406.0611
 306  319.0969
 307  327.0007
 308  443.2037
 309  496.8127
 310  509.8824
 311  450.8654
 312  456.9936
 313  549.9962
 314  498.6212
 315  455.5482
 316  455.6318
 317  518.4338
 318  573.7544
 319  588.0972
 320  511.2111
 321  489.3142
 322  508.7909
 323  500.7183
 324  523.1725
 325  467.4833
 326  447.6766
 327  563.4951
 328  475.9908
 329  514.1774
 330  479.822
 331  380.2036
 332  414.7011
 333  468.8199
 334  513.1427
 335  557.1243
 336  466.8851
 337  478.6361
 338  439.5509
 339  429.2568
 340  485.1382
 341  489.6415
 342  454.7096
 343  443.3929
 344  485.7911
 345  520.3199
 346  479.0192
 347  501.4151
 348  454.4842
 349  509.166
 350  450.1938
 351  446.1982
 352  500.6958
 353  474.4389
 354  446.3914
 355  475.8087
 356  508.3908
 357  487.2158
 358  464.1206
 359  468.2146
 360  417.4218
 361  411.139
 362  473.527
 363  446.886
 364  398.6197
 365  448.5405
 366  513.6523
 367  466.4904
 368  431.8222
 369  438.1062
 370  499.3518
 371  457.628
 372  423.6892
 373  491.9572
 374  503.2391
 375  491.4958
 376  476.0111
 377  471.6844
 378  450.3512
 379  491.7057
 380  470.3264
 381  444.9402
 382  437.4235
 383  454.2604
 384  540.5834
 385  564.7125
 386  588.3732
 387  512.7396
 388  581.2259
 389  594.6083
 390  566.3303
 391  628.9742
 392  478.627
 393  471.1558
 394  541.5369
 395  547.6328
 396  499.3716
 397  496.6753
 398  480.2834
 399  417.4937
 400  386.7271
 401  357.6697
 402  421.4938
 403  446.188
 404  478.0317
 405  520.2146
 406  548.3046
 407  429.2991
 408  356.2721
 409  331.0934
 410  407.857
 411  363.8372
 412  354.5016
 413  375.9928
 414  437.6096
 415  409.3278
 416  428.9453
 417  393.3836
 418  427.6697
 419  478.2738
 420  480.3063
 421  475.6699
 422  390.894
 423  351.3672
 424  427.9861
 425  376.7012
 426  386.3516
 427  451.8158
 428  499.489
 429  490.886
 430  535.695
 431  535.9302
 432  584.1191
 433  834.4599
 434  998.9524
 435  1022.368
 436  864.5817
 437  740.7191
 438  614.571
 439  452.9544
 440  428.0533
 441  415.7194
 442  416.5154
 443  414.6298
 444  397.5024
 445  398.5239
 446  442.2756
 447  512.6591
 448  440.4489
 449  432.2663
 450  468.1937
 451  460.7229
 452  549.653
 453  558.2743
 454  497.2753
 455  513.5596
 456  602.3909
 457  597.1805
 458  489.8325
 459  458.2126
 460  502.4231
 461  572.4987
 462  563.0641
 463  552.7751
 464  529.9272
 465  435.1794
 466  492.8384
 467  525.1327
 468  448.9471
 469  564.0784
 470  530.8492
 471  509.7698
 472  535.7537
 473  523.3469
 474  540.4445
 475  530.1863
 476  523.1075
 477  478.3609
 478  512.1619
 479  530.2872
 480  473.7399
 481  530.4468
 482  571.7006
 483  534.7583
 484  455.7917
 485  435.5046
 486  385.0902
 487  376.8214
 488  442.2277
 489  503.8801
 490  479.6864
 491  504.5251
 492  474.2502
 493  462.4631
 494  410.3947
 495  508.3388
 496  549.1333
 497  564.1131
 498  500.4292
 499  543.5634
 500  575.1023
 501  539.9221
 502  558.2601
 503  543.1622
 504  577.7803
 505  570.8993
 506  533.5942
 507  470.0615
 508  494.8433
 509  518.1592
 510  562.4127
 511  658.8758
