# Input file       =  1210580531.111079_cleaned.dat
# Candidate        =  PSR_0332+5434
# Telescope        =  AR
# Epoch_topo       =  58255.348959618968
# Epoch_bary       =  N/A
# T_sample         =  0.002
# Data Folded      =  7340032
# Data Avg         =  0.0190157745802896
# Data StdDev      =  1.00006669823203 
# Profile Bins     =  512
# Profile Avg      =  272.609006094788 
# Profile StdDev   =  119.741022358609 
# Reduced chi-sqr  =  1.111
# Prob(Noise)      <  0.0413   (~1.7 sigma)
# P_topo (ms)      =  714.531296606466  +/- 0.000738
# P'_topo (s/s)    =  -0                +/- 3.89e-10
# P''_topo (s/s^2) =  0                 +/- 1.72e-13
# P_bary (ms)      =  N/A
# P'_bary (s/s)    =  N/A
# P''_bary (s/s^2) =  N/A
# P_orb (s)        =  N/A
# asin(i)/c (s)    =  N/A
# eccentricity     =  N/A
# w (rad)          =  N/A
# T_peri           =  N/A
######################################################
   0  130.9574
   1  197.9654
   2  223.9251
   3  274.6898
   4  224.5013
   5  185.2124
   6  165.6001
   7  131.6158
   8  132.7709
   9  120.3616
  10  102.676
  11  102.1124
  12  155.4596
  13  91.29813
  14  133.6739
  15  57.02576
  16  66.05628
  17  194.0998
  18  357.2577
  19  461.0898
  20  519.2798
  21  621.0466
  22  625.4678
  23  595.7602
  24  396.0163
  25  235.0703
  26  219.6137
  27  200.0733
  28  190.3617
  29  164.7142
  30  158.0029
  31  237.246
  32  227.0428
  33  239.657
  34  190.196
  35  162.0585
  36  196.601
  37  272.2597
  38  255.0355
  39  310.5317
  40  255.2347
  41  317.9698
  42  321.6618
  43  285.1687
  44  249.7973
  45  125.2555
  46  162.2867
  47  264.8539
  48  270.5515
  49  326.0389
  50  288.5986
  51  249.4201
  52  325.5364
  53  337.444
  54  247.1948
  55  214.221
  56  262.6386
  57  261.2329
  58  211.6569
  59  213.7947
  60  280.5332
  61  226.2241
  62  216.1615
  63  182.9129
  64  275.7363
  65  212.4343
  66  261.4497
  67  307.1678
  68  330.8385
  69  370.0683
  70  374.8647
  71  420.4494
  72  475.9167
  73  492.5156
  74  433.1194
  75  362.2421
  76  376.4762
  77  432.8295
  78  402.6672
  79  373.2306
  80  362.672
  81  400.7211
  82  422.9679
  83  416.1581
  84  377.4626
  85  434.4042
  86  385.4037
  87  370.7531
  88  379.6176
  89  468.9894
  90  439.0735
  91  407.6254
  92  363.9468
  93  295.5541
  94  345.3195
  95  351.3953
  96  400.6469
  97  411.3689
  98  369.2417
  99  403.8354
 100  404.5071
 101  353.4644
 102  359.4049
 103  337.3153
 104  338.3396
 105  331.6552
 106  378.6815
 107  330.5393
 108  407.3286
 109  447.4862
 110  262.768
 111  336.5799
 112  323.189
 113  325.2119
 114  309.0832
 115  301.7231
 116  313.061
 117  371.5885
 118  453.1386
 119  457.5464
 120  433.3232
 121  424.6746
 122  384.8688
 123  416.5662
 124  493.1736
 125  430.1389
 126  443.9329
 127  497.5338
 128  489.3709
 129  406.7108
 130  382.5088
 131  446.6954
 132  408.5186
 133  394.5951
 134  370.9298
 135  295.8294
 136  365.0522
 137  364.1798
 138  320.5658
 139  366.116
 140  418.7777
 141  319.0196
 142  283.02
 143  246.7421
 144  269.9088
 145  313.8428
 146  329.6043
 147  383.4163
 148  377.5897
 149  310.3754
 150  275.0743
 151  302.1086
 152  282.2649
 153  289.0264
 154  319.7434
 155  330.1814
 156  307.2952
 157  301.5179
 158  309.6986
 159  263.3983
 160  322.2682
 161  290.3737
 162  225.1649
 163  322.673
 164  369.3693
 165  356.9926
 166  437.561
 167  373.4826
 168  257.9337
 169  277.5597
 170  362.9258
 171  361.2331
 172  412.0023
 173  334.6285
 174  301.0319
 175  257.7217
 176  380.2616
 177  361.4379
 178  291.2929
 179  332.4194
 180  316.2285
 181  347.6417
 182  314.9495
 183  322.3994
 184  287.6638
 185  343.1668
 186  329.1741
 187  311.7029
 188  277.2809
 189  242.6319
 190  324.6296
 191  356.0293
 192  283.3941
 193  323.9779
 194  300.3207
 195  271.7632
 196  282.4386
 197  297.4424
 198  293.7582
 199  258.7343
 200  351.0276
 201  385.3477
 202  348.0461
 203  409.6358
 204  455.6184
 205  401.3077
 206  327.1315
 207  327.2238
 208  380.2669
 209  319.014
 210  307.8315
 211  410.7619
 212  451.2455
 213  396.9419
 214  401.5233
 215  409.9855
 216  434.8361
 217  376.5712
 218  340.9506
 219  399.8761
 220  337.885
 221  351.055
 222  379.7235
 223  274.733
 224  291.0703
 225  318.7422
 226  277.0921
 227  265.8697
 228  214.5413
 229  255.9799
 230  313.4455
 231  232.4426
 232  177.6073
 233  187.882
 234  221.402
 235  253.3564
 236  319.2589
 237  477.9492
 238  337.9488
 239  277.0029
 240  332.4926
 241  280.4973
 242  316.8182
 243  275.2059
 244  340.0203
 245  374.2911
 246  322.4371
 247  303.9889
 248  297.0791
 249  332.4972
 250  288.9676
 251  301.1793
 252  301.2777
 253  289.9277
 254  310.4518
 255  370.2571
 256  353.3638
 257  209.8495
 258  314.4906
 259  342.7849
 260  260.8387
 261  297.4632
 262  421.766
 263  298.1353
 264  341.6194
 265  359.0193
 266  275.7879
 267  220.1775
 268  285.3973
 269  271.0925
 270  274.9537
 271  240.6558
 272  175.3755
 273  173.7063
 274  198.2708
 275  240.7831
 276  321.9592
 277  263.3819
 278  314.5833
 279  293.3262
 280  216.9304
 281  192.92
 282  284.3536
 283  247.6494
 284  178.8175
 285  192.5083
 286  196.56
 287  241.0841
 288  187.9606
 289  203.3775
 290  181.6925
 291  230.2417
 292  231.1864
 293  225.647
 294  227.0258
 295  118.3585
 296  258.9306
 297  306.8685
 298  294.5399
 299  186.6313
 300  200.6806
 301  250.5206
 302  215.7564
 303  193.4664
 304  279.1628
 305  321.515
 306  285.4634
 307  214.8821
 308  201.6795
 309  217.3763
 310  248.0788
 311  328.1628
 312  301.204
 313  211.2202
 314  236.5379
 315  227.1989
 316  325.5851
 317  284.763
 318  303.0616
 319  261.2119
 320  165.2527
 321  191.779
 322  202.8643
 323  110.65
 324  152.5078
 325  210.325
 326  253.9451
 327  181.3442
 328  201.2836
 329  263.3792
 330  233.3561
 331  262.5977
 332  244.116
 333  215.5214
 334  178.086
 335  189.0225
 336  251.297
 337  192.4214
 338  275.8506
 339  236.6026
 340  250.6458
 341  308.7683
 342  280.1962
 343  203.8797
 344  233.2068
 345  340.3298
 346  305.1145
 347  285.8671
 348  301.4092
 349  204.6297
 350  214.757
 351  241.3842
 352  151.258
 353  158.2385
 354  119.8068
 355  130.5309
 356  148.1646
 357  235.9895
 358  179.7131
 359  189.6671
 360  244.2117
 361  249.7206
 362  249.8698
 363  166.124
 364  267.4022
 365  218.5863
 366  150.3959
 367  171.3305
 368  258.4359
 369  262.5466
 370  144.3611
 371  127.1733
 372  263.4261
 373  231.436
 374  259.4229
 375  340.0769
 376  350.7835
 377  195.338
 378  247.947
 379  310.9302
 380  280.7273
 381  266.9643
 382  341.7102
 383  359.8025
 384  399.3974
 385  298.0179
 386  238.5167
 387  251.5325
 388  200.2441
 389  275.7016
 390  261.0627
 391  313.4767
 392  260.5679
 393  300.2115
 394  312.9488
 395  313.1182
 396  280.9096
 397  246.0403
 398  170.0648
 399  207.0963
 400  228.2315
 401  190.7678
 402  191.3021
 403  273.3773
 404  297.5962
 405  154.7127
 406  148.1079
 407  165.8135
 408  196.6258
 409  235.1985
 410  214.7237
 411  131.6458
 412  125.5207
 413  100.1643
 414  182.6747
 415  177.9026
 416  138.6562
 417  145.4355
 418  223.5313
 419  201.6273
 420  267.7271
 421  302.11
 422  284.5857
 423  252.5664
 424  200.6437
 425  254.4773
 426  269.2107
 427  214.9484
 428  192.3747
 429  174.7189
 430  271.1025
 431  281.481
 432  230.3178
 433  321.9186
 434  322.2202
 435  234.1696
 436  174.235
 437  217.3253
 438  228.0587
 439  284.7553
 440  196.7881
 441  298.1738
 442  248.6549
 443  168.424
 444  278.9748
 445  216.9493
 446  181.5666
 447  92.71379
 448  180.4166
 449  207.1393
 450  199.4029
 451  91.22073
 452  85.10504
 453  104.0962
 454  159.4083
 455  210.1752
 456  207.1318
 457  249.0288
 458  326.5035
 459  232.1402
 460  268.7924
 461  290.6762
 462  166.747
 463  163.3089
 464  177.7589
 465  225.7772
 466  206.636
 467  287.3376
 468  267.71
 469  240.5422
 470  219.0273
 471  124.1965
 472  184.5837
 473  237.3723
 474  190.2527
 475  131.9547
 476  156.2445
 477  157.1582
 478  177.3302
 479  218.2423
 480  217.2166
 481  220.6323
 482  143.3914
 483  125.6485
 484  144.2857
 485  177.3718
 486  197.9069
 487  193.539
 488  181.2998
 489  148.9842
 490  148.5502
 491  107.6984
 492  101.8937
 493  39.64392
 494  192.5838
 495  214.8751
 496  199.889
 497  148.1608
 498  122.5337
 499  147.286
 500  218.2734
 501  229.2632
 502  148.2162
 503  172.0999
 504  213.3433
 505  247.1669
 506  184.4772
 507  191.2854
 508  165.653
 509  226.8235
 510  245.4844
 511  197.5094
