# Input file       =  1210509309.128302_cleaned.dat
# Candidate        =  PSR_0332+5434
# Telescope        =  AR
# Epoch_topo       =  58254.524631114611
# Epoch_bary       =  N/A
# T_sample         =  0.002
# Data Folded      =  7340032
# Data Avg         =  0.166340192736243
# Data StdDev      =  4.11157834570846 
# Profile Bins     =  512
# Profile Avg      =  2384.93377750366 
# Profile StdDev   =  492.291759632634 
# Reduced chi-sqr  =  1.011
# Prob(Noise)      <  0.423   (~0.2 sigma)
# P_topo (ms)      =  714.532439516701  +/- 0.000546
# P'_topo (s/s)    =  -0                +/- 2.88e-10
# P''_topo (s/s^2) =  0                 +/- 1.27e-13
# P_bary (ms)      =  N/A
# P'_bary (s/s)    =  N/A
# P''_bary (s/s^2) =  N/A
# P_orb (s)        =  N/A
# asin(i)/c (s)    =  N/A
# eccentricity     =  N/A
# w (rad)          =  N/A
# T_peri           =  N/A
######################################################
   0  2953.234
   1  2936.593
   2  2967.838
   3  2734.458
   4  2925.172
   5  2837.681
   6  2947.831
   7  3006.682
   8  2585.998
   9  2294.436
  10  2497.214
  11  2624.005
  12  2562.39
  13  2378.095
  14  2689.564
  15  2780.519
  16  2958.308
  17  2865.256
  18  2532.566
  19  2232.29
  20  2356.552
  21  2231.773
  22  2391.034
  23  2470.819
  24  2197.993
  25  2422.438
  26  2500.615
  27  2583.074
  28  2403.353
  29  2214.529
  30  2267.874
  31  2232.756
  32  2121.453
  33  2164.44
  34  2048.924
  35  2044.614
  36  2242.981
  37  2029.555
  38  1953.098
  39  1911.427
  40  1857.351
  41  2297.951
  42  2161.383
  43  2399.327
  44  2015.247
  45  2197.406
  46  2519.69
  47  2417.516
  48  2511.933
  49  2589.805
  50  2827.713
  51  2540.034
  52  2476.779
  53  2600.427
  54  2692.612
  55  2745.935
  56  2544.881
  57  2801.087
  58  2830.963
  59  2820.161
  60  2426.539
  61  2426.003
  62  2477.464
  63  2286.934
  64  2691.205
  65  2585.604
  66  2360.337
  67  2157.669
  68  2087.053
  69  2133.389
  70  2005.59
  71  2049.682
  72  2450.953
  73  2518.745
  74  2006.71
  75  1790.474
  76  1706.635
  77  2085.361
  78  2124.412
  79  2249.447
  80  1883.533
  81  1878.365
  82  2112.557
  83  2449.04
  84  2373.89
  85  1772.908
  86  1790.976
  87  1775.459
  88  2149.971
  89  2336.227
  90  1788.939
  91  1873.853
  92  2182.371
  93  2059.669
  94  2001.392
  95  1927.551
  96  2081.805
  97  2137.996
  98  2101.904
  99  1888.419
 100  2178.302
 101  2226.221
 102  2187.496
 103  2248.953
 104  2027.129
 105  1789.358
 106  1659.205
 107  1663.68
 108  1564.537
 109  1728.231
 110  2063.128
 111  1730.081
 112  1971.044
 113  2093.209
 114  1779.724
 115  1702.483
 116  1769.768
 117  2129.856
 118  2406.681
 119  2356.153
 120  2073.621
 121  2204.066
 122  2616.258
 123  2506.666
 124  2574.752
 125  2363.36
 126  2085.301
 127  2238.977
 128  2351.939
 129  2650.173
 130  2683.676
 131  2874.333
 132  2644.309
 133  2507.558
 134  2355.258
 135  2471.156
 136  2582.792
 137  2349.866
 138  2538.524
 139  2644.777
 140  2764.097
 141  2631.45
 142  2467.335
 143  2089.774
 144  1876.665
 145  2462.372
 146  2618.475
 147  2593.625
 148  2912.6
 149  2267.014
 150  2085.827
 151  2152.148
 152  2291.209
 153  2566.791
 154  2575.167
 155  2617.387
 156  2359.104
 157  2178.544
 158  2401.747
 159  2447.635
 160  2374.616
 161  2331.11
 162  2026.793
 163  2063.72
 164  2294.387
 165  2457.841
 166  2585.714
 167  2298.462
 168  2148.332
 169  2247.288
 170  2666.576
 171  2559.63
 172  2421.345
 173  2361.244
 174  2353.931
 175  2161.541
 176  2352.05
 177  2151.921
 178  2165.054
 179  2252.746
 180  2473.426
 181  2282.469
 182  2078.759
 183  2477.277
 184  2658.225
 185  2831.857
 186  2810.441
 187  2514.238
 188  2441.646
 189  2344.578
 190  2389.134
 191  2640.642
 192  2820.67
 193  2338.747
 194  2245.377
 195  2583.942
 196  2561.165
 197  2389.387
 198  2402.32
 199  2378.955
 200  1983.377
 201  2014.313
 202  2118.867
 203  2388.843
 204  2362.014
 205  2581.878
 206  2507.713
 207  2674.766
 208  2633.384
 209  2256.7
 210  2484.37
 211  2601.83
 212  2657.1
 213  2269.229
 214  2174.677
 215  2025.829
 216  2079.904
 217  2395.942
 218  2291.937
 219  2409.364
 220  2579.333
 221  2764.093
 222  2493.389
 223  2830.242
 224  3087.391
 225  3683.607
 226  3904.516
 227  4229.228
 228  4666.408
 229  4337.007
 230  3758.134
 231  3084.4
 232  2484.688
 233  2308.96
 234  2369.99
 235  2369.465
 236  2685.91
 237  3068.836
 238  2463.788
 239  2357.531
 240  2357.673
 241  2273.697
 242  2295.366
 243  2287.803
 244  2265.796
 245  2250.39
 246  1989.627
 247  2168.258
 248  2071.224
 249  1675.706
 250  1893.527
 251  2017.013
 252  2168.347
 253  2176.531
 254  2509.269
 255  2070.268
 256  2155.127
 257  2441.731
 258  2472.023
 259  2253.3
 260  2235.15
 261  2177.035
 262  2128.861
 263  2066.826
 264  2204.521
 265  2122.885
 266  2311.569
 267  2581.477
 268  2578.293
 269  2564.499
 270  2705.175
 271  2389.122
 272  2189.643
 273  2416.582
 274  2287.961
 275  2242.891
 276  2274.615
 277  2339.624
 278  2318.034
 279  2055.495
 280  1935.828
 281  1984.279
 282  2580.31
 283  2385.832
 284  2144.177
 285  2362.002
 286  2519.835
 287  2440.076
 288  2646.156
 289  2563.817
 290  2266.904
 291  2255.557
 292  2470.173
 293  2293.354
 294  2325.337
 295  2357.206
 296  2314.243
 297  2565.752
 298  2713.375
 299  2129.277
 300  2215.118
 301  2584.372
 302  2098.241
 303  2245.504
 304  2463.835
 305  2665.601
 306  2674.937
 307  2548.803
 308  2142.777
 309  2050.831
 310  2400.205
 311  1952.411
 312  2243.015
 313  2460.405
 314  2477.138
 315  2611.233
 316  2616.346
 317  2205.004
 318  1993.21
 319  2015.59
 320  2708.93
 321  2557.818
 322  2402.227
 323  2485.196
 324  2447.469
 325  2387.722
 326  2369.824
 327  2631.015
 328  2639.545
 329  2467.809
 330  2442.341
 331  2456.58
 332  2082.849
 333  2221.707
 334  2683.047
 335  2623.672
 336  2508.084
 337  2378.396
 338  2294.374
 339  2482.112
 340  2404.361
 341  2400.267
 342  2489.66
 343  2140.914
 344  2220.875
 345  2091.159
 346  1968.768
 347  1993.322
 348  2288.158
 349  2579.062
 350  2282.386
 351  2207.836
 352  2346.628
 353  2533.864
 354  2474.451
 355  2281.917
 356  2107.283
 357  2005.187
 358  2208.764
 359  2211.921
 360  2119.296
 361  2128.146
 362  1541.077
 363  1837.719
 364  1770.001
 365  1583.385
 366  1799.985
 367  2017.761
 368  1958.173
 369  2153.238
 370  2064.845
 371  2176.807
 372  2067.983
 373  1938.642
 374  1802.577
 375  1910.693
 376  2030.26
 377  2261.824
 378  2290.772
 379  2093.947
 380  1650.752
 381  1614.553
 382  1361.496
 383  1766.78
 384  1964.899
 385  1850.602
 386  2053.133
 387  2177.536
 388  2331.94
 389  1983.312
 390  1982.539
 391  2027.27
 392  2178.658
 393  2071.875
 394  2276.268
 395  2190.528
 396  2409.167
 397  2902.461
 398  2913.767
 399  2640.438
 400  2460.444
 401  2493.174
 402  2399.926
 403  2337.607
 404  2567.115
 405  2635.494
 406  2418.728
 407  2342.112
 408  2767.197
 409  2519.194
 410  2529.221
 411  2400.822
 412  2332.642
 413  2410.393
 414  2669.383
 415  2479.588
 416  2020.959
 417  2285.869
 418  2445.2
 419  2356.82
 420  2038.141
 421  2135.624
 422  2043.615
 423  2077.092
 424  2294.952
 425  2667.181
 426  2422.974
 427  2639.245
 428  2400.625
 429  2232.58
 430  2545.943
 431  2451.898
 432  2546.095
 433  2154.773
 434  2060.687
 435  2321.62
 436  2680.33
 437  2558.448
 438  2701.62
 439  2277.924
 440  2693.36
 441  2691.383
 442  2373.157
 443  2300.922
 444  2641.285
 445  2569.36
 446  2527.345
 447  2452.174
 448  2618.539
 449  2289.338
 450  2063.621
 451  1915.131
 452  2218.557
 453  2256.721
 454  2418.355
 455  2609.981
 456  2549.453
 457  2352.473
 458  2259.485
 459  2231.668
 460  2519.084
 461  2399.686
 462  2499.75
 463  2604.25
 464  2719.132
 465  2764.006
 466  2675.58
 467  2414.522
 468  2190.167
 469  2229.894
 470  2258.933
 471  2446.358
 472  2549.781
 473  2860.646
 474  2678.034
 475  2369.132
 476  2535.667
 477  2655.346
 478  2911.37
 479  3036.401
 480  2952.115
 481  2631.77
 482  2450.594
 483  2722.642
 484  2626.513
 485  3067.422
 486  3110.698
 487  2815.154
 488  2953.307
 489  2995.514
 490  3019.791
 491  2901.133
 492  2544.036
 493  2827.904
 494  2786.146
 495  2893.248
 496  2413.686
 497  2510.189
 498  2524.22
 499  2857.502
 500  2977.265
 501  2694.057
 502  2663.11
 503  2937.069
 504  2972.698
 505  2657.906
 506  2818.694
 507  3149.548
 508  2976.548
 509  2699.511
 510  2776.037
 511  2920.413
