# Input file       =  1210250771.112735_cleaned.dat
# Candidate        =  PSR_0332+5434
# Telescope        =  AR
# Epoch_topo       =  58251.532292971468
# Epoch_bary       =  N/A
# T_sample         =  0.002
# Data Folded      =  7340032
# Data Avg         =  0.0311693048197865
# Data StdDev      =  1.0000666502102  
# Profile Bins     =  512
# Profile Avg      =  446.706628778577 
# Profile StdDev   =  119.741016608808 
# Reduced chi-sqr  =  1.467
# Prob(Noise)      <  2.68e-11   (~6.6 sigma)
# P_topo (ms)      =  714.535352032487  +/- 0.000447
# P'_topo (s/s)    =  -0                +/- 2.36e-10
# P''_topo (s/s^2) =  0                 +/- 1.04e-13
# P_bary (ms)      =  N/A
# P'_bary (s/s)    =  N/A
# P''_bary (s/s^2) =  N/A
# P_orb (s)        =  N/A
# asin(i)/c (s)    =  N/A
# eccentricity     =  N/A
# w (rad)          =  N/A
# T_peri           =  N/A
######################################################
   0  436.3994
   1  495.9316
   2  491.1939
   3  502.2838
   4  437.1142
   5  385.7747
   6  352.9501
   7  410.147
   8  402.1113
   9  367.996
  10  438.507
  11  412.0196
  12  386.3933
  13  411.9196
  14  327.1807
  15  381.6521
  16  454.1682
  17  470.2499
  18  410.9555
  19  450.8229
  20  497.1986
  21  476.684
  22  472.3147
  23  421.8069
  24  411.268
  25  492.7838
  26  518.5035
  27  460.8158
  28  548.7537
  29  607.1486
  30  419.1703
  31  450.4287
  32  441.9992
  33  488.479
  34  471.4863
  35  426.0759
  36  434.0304
  37  458.9783
  38  467.0758
  39  556.788
  40  486.6082
  41  469.2385
  42  399.3521
  43  351.0067
  44  472.2376
  45  391.1402
  46  296.6905
  47  411.2839
  48  476.4713
  49  378.0563
  50  327.315
  51  361.5218
  52  395.297
  53  333.9318
  54  269.7672
  55  212.5414
  56  306.3975
  57  357.4443
  58  478.7288
  59  402.9373
  60  376.1165
  61  392.3053
  62  279.5405
  63  320.474
  64  306.2799
  65  272.9661
  66  341.8665
  67  293.9501
  68  364.8381
  69  444.6212
  70  353.118
  71  385.1143
  72  522.3071
  73  396.2592
  74  357.527
  75  403.0366
  76  489.3026
  77  454.1094
  78  405.8964
  79  440.5363
  80  515.3454
  81  557.6219
  82  569.3302
  83  489.943
  84  446.1431
  85  538.5214
  86  473.4298
  87  438.0049
  88  486.8139
  89  523.9656
  90  520.5339
  91  475.4773
  92  338.8184
  93  322.4675
  94  414.4302
  95  502.2037
  96  418.1857
  97  365.5577
  98  383.1387
  99  410.039
 100  403.275
 101  455.3339
 102  438.4653
 103  376.9215
 104  320.8556
 105  371.99
 106  469.0506
 107  418.9132
 108  498.4923
 109  477.3487
 110  300.4479
 111  366.9743
 112  567.1523
 113  632.5593
 114  481.5419
 115  432.7749
 116  390.2241
 117  447.8258
 118  542.4813
 119  507.7322
 120  492.6869
 121  446.6329
 122  585.0538
 123  514.6321
 124  419.1069
 125  559.9217
 126  529.9741
 127  488.0393
 128  543.726
 129  429.117
 130  407.9933
 131  471.9714
 132  486.8166
 133  389.5119
 134  305.1613
 135  452.4397
 136  429.3104
 137  449.4395
 138  390.5181
 139  367.5558
 140  320.8712
 141  383.7589
 142  382.7041
 143  373.0865
 144  344.5132
 145  421.8522
 146  318.8524
 147  413.1862
 148  445.8913
 149  336.0811
 150  401.1274
 151  449.6654
 152  469.5269
 153  423.5648
 154  320.0804
 155  440.9277
 156  428.4651
 157  431.5955
 158  397.5811
 159  552.4624
 160  609.0163
 161  600.6077
 162  479.6336
 163  393.3698
 164  380.0196
 165  421.8042
 166  473.1462
 167  509.9576
 168  448.4542
 169  448.7547
 170  391.7519
 171  482.0323
 172  471.3655
 173  399.2674
 174  456.1444
 175  461.2977
 176  361.6705
 177  468.7379
 178  500.5438
 179  546.6823
 180  488.6244
 181  555.9303
 182  655.2188
 183  549.6404
 184  431.0991
 185  444.812
 186  477.9371
 187  522.4293
 188  448.2124
 189  320.2578
 190  350.9801
 191  400.7723
 192  402.9153
 193  374.6735
 194  419.4636
 195  325.8611
 196  250.875
 197  413.3539
 198  413.2555
 199  337.3589
 200  315.6365
 201  574.6779
 202  555.8528
 203  445.3403
 204  444.3381
 205  494.9564
 206  463.1223
 207  484.5274
 208  472.0813
 209  401.2191
 210  508.6301
 211  615.5551
 212  531.4955
 213  503.511
 214  478.4004
 215  490.8518
 216  489.1569
 217  467.4393
 218  509.5909
 219  577.4036
 220  537.6954
 221  500.8059
 222  582.6825
 223  539.9894
 224  518.5668
 225  505.3858
 226  498.7791
 227  546.1717
 228  340.4811
 229  250.1306
 230  263.7206
 231  414.648
 232  453.3469
 233  382.9287
 234  415.2264
 235  475.9554
 236  359.8695
 237  233.1022
 238  385.9333
 239  452.632
 240  434.9236
 241  429.0168
 242  413.3217
 243  415.2673
 244  442.0528
 245  512.458
 246  582.4648
 247  610.3215
 248  521.0746
 249  522.9728
 250  427.2649
 251  426.0077
 252  538.821
 253  504.1002
 254  417.3267
 255  423.3814
 256  470.9913
 257  518.95
 258  407.2138
 259  418.7058
 260  424.8562
 261  552.9822
 262  521.1625
 263  498.2578
 264  448.3917
 265  278.2146
 266  437.4263
 267  394.0805
 268  402.3924
 269  403.4457
 270  421.009
 271  437.1245
 272  512.4775
 273  556.6483
 274  515.4351
 275  504.054
 276  581.6248
 277  438.196
 278  417.3662
 279  438.4624
 280  390.1061
 281  413.9213
 282  521.5362
 283  553.1437
 284  425.1096
 285  439.8589
 286  553.0248
 287  417.9342
 288  538.118
 289  550.1971
 290  437.8277
 291  414.3633
 292  447.6295
 293  461.0219
 294  412.0785
 295  529.3951
 296  607.5616
 297  531.0826
 298  516.4734
 299  554.5203
 300  537.8777
 301  536.7936
 302  534.1691
 303  503.7688
 304  547.4871
 305  585.181
 306  484.5143
 307  350.6759
 308  471.4562
 309  467.15
 310  434.2547
 311  487.9357
 312  489.7644
 313  414.4337
 314  418.996
 315  373.8559
 316  290.6376
 317  279.7894
 318  463.3946
 319  487.5772
 320  240.63
 321  412.9087
 322  517.2691
 323  501.6878
 324  359.6438
 325  295.5637
 326  361.635
 327  394.4893
 328  372.3029
 329  414.1761
 330  397.9363
 331  441.4585
 332  455.4988
 333  441.9245
 334  458.2587
 335  451.2213
 336  478.9787
 337  591.2204
 338  538.1539
 339  377.7074
 340  310.3599
 341  407.2966
 342  519.7059
 343  495.1564
 344  492.082
 345  498.1284
 346  477.5916
 347  495.3835
 348  462.5463
 349  358.0001
 350  320.1587
 351  316.5524
 352  311.2098
 353  344.1388
 354  416.0226
 355  293.0861
 356  336.9678
 357  363.4493
 358  280.1776
 359  299.0425
 360  361.7575
 361  318.9784
 362  344.6408
 363  370.2071
 364  283.5423
 365  272.1674
 366  324.8659
 367  310.5887
 368  333.3965
 369  288.0092
 370  287.133
 371  223.3766
 372  393.6126
 373  442.2383
 374  289.3471
 375  455.6653
 376  508.4819
 377  464.9175
 378  412.7304
 379  460.8416
 380  417.2151
 381  368.2964
 382  453.3689
 383  515.9687
 384  339.6772
 385  322.7108
 386  433.715
 387  461.5476
 388  382.379
 389  368.3057
 390  363.7871
 391  310.6309
 392  270.5685
 393  333.272
 394  315.6511
 395  401.8364
 396  355.8177
 397  520.0616
 398  416.029
 399  380.5125
 400  420.8455
 401  363.2127
 402  345.9759
 403  322.395
 404  360.4501
 405  395.6427
 406  356.721
 407  396.5015
 408  300.7255
 409  343.1171
 410  335.8823
 411  426.1736
 412  471.9917
 413  471.1763
 414  520.3488
 415  628.8578
 416  555.9229
 417  543.3116
 418  438.1484
 419  434.4081
 420  429.0139
 421  497.7532
 422  571.4492
 423  565.4882
 424  572.2994
 425  449.062
 426  409.0609
 427  413.2729
 428  488.829
 429  496.7802
 430  475.2981
 431  442.4734
 432  467.575
 433  408.1543
 434  428.613
 435  555.6154
 436  449.0166
 437  483.6829
 438  529.8258
 439  545.2734
 440  459.9636
 441  388.861
 442  424.4229
 443  411.8228
 444  308.5089
 445  512.6762
 446  616.9359
 447  458.0627
 448  477.3615
 449  330.7804
 450  402.6717
 451  385.9636
 452  429.9611
 453  408.4579
 454  365.7764
 455  474.7982
 456  454.5815
 457  366.7469
 458  311.2985
 459  424.7153
 460  322.1408
 461  443.5768
 462  433.1446
 463  375.2031
 464  407.0347
 465  369.657
 466  402.877
 467  400.0712
 468  420.3627
 469  467.573
 470  587.248
 471  499.5007
 472  431.0977
 473  396.1704
 474  564.3148
 475  513.9645
 476  474.963
 477  480.7292
 478  431.0888
 479  506.756
 480  343.9786
 481  362.6221
 482  459.4451
 483  615.4368
 484  600.3509
 485  526.231
 486  450.0426
 487  431.4704
 488  592.7395
 489  611.1857
 490  736.4817
 491  864.2185
 492  1121.619
 493  1192.074
 494  1166.148
 495  997.947
 496  835.0417
 497  555.4725
 498  504.2482
 499  393.9147
 500  383.4495
 501  519.5928
 502  597.9907
 503  573.8198
 504  519.4728
 505  530.1898
 506  606.7881
 507  674.3
 508  487.0238
 509  497.1107
 510  556.1508
 511  481.4258
