# Input file       =  1211528298.098192-PSRB0329-2ms-sampling-dd.dat
# Candidate        =  PSR_0332+5434
# Telescope        =  AR
# Epoch_topo       =  58266.318484932781
# Epoch_bary       =  N/A
# T_sample         =  0.002
# Data Folded      =  7340032
# Data Avg         =  3.91966139822473e-11
# Data StdDev      =  5.21711940544473 
# Profile Bins     =  512
# Profile Avg      =  -0.0573095581378258
# Profile StdDev   =  624.661547554046 
# Reduced chi-sqr  =  0.718
# Prob(Noise)      <  1   (~0.0 sigma)
# P_topo (ms)      =  714.520534287052  +/- 0.000764
# P'_topo (s/s)    =  -0                +/- 4.03e-10
# P''_topo (s/s^2) =  0                 +/- 1.78e-13
# P_bary (ms)      =  N/A
# P'_bary (s/s)    =  N/A
# P''_bary (s/s^2) =  N/A
# P_orb (s)        =  N/A
# asin(i)/c (s)    =  N/A
# eccentricity     =  N/A
# w (rad)          =  N/A
# T_peri           =  N/A
######################################################
   0  -491.5556
   1  -411.133
   2  -516.3981
   3  -277.2623
   4  -437.1622
   5  -225.1717
   6  -290.5031
   7  -271.2077
   8  -649.9811
   9  -438.8042
  10  3.603692
  11  -251.5986
  12  -326.495
  13  -341.1548
  14  -462.1577
  15  -512.7612
  16  -722.4496
  17  -598.9006
  18  -613.6148
  19  -495.2431
  20  -214.6126
  21  -595.0797
  22  -473.0218
  23  -407.4628
  24  -575.3812
  25  -598.1566
  26  -871.3588
  27  -823.9052
  28  -637.2159
  29  -418.314
  30  -563.9665
  31  -432.4024
  32  -621.6791
  33  -762.129
  34  -874.2422
  35  -663.3501
  36  -687.6341
  37  -527.9537
  38  -661.0127
  39  -872.9535
  40  -948.9141
  41  -1131.774
  42  -1058.163
  43  -861.4666
  44  -636.0482
  45  -516.5667
  46  -575.0496
  47  -51.138
  48  -222.6563
  49  -149.4311
  50  -492.1732
  51  -401.5127
  52  -314.9611
  53  -578.4983
  54  -315.1687
  55  133.4342
  56  291.7009
  57  -281.0087
  58  -209.279
  59  45.41525
  60  -21.85736
  61  -242.4747
  62  -213.8137
  63  168.5798
  64  257.5803
  65  243.6232
  66  221.8844
  67  228.2956
  68  -360.7263
  69  -477.1367
  70  -374.9268
  71  -3.491194
  72  -150.1474
  73  -5.245993
  74  -246.0554
  75  -545.9382
  76  -345.8898
  77  -262.3091
  78  -403.173
  79  -237.9971
  80  -27.96559
  81  243.0132
  82  239.9362
  83  213.5825
  84  49.38183
  85  -75.64069
  86  274.8137
  87  420.4121
  88  117.6153
  89  496.739
  90  514.6465
  91  617.2778
  92  654.4692
  93  442.2404
  94  320.4092
  95  271.0683
  96  526.5609
  97  816.7087
  98  620.6165
  99  350.9481
 100  -71.88499
 101  -80.81873
 102  81.81917
 103  340.5916
 104  462.6924
 105  699.1798
 106  545.3795
 107  108.598
 108  98.99342
 109  133.2343
 110  126.9841
 111  253.1563
 112  5.623521
 113  -73.90382
 114  109.2475
 115  -99.36867
 116  -221.1138
 117  -388.3272
 118  -162.2222
 119  -9.087806
 120  151.6623
 121  -264.4023
 122  147.3878
 123  229.8871
 124  350.3232
 125  290.5961
 126  130.4707
 127  -15.33846
 128  -68.35376
 129  125.0029
 130  295.963
 131  306.9872
 132  170.925
 133  65.98114
 134  -260.8139
 135  -299.2028
 136  13.69498
 137  165.6334
 138  243.4189
 139  386.3474
 140  -181.259
 141  -132.4687
 142  228.6874
 143  209.0055
 144  375.9103
 145  143.2495
 146  351.984
 147  228.5503
 148  529.2736
 149  473.7806
 150  546.9533
 151  526.7714
 152  483.5338
 153  171.0907
 154  153.3281
 155  197.9728
 156  286.0909
 157  222.4783
 158  311.9059
 159  116.8051
 160  190.189
 161  67.15556
 162  434.0067
 163  381.5901
 164  347.9278
 165  283.5879
 166  -38.95737
 167  87.29947
 168  157.9521
 169  213.0365
 170  298.4964
 171  485.1357
 172  487.5506
 173  552.3412
 174  418.7198
 175  310.4463
 176  585.0628
 177  446.1939
 178  460.767
 179  405.752
 180  424.8855
 181  461.6713
 182  560.1605
 183  522.5946
 184  463.3812
 185  152.4893
 186  395.8499
 187  427.3926
 188  482.7385
 189  290.7528
 190  253.3239
 191  753.3987
 192  401.7928
 193  91.67651
 194  436.7546
 195  630.8351
 196  479.3676
 197  423.491
 198  612.4149
 199  222.3336
 200  -118.8552
 201  263.4892
 202  529.5013
 203  544.5416
 204  385.0063
 205  197.3768
 206  127.6295
 207  -107.9902
 208  -204.0202
 209  22.68817
 210  526.4826
 211  635.6852
 212  461.4087
 213  295.0434
 214  254.3283
 215  299.8472
 216  163.2328
 217  247.6189
 218  57.38683
 219  -232.2227
 220  -174.3039
 221  247.3762
 222  70.38913
 223  42.55534
 224  21.94568
 225  100.6949
 226  25.4248
 227  -160.2401
 228  -172.1252
 229  -202.7383
 230  -238.8566
 231  -323.7587
 232  -139.4851
 233  -440.075
 234  -527.1085
 235  -422.5599
 236  -378.6586
 237  -386.2878
 238  22.43273
 239  121.0575
 240  164.7912
 241  218.6282
 242  275.3352
 243  192.3556
 244  -49.51497
 245  365.541
 246  320.4287
 247  347.8902
 248  598.059
 249  352.6004
 250  648.7394
 251  744.8088
 252  496.5729
 253  533.7877
 254  713.61
 255  581.1033
 256  423.0447
 257  -71.12634
 258  284.2777
 259  331.5382
 260  526.4113
 261  868.8047
 262  287.4836
 263  50.3892
 264  -243.5037
 265  38.0219
 266  104.5815
 267  28.04626
 268  202.3205
 269  185.3638
 270  210.8214
 271  306.4386
 272  702.8029
 273  780.9681
 274  588.8313
 275  -114.3129
 276  280.7394
 277  -149.7495
 278  -700.2015
 279  -168.1509
 280  271.7853
 281  75.51035
 282  -222.354
 283  185.4858
 284  284.3799
 285  349.147
 286  439.7764
 287  238.6798
 288  -23.34654
 289  -287.7303
 290  -224.3196
 291  132.0371
 292  287.0468
 293  371.2621
 294  341.2177
 295  229.3931
 296  399.8551
 297  448.242
 298  289.8073
 299  182.0468
 300  637.1665
 301  346.1848
 302  224.6998
 303  265.2643
 304  -25.69872
 305  380.7986
 306  402.7524
 307  71.37808
 308  176.5285
 309  205.198
 310  -48.60136
 311  -179.4974
 312  -282.4024
 313  -52.30135
 314  116.1715
 315  -89.01984
 316  -27.17667
 317  -255.7834
 318  -216.6833
 319  -252.8628
 320  -288.9548
 321  -214.4714
 322  -36.03199
 323  -27.33087
 324  34.21146
 325  -98.00855
 326  167.8134
 327  -400.3256
 328  -479.8914
 329  -199.6323
 330  -108.975
 331  -5.488452
 332  84.12768
 333  212.6705
 334  348.4867
 335  33.23105
 336  -132.0005
 337  -122.0674
 338  23.65027
 339  70.25722
 340  3.099309
 341  503.1843
 342  300.4468
 343  269.8271
 344  144.3002
 345  -150.7094
 346  -75.46487
 347  -78.05873
 348  -105.0171
 349  222.9423
 350  278.9693
 351  303.7505
 352  153.5959
 353  -157.5035
 354  -65.36581
 355  228.8542
 356  379.2803
 357  477.2162
 358  688.5422
 359  782.8893
 360  264.7978
 361  356.5938
 362  368.04
 363  -166.386
 364  -13.47177
 365  769.8969
 366  612.1138
 367  583.3185
 368  330.7223
 369  99.56686
 370  -98.56843
 371  -35.7079
 372  -69.06537
 373  472.5562
 374  712.023
 375  241.0264
 376  46.58255
 377  -11.81685
 378  -142.4772
 379  -119.1912
 380  -163.254
 381  -119.2078
 382  -344.9551
 383  -274.8
 384  -202.0533
 385  -136.7461
 386  210.919
 387  -194.156
 388  -463.0542
 389  -586.5845
 390  -464.0589
 391  -296.6346
 392  -320.2464
 393  -384.0668
 394  -102.9291
 395  -63.52039
 396  -290.7031
 397  -407.2971
 398  -147.081
 399  -331.7625
 400  -53.09497
 401  57.33696
 402  82.69084
 403  -115.8058
 404  -49.21796
 405  60.99459
 406  -170.6418
 407  -312.4384
 408  -85.17274
 409  195.5006
 410  580.7714
 411  354.2231
 412  -36.34383
 413  -14.64042
 414  -571.8135
 415  -665.1343
 416  -180.7045
 417  -189.3303
 418  -253.6975
 419  -148.0398
 420  44.60408
 421  -289.9646
 422  -579.9426
 423  -605.0548
 424  -726.4194
 425  -288.5566
 426  -22.44624
 427  -223.6294
 428  -457.9472
 429  -384.7661
 430  -362.2303
 431  -370.5419
 432  -862.6115
 433  -452.3754
 434  -165.9934
 435  17.35958
 436  -21.48341
 437  -56.86853
 438  -15.80966
 439  193.5305
 440  236.7124
 441  224.9465
 442  493.433
 443  969.8916
 444  1414.061
 445  1370.957
 446  932.7231
 447  195.7183
 448  -102.2475
 449  -259.1572
 450  -78.93897
 451  -591.8492
 452  -589.242
 453  -462.8039
 454  -518.7023
 455  -624.261
 456  -357.9583
 457  -70.01293
 458  200.5273
 459  -47.76709
 460  -159.4543
 461  -136.298
 462  -345.3369
 463  -314.1507
 464  -365.0968
 465  -585.16
 466  -276.0918
 467  -352.8824
 468  -423.5274
 469  -416.2101
 470  -526.089
 471  -793.1603
 472  -834.8434
 473  -612.3769
 474  -759.4495
 475  -585.1733
 476  -468.5583
 477  -159.5936
 478  -2.673198
 479  -201.9494
 480  -248.2466
 481  156.2006
 482  -77.48125
 483  -268.7259
 484  -182.0854
 485  -44.55774
 486  335.3051
 487  94.24361
 488  -197.8434
 489  -474.9917
 490  -277.7644
 491  -287.2804
 492  -293.2954
 493  -261.9655
 494  -4.778224
 495  -117.0644
 496  -0.09518579
 497  -57.49496
 498  -381.4683
 499  -290.6433
 500  -178.6676
 501  -222.734
 502  -325.5742
 503  -319.1355
 504  -347.1507
 505  -299.3229
 506  -218.1798
 507  -314.7664
 508  -126.4804
 509  -459.9395
 510  -459.1388
 511  -452.0675
