# Input file       =  1211442149.106837-PSRB0329-2ms-sampling-dd.dat
# Candidate        =  PSR_0332+5434
# Telescope        =  AR
# Epoch_topo       =  58265.321390125428
# Epoch_bary       =  N/A
# T_sample         =  0.002
# Data Folded      =  7340032
# Data Avg         =  5.10903572192239e-10
# Data StdDev      =  6.03225082821584 
# Profile Bins     =  512
# Profile Avg      =  -1.26204740464489
# Profile StdDev   =  722.259707848545 
# Reduced chi-sqr  =  0.738
# Prob(Noise)      <  1   (~0.0 sigma)
# P_topo (ms)      =  714.521509493701  +/- 0.000945
# P'_topo (s/s)    =  -0                +/- 4.99e-10
# P''_topo (s/s^2) =  0                 +/- 2.2e-13
# P_bary (ms)      =  N/A
# P'_bary (s/s)    =  N/A
# P''_bary (s/s^2) =  N/A
# P_orb (s)        =  N/A
# asin(i)/c (s)    =  N/A
# eccentricity     =  N/A
# w (rad)          =  N/A
# T_peri           =  N/A
######################################################
   0  413.9937
   1  138.9089
   2  536.4088
   3  356.0414
   4  265.7669
   5  -94.12753
   6  118.1058
   7  62.80062
   8  -103.5899
   9  140.7433
  10  -301.2098
  11  -125.5705
  12  76.14092
  13  64.63805
  14  176.5101
  15  131.7223
  16  211.0061
  17  218.9938
  18  301.8617
  19  274.2128
  20  380.1153
  21  871.8143
  22  567.6076
  23  105.1926
  24  280.8111
  25  675.8526
  26  629.8618
  27  576.5731
  28  564.8199
  29  -143.4883
  30  73.47854
  31  262.7555
  32  694.7427
  33  545.4725
  34  540.4595
  35  248.8614
  36  124.5947
  37  179.5245
  38  56.66263
  39  320.8374
  40  385.433
  41  630.0714
  42  273.624
  43  -47.93734
  44  -17.79185
  45  294.3102
  46  296.1341
  47  247.6196
  48  577.271
  49  182.0111
  50  -345.4832
  51  -19.41222
  52  208.9207
  53  58.90039
  54  112.7383
  55  176.876
  56  59.01743
  57  142.8697
  58  628.8243
  59  429.8264
  60  293.0923
  61  220.7041
  62  -206.5384
  63  -251.853
  64  -146.4732
  65  374.3739
  66  349.1214
  67  405.2459
  68  367.6676
  69  227.0218
  70  76.56446
  71  48.88161
  72  405.7672
  73  137.9846
  74  -66.44007
  75  -225.587
  76  -57.86123
  77  -140.6586
  78  -84.98466
  79  -141.9288
  80  -504.8188
  81  -35.86745
  82  -48.52446
  83  26.90949
  84  -255.9043
  85  44.2583
  86  -184.6499
  87  -411.7899
  88  -622.6007
  89  -114.3142
  90  -57.62507
  91  165.4082
  92  474.5859
  93  435.0634
  94  153.6124
  95  305.6593
  96  133.8969
  97  114.8212
  98  370.0714
  99  551.1359
 100  257.8434
 101  12.8345
 102  -180.8889
 103  -7.224441
 104  -581.1187
 105  -615.3864
 106  -367.6311
 107  -185.595
 108  -230.813
 109  -471.1422
 110  -39.27207
 111  -109.8951
 112  -671.5089
 113  -477.2143
 114  -352.1776
 115  -498.7277
 116  -523.0657
 117  -603.2449
 118  -341.1101
 119  -355.5243
 120  -296.9619
 121  -3.699655
 122  -194.4146
 123  -349.3759
 124  -589.6699
 125  -464.8819
 126  -249.0297
 127  -160.5208
 128  -510.2579
 129  -684.8253
 130  -401.2155
 131  -152.2139
 132  -134.9418
 133  -349.9568
 134  -179.1724
 135  -260.5892
 136  -437.458
 137  -725.2911
 138  -581.8381
 139  -390.7712
 140  -581.7894
 141  -599.5724
 142  -580.8696
 143  -379.2415
 144  -224.4397
 145  -138.5191
 146  -82.49158
 147  -402.0067
 148  -657.444
 149  -873.5971
 150  -554.8718
 151  -504.6882
 152  -715.7261
 153  -499.4603
 154  -473.4202
 155  -592.9134
 156  -675.0515
 157  -216.8982
 158  -200.1158
 159  -223.8935
 160  -5.99705
 161  -502.6614
 162  -498.8622
 163  -470.6395
 164  -210.7188
 165  -413.1665
 166  -958.7729
 167  -722.8873
 168  -375.3375
 169  -323.1883
 170  -451.3231
 171  -640.9936
 172  -261.2375
 173  -166.7461
 174  -13.97077
 175  -436.3799
 176  -527.2084
 177  -391.9937
 178  -303.5937
 179  -642.8413
 180  -624.9412
 181  -385.8758
 182  -346.2561
 183  -352.9745
 184  -339.6003
 185  -299.3116
 186  -31.03572
 187  -244.3211
 188  -218.7216
 189  -314.3745
 190  -519.0541
 191  -583.7985
 192  -655.0435
 193  -405.2172
 194  -450.1545
 195  -716.1629
 196  -262.4419
 197  -324.5597
 198  -232.4951
 199  -440.6394
 200  -251.7812
 201  -145.0651
 202  -201.0754
 203  -82.10521
 204  -188.1315
 205  -270.9379
 206  -357.0358
 207  -122.2521
 208  -192.6467
 209  -363.1773
 210  5.91867
 211  208.8833
 212  -175.1528
 213  -125.2665
 214  -237.0313
 215  -345.1463
 216  -149.0895
 217  282.2813
 218  192.5292
 219  -229.6279
 220  -61.08565
 221  -119.9923
 222  -161.2852
 223  -7.504315
 224  44.4129
 225  -217.0623
 226  -218.2599
 227  -58.30615
 228  99.95757
 229  -218.5616
 230  -421.2369
 231  -719.7781
 232  -498.9925
 233  -661.1072
 234  -765.6301
 235  -219.1351
 236  -107.0556
 237  -399.7293
 238  -520.8453
 239  -912.6003
 240  -512.0009
 241  -649.7802
 242  -310.2038
 243  -487.8647
 244  -312.6428
 245  -303.9129
 246  -513.5346
 247  -665.2268
 248  -709.0127
 249  -329.4915
 250  -88.93974
 251  -328.0047
 252  -643.4533
 253  -758.7051
 254  -558.601
 255  -502.0113
 256  -707.0821
 257  -771.7632
 258  -518.4988
 259  -793.3077
 260  -750.3376
 261  -921.2551
 262  -758.9996
 263  -592.6388
 264  -674.701
 265  -528.4583
 266  -666.0322
 267  -673.3788
 268  -467.9026
 269  -560.9185
 270  -521.753
 271  -864.889
 272  -559.5816
 273  -595.9738
 274  -693.0054
 275  -360.2192
 276  -298.2621
 277  7.957929
 278  -171.2624
 279  -0.8669281
 280  -395.4304
 281  -478.7584
 282  -456.6203
 283  -642.7455
 284  -745.7946
 285  -714.6436
 286  -17.88969
 287  156.5285
 288  -425.7287
 289  -603.3004
 290  -755.1636
 291  -668.0157
 292  -562.9349
 293  -297.297
 294  -647.4924
 295  -583.7712
 296  -621.4512
 297  -610.0373
 298  -564.6378
 299  -174.192
 300  -270.8622
 301  -284.3385
 302  -179.2403
 303  131.6418
 304  -413.4483
 305  -422.2552
 306  63.79362
 307  450.958
 308  105.8101
 309  11.91385
 310  268.1438
 311  82.60043
 312  -196.8773
 313  -236.0923
 314  -9.829334
 315  144.0475
 316  466.8009
 317  455.7913
 318  510.6777
 319  483.2064
 320  172.3172
 321  234.4402
 322  -65.37237
 323  -23.30557
 324  271.3202
 325  142.2795
 326  411.8291
 327  263.5069
 328  421.8911
 329  204.2155
 330  21.19584
 331  -154.6449
 332  -116.6374
 333  149.1248
 334  317.5986
 335  179.5391
 336  66.37716
 337  -67.95557
 338  39.0428
 339  -25.65866
 340  300.2502
 341  271.8578
 342  80.68832
 343  273.281
 344  718.0289
 345  509.0308
 346  816.9384
 347  875.8544
 348  1294.011
 349  1541.545
 350  1866.97
 351  2056.321
 352  1875.603
 353  1863.016
 354  936.4617
 355  415.9373
 356  43.68634
 357  121.591
 358  -89.19829
 359  128.0838
 360  400.6226
 361  296.749
 362  197.1146
 363  -145.7381
 364  -399.8158
 365  -540.7215
 366  -128.9068
 367  68.94844
 368  437.2021
 369  144.9491
 370  -622.5798
 371  -400.9393
 372  -76.02168
 373  206.8681
 374  177.3589
 375  380.8077
 376  274.5779
 377  122.7073
 378  113.5718
 379  313.8781
 380  711.2965
 381  501.0845
 382  497.8721
 383  174.7062
 384  224.8573
 385  594.2195
 386  700.0298
 387  816.2269
 388  592.0082
 389  180.2411
 390  509.58
 391  544.4037
 392  232.3252
 393  518.1241
 394  464.711
 395  568.4191
 396  678.032
 397  665.4048
 398  400.1176
 399  661.439
 400  824.3204
 401  663.5697
 402  527.8698
 403  672.0229
 404  566.7689
 405  285.1451
 406  592.4855
 407  557.3203
 408  553.3208
 409  342.7811
 410  375.5992
 411  219.457
 412  69.09349
 413  23.46603
 414  -205.6064
 415  26.95091
 416  -373.0081
 417  -318.8966
 418  -217.6254
 419  -350.5715
 420  -92.77739
 421  -270.3248
 422  -22.29116
 423  32.80841
 424  -56.54566
 425  -167.518
 426  -176.1615
 427  31.61203
 428  55.44273
 429  217.604
 430  -79.84552
 431  -57.6516
 432  139.5452
 433  84.68767
 434  288.6919
 435  121.5528
 436  -351.6258
 437  -251.9174
 438  139.8711
 439  350.7204
 440  129.4442
 441  325.8206
 442  756.2206
 443  494.0042
 444  265.0798
 445  222.5903
 446  101.8201
 447  222.9262
 448  208.9637
 449  875.6492
 450  826.8271
 451  758.6766
 452  559.11
 453  579.361
 454  709.1061
 455  519.591
 456  606.6265
 457  674.9161
 458  552.1151
 459  448.8872
 460  219.9852
 461  39.70152
 462  175.0925
 463  250.8062
 464  241.3428
 465  67.66581
 466  -139.1832
 467  33.59138
 468  -126.137
 469  209.4945
 470  253.41
 471  178.6767
 472  374.3812
 473  391.5078
 474  96.83847
 475  -268.7742
 476  99.89319
 477  193.167
 478  375.5153
 479  311.6288
 480  118.2446
 481  235.4542
 482  -20.61379
 483  13.68864
 484  452.6691
 485  474.1582
 486  522.2065
 487  582.0079
 488  119.5078
 489  369.2116
 490  394.716
 491  153.3597
 492  256.0836
 493  395.5632
 494  497.1941
 495  378.3565
 496  542.4833
 497  510.63
 498  574.8298
 499  597.0423
 500  355.5512
 501  423.9888
 502  497.8102
 503  443.7887
 504  472.293
 505  459.783
 506  355.0121
 507  336.0605
 508  350.8715
 509  603.1132
 510  634.0428
 511  807.7069
