# Input file       =  1211098148.107654-PSRB0329-2ms-sampling-dd.dat
# Candidate        =  PSR_0332+5434
# Telescope        =  AR
# Epoch_topo       =  58261.339897079328
# Epoch_bary       =  N/A
# T_sample         =  0.002
# Data Folded      =  7340032
# Data Avg         =  -1.09919236462312e-09
# Data StdDev      =  27.1805836217603 
# Profile Bins     =  512
# Profile Avg      =  -0.130997822772674
# Profile StdDev   =  3254.41380752595 
# Reduced chi-sqr  =  0.836
# Prob(Noise)      <  0.997   (~0.0 sigma)
# P_topo (ms)      =  714.52542157341   +/- 9.19e-05
# P'_topo (s/s)    =  -0                +/- 4.85e-11
# P''_topo (s/s^2) =  0                 +/- 2.14e-14
# P_bary (ms)      =  N/A
# P'_bary (s/s)    =  N/A
# P''_bary (s/s^2) =  N/A
# P_orb (s)        =  N/A
# asin(i)/c (s)    =  N/A
# eccentricity     =  N/A
# w (rad)          =  N/A
# T_peri           =  N/A
######################################################
   0  -2758.899
   1  1646.587
   2  1554.885
   3  2335.868
   4  1289.537
   5  -1642.807
   6  -3180.526
   7  -4440.623
   8  -2344.363
   9  3611.573
  10  3169.034
  11  1459.424
  12  -716.5303
  13  -940.7473
  14  -1429.202
  15  -2103.674
  16  270.0061
  17  1068.811
  18  2639.532
  19  1585.934
  20  -790.0651
  21  -1395.157
  22  -2656.789
  23  -2181.173
  24  558.0356
  25  1422.313
  26  1600.943
  27  928.9749
  28  1482.411
  29  1195.042
  30  1785.562
  31  2093.438
  32  1569.063
  33  2289.505
  34  3522.085
  35  2487.279
  36  1232.765
  37  -497.1063
  38  1773.087
  39  2502.756
  40  4337.816
  41  2957.199
  42  3255.157
  43  2377.379
  44  1202.111
  45  345.1175
  46  522.483
  47  -975.0373
  48  -579.9359
  49  -500.6885
  50  -378.8464
  51  2245.486
  52  416.4877
  53  -1023.269
  54  -3395.416
  55  -51.29968
  56  1764.046
  57  -352.5396
  58  -710.6451
  59  -621.9805
  60  1713.217
  61  1181.275
  62  452.3336
  63  -927.8787
  64  -614.5718
  65  -1911.07
  66  -1530.589
  67  -235.3838
  68  1709.741
  69  151.2158
  70  -1495.148
  71  -1283.904
  72  222.9404
  73  3752.426
  74  5387.494
  75  1946.448
  76  -1794.632
  77  -1261.457
  78  133.4332
  79  2473.869
  80  1658.495
  81  534.8103
  82  -1010.617
  83  617.4965
  84  1937.816
  85  140.9542
  86  -1113.129
  87  -2137.216
  88  -497.5421
  89  1220.253
  90  1914.653
  91  -1600.735
  92  213.4117
  93  -757.2548
  94  496.759
  95  891.7695
  96  587.739
  97  -256.8668
  98  -335.071
  99  341.0741
 100  475.1918
 101  1524.282
 102  412.9957
 103  -4004.385
 104  -4468.452
 105  -4215.839
 106  -1314.176
 107  -2079.695
 108  -3128.601
 109  -2755.709
 110  -2398.301
 111  -1438.027
 112  -2680.608
 113  -75.95598
 114  64.82121
 115  -1672.517
 116  -3921.091
 117  -2551.243
 118  -955.1202
 119  -2642.312
 120  76.23959
 121  -750.0317
 122  -141.4897
 123  -1587.05
 124  -1511.589
 125  657.6495
 126  1451.203
 127  996.0759
 128  -146.0912
 129  -418.713
 130  -707.2352
 131  1175.076
 132  1432.081
 133  659.1633
 134  -1154.323
 135  -385.3766
 136  -914.4341
 137  -363.3766
 138  -1628.296
 139  -438.2639
 140  -2180.967
 141  -3542.838
 142  -3309.727
 143  -2149.336
 144  -706.2549
 145  459.9734
 146  596.0721
 147  3539.818
 148  2921.802
 149  134.0167
 150  479.6606
 151  1653.101
 152  1945.553
 153  992.1178
 154  759.3369
 155  -2078.927
 156  -4082.138
 157  -3550.192
 158  -2516.002
 159  1109.435
 160  528.884
 161  -1590.247
 162  -3760.44
 163  -3746.569
 164  -3478.205
 165  -3731.957
 166  -2603.017
 167  -2849.885
 168  -1330.503
 169  83.70679
 170  592.8448
 171  -330.9465
 172  -391.6908
 173  -1055.927
 174  -692.3918
 175  -666.3495
 176  54.85184
 177  686.5681
 178  1562.929
 179  862.1798
 180  -2831.955
 181  -3728.686
 182  -2952.995
 183  -2949.744
 184  -928.0282
 185  -1152.544
 186  -617.2457
 187  -4204.405
 188  -2170.74
 189  -805.6578
 190  -154.6477
 191  66.41475
 192  -954.1757
 193  -3022.844
 194  -1853.005
 195  234.2301
 196  -64.40481
 197  -933.9522
 198  -382.3671
 199  2610.768
 200  3577.436
 201  936.8386
 202  1432.849
 203  1619.373
 204  3982.768
 205  5155.832
 206  3812.987
 207  1175.486
 208  150.107
 209  -2203.889
 210  -1338.279
 211  108.7296
 212  1824.674
 213  1429.624
 214  1089.903
 215  1728.542
 216  843.8837
 217  4430.642
 218  3376.567
 219  2874.824
 220  -111.7801
 221  762.7545
 222  1323.953
 223  312.7996
 224  1322.051
 225  1635.928
 226  960.4615
 227  2177.895
 228  2704.336
 229  2107.614
 230  1209.187
 231  -805.7569
 232  1258.752
 233  -171.3881
 234  34.00996
 235  314.1162
 236  -1517.501
 237  -5049.476
 238  -5603.249
 239  -4265.713
 240  -1309.84
 241  1840.897
 242  1239.397
 243  2696.948
 244  454.1639
 245  -3160.28
 246  -4854.979
 247  -3634.46
 248  -4472.354
 249  -3334.935
 250  -1062.05
 251  -2388.794
 252  -2187.019
 253  -568.6222
 254  492.5601
 255  2508.206
 256  2644.698
 257  -12.00607
 258  -724.6483
 259  -1764.42
 260  1495.898
 261  2424.603
 262  1617.321
 263  -199.8046
 264  -1635.028
 265  -866.3936
 266  -854.7429
 267  -941.6807
 268  1028.836
 269  2590.149
 270  397.853
 271  -2848.752
 272  -3893.923
 273  -3784.883
 274  -1347.157
 275  -3368.465
 276  -818.1743
 277  -1283.335
 278  -2192.354
 279  -2555.969
 280  -950.9211
 281  -1587.39
 282  -1738.973
 283  -2992.261
 284  -4075.307
 285  -3088.268
 286  -1318.332
 287  668.7848
 288  -733.9751
 289  -3401.263
 290  -4147.185
 291  -3554.208
 292  839.1089
 293  4024.975
 294  1609.98
 295  -2266.09
 296  -1708.869
 297  -130.5132
 298  908.0806
 299  2379.084
 300  832.3761
 301  -1219.538
 302  -246.0664
 303  2499.576
 304  3549.1
 305  2729.586
 306  3505.429
 307  3520.123
 308  728.0328
 309  -632.2263
 310  203.1165
 311  467.9725
 312  -1199.122
 313  -115.1033
 314  -2548.406
 315  -1532.263
 316  516.9196
 317  2233.776
 318  845.5121
 319  -1967.714
 320  -1718.941
 321  455.0222
 322  1287.634
 323  4426.722
 324  4604.651
 325  1653.888
 326  1393.112
 327  803.8036
 328  1871.256
 329  3702.956
 330  4287.718
 331  4020.895
 332  1365.246
 333  1446.754
 334  891.0112
 335  -1567.101
 336  967.3647
 337  734.6276
 338  -69.35272
 339  1296.981
 340  5280.795
 341  5481.574
 342  4660.295
 343  1141.717
 344  -2418.222
 345  -2329.181
 346  4736.065
 347  6920.954
 348  4888.343
 349  4665.359
 350  291.0571
 351  -1450.207
 352  -1649.873
 353  575.6406
 354  1700.837
 355  1607.419
 356  -889.558
 357  -476.5114
 358  -703.9562
 359  1253.093
 360  1758.487
 361  1619.964
 362  1756.263
 363  -1542.867
 364  -2649.545
 365  -2343.014
 366  -1889.243
 367  356.6001
 368  652.1639
 369  994.8375
 370  647.5887
 371  -200.142
 372  -2651.697
 373  -1916.71
 374  -4340.685
 375  -4373.147
 376  -2006.223
 377  -660.6153
 378  -668.1273
 379  -2660.659
 380  588.574
 381  -485.8426
 382  111.4586
 383  -447.4658
 384  -974.4906
 385  1267.819
 386  -204.8357
 387  1238.835
 388  -884.6008
 389  1189.659
 390  2789.989
 391  4019.943
 392  1086.89
 393  -981.3644
 394  -1316.215
 395  -164.828
 396  4204.422
 397  3820.854
 398  3776.849
 399  -1460.416
 400  -4480.746
 401  -3430.862
 402  -1050.728
 403  132.6282
 404  -230.6803
 405  -1034.385
 406  -2135.849
 407  -4182.536
 408  -950.8923
 409  335.8087
 410  -383.5781
 411  -1695.344
 412  -3542.438
 413  -2377.951
 414  -1322.638
 415  1752.319
 416  4191.885
 417  5815.829
 418  4155.516
 419  -945.3613
 420  -2042.138
 421  -420.0984
 422  -45.77515
 423  84.14405
 424  -118.8983
 425  -1218.459
 426  411.4788
 427  3010.159
 428  1822.723
 429  2329.531
 430  -329.7352
 431  1194.662
 432  3710.992
 433  5452.077
 434  4675.469
 435  521.5074
 436  -655.7869
 437  -526.1886
 438  -1459.443
 439  2232.04
 440  2211.371
 441  1490.455
 442  -88.13857
 443  841.4285
 444  766.9985
 445  707.2601
 446  -1545.875
 447  -2116.159
 448  -1495.401
 449  -221.9604
 450  1358.417
 451  2180.525
 452  1627.999
 453  2015.115
 454  1013.238
 455  -808.161
 456  467.8629
 457  45.90834
 458  1129.111
 459  257.7859
 460  -1183.572
 461  -2113.96
 462  -1288.03
 463  810.9597
 464  4264.545
 465  2654.047
 466  1527.1
 467  -709.6135
 468  693.1277
 469  1572.16
 470  1964.163
 471  2245.626
 472  982.6826
 473  1642.644
 474  373.4354
 475  1212.215
 476  1488.165
 477  459.243
 478  -3014.621
 479  -1302.964
 480  -834.2086
 481  -363.7491
 482  -763.766
 483  -706.1949
 484  435.4108
 485  -1465.281
 486  -1995.632
 487  -3532.889
 488  -1071.157
 489  -210.3229
 490  -97.27692
 491  -1056.659
 492  -1329.71
 493  -1099.118
 494  225.1067
 495  733.9608
 496  -2611.07
 497  -3691.278
 498  -4135.14
 499  -256.0141
 500  3290.535
 501  3672.527
 502  2482.021
 503  800.9616
 504  -2679.748
 505  -3057.211
 506  -4142.752
 507  59.67749
 508  1002.719
 509  616.3023
 510  525.2321
 511  -3301.777
