# Input file       =  1211959054.109565_cleaned.dat
# Candidate        =  PSR_0332+5434
# Telescope        =  AR
# Epoch_topo       =  58271.304086916265
# Epoch_bary       =  N/A
# T_sample         =  0.002
# Data Folded      =  7340032
# Data Avg         =  0.0277116453191337
# Data StdDev      =  1.00009223866308 
# Profile Bins     =  512
# Profile Avg      =  397.262171167541 
# Profile StdDev   =  119.744080391968 
# Reduced chi-sqr  =  1.566
# Prob(Noise)      <  4.03e-15   (~7.8 sigma)
# P_topo (ms)      =  714.515673388696  +/- 0.000408
# P'_topo (s/s)    =  -0                +/- 2.15e-10
# P''_topo (s/s^2) =  0                 +/- 9.5e-14
# P_bary (ms)      =  N/A
# P'_bary (s/s)    =  N/A
# P''_bary (s/s^2) =  N/A
# P_orb (s)        =  N/A
# asin(i)/c (s)    =  N/A
# eccentricity     =  N/A
# w (rad)          =  N/A
# T_peri           =  N/A
######################################################
   0  367.4752
   1  410.6143
   2  363.4028
   3  275.4578
   4  341.8983
   5  336.5874
   6  386.6614
   7  419.9955
   8  479.61
   9  555.1251
  10  454.5129
  11  330.8514
  12  357.0782
  13  438.7494
  14  464.2718
  15  490.1943
  16  439.1289
  17  410.7721
  18  402.4963
  19  280.9186
  20  374.4247
  21  382.7586
  22  356.9518
  23  451.9694
  24  477.1653
  25  381.6324
  26  418.4358
  27  370.4883
  28  388.2278
  29  418.7841
  30  288.0177
  31  250.9375
  32  372.151
  33  472.578
  34  417.2024
  35  434.5785
  36  557.9807
  37  479.3923
  38  434.0513
  39  418.6916
  40  451.6532
  41  493.2671
  42  355.8929
  43  357.8217
  44  355.3761
  45  399.4442
  46  323.1837
  47  243.1666
  48  210.944
  49  267.0136
  50  324.5327
  51  351.929
  52  285.8297
  53  234.7307
  54  261.6833
  55  335.2012
  56  354.9557
  57  480.0847
  58  347.7422
  59  357.7789
  60  416.3991
  61  384.5835
  62  415.6445
  63  457.1002
  64  372.7923
  65  330.3184
  66  372.0867
  67  317.1741
  68  359.761
  69  464.5597
  70  448.4603
  71  407.5567
  72  340.9041
  73  487.9592
  74  375.6248
  75  314.043
  76  373.3117
  77  303.1275
  78  370.9926
  79  405.4398
  80  432.6178
  81  436.9626
  82  323.7054
  83  206.5263
  84  279.112
  85  411.0887
  86  390.7079
  87  299.4367
  88  342.4352
  89  400.1401
  90  359.3192
  91  353.1647
  92  277.1056
  93  175.1328
  94  364.9932
  95  429.7417
  96  293.2877
  97  269.3206
  98  227.056
  99  180.8753
 100  249.5977
 101  368.3795
 102  352.2517
 103  306.3399
 104  266.3094
 105  369.295
 106  306.7257
 107  349.3056
 108  293.5647
 109  301.9815
 110  329.5774
 111  410.9037
 112  365.5892
 113  364.7905
 114  431.3344
 115  322.4471
 116  332.4953
 117  397.8665
 118  453.198
 119  462.4086
 120  378.833
 121  286.8141
 122  366.4532
 123  381.1139
 124  478.0833
 125  493.691
 126  512.7401
 127  392.7504
 128  411.1575
 129  455.3746
 130  357.2896
 131  284.268
 132  332.3087
 133  269.5185
 134  313.4577
 135  271.4425
 136  308.8741
 137  308.7931
 138  390.0448
 139  333.3891
 140  374.7454
 141  394.4649
 142  432.479
 143  406.2082
 144  416.0902
 145  499.5688
 146  448.096
 147  490.9315
 148  513.3494
 149  504.2979
 150  491.0311
 151  417.18
 152  412.2186
 153  382.6914
 154  457.2183
 155  492.3525
 156  464.1566
 157  480.4775
 158  433.1413
 159  304.736
 160  342.4468
 161  318.0174
 162  359.5578
 163  298.9257
 164  261.0285
 165  313.1834
 166  417.5206
 167  314.1855
 168  302.6926
 169  389.7087
 170  371.8978
 171  224.7007
 172  283.203
 173  373.4957
 174  313.0064
 175  237.1443
 176  247.1062
 177  319.3907
 178  423.7922
 179  350.4288
 180  337.1229
 181  449.9737
 182  502.498
 183  440.7204
 184  292.2547
 185  307.5509
 186  385.6149
 187  340.8997
 188  315.9936
 189  195.2053
 190  281.9547
 191  400.1752
 192  325.8025
 193  404.7408
 194  416.2444
 195  398.7737
 196  300.9994
 197  312.4248
 198  384.3344
 199  327.369
 200  314.6298
 201  371.0158
 202  402.5962
 203  434.8529
 204  375.5193
 205  438.8772
 206  500.9583
 207  399.2468
 208  351.4893
 209  337.5316
 210  313.4592
 211  322.2656
 212  337.3312
 213  323.9569
 214  371.9271
 215  418.2827
 216  353.1417
 217  304.6075
 218  340.1779
 219  411.3913
 220  401.511
 221  504.6829
 222  484.3893
 223  438.2248
 224  480.3464
 225  400.1394
 226  448.8139
 227  389.0054
 228  404.0416
 229  369.849
 230  450.3849
 231  462.4248
 232  503.4402
 233  431.0638
 234  480.602
 235  531.7565
 236  532.666
 237  470.1823
 238  379.0098
 239  467.4683
 240  442.8416
 241  398.4149
 242  466.0949
 243  478.5855
 244  490.5504
 245  393.9594
 246  295.0659
 247  242.6638
 248  285.5934
 249  375.1474
 250  448.3723
 251  463.6364
 252  489.3441
 253  460.4607
 254  342.2714
 255  291.6783
 256  342.1517
 257  425.6875
 258  272.9747
 259  314.2621
 260  399.262
 261  371.0653
 262  347.4604
 263  297.4656
 264  209.6179
 265  270.8357
 266  295.0682
 267  323.3234
 268  314.942
 269  309.315
 270  351.5848
 271  260.2343
 272  377.7961
 273  416.121
 274  497.1666
 275  487.4255
 276  444.2745
 277  437.9023
 278  431.8293
 279  455.5425
 280  422.2977
 281  383.7528
 282  329.665
 283  266.9821
 284  339.9822
 285  393.3472
 286  310.7189
 287  298.9935
 288  325.8802
 289  431.5669
 290  376.8957
 291  414.7674
 292  399.6809
 293  445.4442
 294  378.6327
 295  235.5209
 296  246.3953
 297  377.9147
 298  403.7561
 299  361.4438
 300  367.7437
 301  370.4974
 302  237.2559
 303  217.4442
 304  363.7415
 305  429.6329
 306  317.7365
 307  361.3412
 308  455.6557
 309  445.5072
 310  567.8901
 311  438.786
 312  299.3541
 313  341.0795
 314  409.0416
 315  471.5693
 316  476.9973
 317  396.8656
 318  311.339
 319  318.3078
 320  406.2947
 321  496.5816
 322  493.8468
 323  370.6884
 324  368.7874
 325  360.4418
 326  347.9859
 327  477.8848
 328  371.7498
 329  348.2187
 330  292.4412
 331  395.4305
 332  457.2961
 333  289.6246
 334  335.4227
 335  377.008
 336  326.4087
 337  251.5004
 338  291.3015
 339  331.0051
 340  307.4896
 341  264.9186
 342  293.7332
 343  333.8701
 344  384.5941
 345  392.0635
 346  310.8888
 347  361.4865
 348  417.9396
 349  345.0364
 350  290.1462
 351  360.7704
 352  338.714
 353  346.0542
 354  439.1433
 355  417.5886
 356  412.5941
 357  401.1888
 358  366.2941
 359  499.8047
 360  422.5822
 361  300.5669
 362  347.3
 363  493.6776
 364  422.0792
 365  345.4468
 366  378.9942
 367  497.8
 368  333.9971
 369  271.6816
 370  412.5321
 371  348.6334
 372  135.1068
 373  313.5357
 374  424.3902
 375  498.9527
 376  446.9174
 377  386.381
 378  336.6649
 379  293.5031
 380  281.6564
 381  251.6777
 382  278.7326
 383  298.1697
 384  277.4567
 385  280.5036
 386  438.8508
 387  439.1215
 388  423.4548
 389  387.6163
 390  370.9807
 391  361.6173
 392  334.9186
 393  351.4888
 394  314.1616
 395  287.3646
 396  354.4237
 397  378.2054
 398  520.959
 399  477.6334
 400  394.9919
 401  432.2454
 402  462.3543
 403  441.3976
 404  459.858
 405  548.1285
 406  534.4161
 407  497.1245
 408  507.5811
 409  465.4431
 410  430.3172
 411  421.0329
 412  407.956
 413  430.378
 414  461.2743
 415  505.3142
 416  418.1843
 417  461.8042
 418  555.3207
 419  483.9926
 420  411.2772
 421  421.288
 422  526.9589
 423  471.8738
 424  432.6672
 425  583.5737
 426  653.6829
 427  638.6317
 428  661.7701
 429  744.9969
 430  869.6689
 431  1009.748
 432  1125.547
 433  1102.582
 434  1074.6
 435  907.9658
 436  650.4451
 437  702.4383
 438  579.3466
 439  445.366
 440  390.9847
 441  492.5348
 442  535.9702
 443  537.7379
 444  534.6835
 445  516.9614
 446  601.3301
 447  664.2258
 448  597.6741
 449  561.9881
 450  580.264
 451  530.3799
 452  465.3694
 453  408.6003
 454  468.3614
 455  448.049
 456  554.1768
 457  429.4659
 458  323.2926
 459  400.7633
 460  478.6735
 461  412.4974
 462  297.034
 463  365.5069
 464  529.989
 465  391.11
 466  333.4404
 467  370.783
 468  346.6751
 469  293.4255
 470  351.6912
 471  433.4666
 472  367.3706
 473  315.467
 474  358.2622
 475  330.6218
 476  282.1868
 477  405.7704
 478  473.9295
 479  480.3619
 480  389.8135
 481  486.9736
 482  474.0411
 483  424.6583
 484  362.1817
 485  395.6512
 486  475.8343
 487  330.828
 488  380.7256
 489  416.2807
 490  555.5972
 491  530.974
 492  507.3808
 493  364.3525
 494  298.6505
 495  392.0332
 496  455.8361
 497  444.9236
 498  434.3252
 499  427.4114
 500  377.3303
 501  320.016
 502  346.3868
 503  339.7358
 504  391.4464
 505  365.5098
 506  406.6772
 507  390.8275
 508  365.3119
 509  422.1819
 510  465.3392
 511  384.4311
