# Input file       =  1211786751.104601-PSRB0329-2ms-sampling-dd.dat
# Candidate        =  PSR_0332+5434
# Telescope        =  AR
# Epoch_topo       =  58269.309839173620
# Epoch_bary       =  N/A
# T_sample         =  0.002
# Data Folded      =  7340032
# Data Avg         =  5.84005230655561e-10
# Data StdDev      =  18.0142401918579 
# Profile Bins     =  512
# Profile Avg      =  -0.130432995909561
# Profile StdDev   =  2156.89967619152 
# Reduced chi-sqr  =  0.984
# Prob(Noise)      <  0.593   (~0.0 sigma)
# P_topo (ms)      =  714.517614255896  +/- 6.74e-05
# P'_topo (s/s)    =  -0                +/- 3.56e-11
# P''_topo (s/s^2) =  0                 +/- 1.57e-14
# P_bary (ms)      =  N/A
# P'_bary (s/s)    =  N/A
# P''_bary (s/s^2) =  N/A
# P_orb (s)        =  N/A
# asin(i)/c (s)    =  N/A
# eccentricity     =  N/A
# w (rad)          =  N/A
# T_peri           =  N/A
######################################################
   0  941.5649
   1  764.0322
   2  131.7856
   3  942.3432
   4  448.797
   5  -522.9781
   6  -710.7358
   7  222.8949
   8  32.02407
   9  -642.5233
  10  213.8875
  11  771.0927
  12  -322.0986
  13  -730.4587
  14  32.89055
  15  81.88269
  16  155.2098
  17  822.276
  18  884.2097
  19  -816.1854
  20  -1444.362
  21  -465.6721
  22  352.8465
  23  -571.126
  24  -309.0896
  25  45.30424
  26  -980.306
  27  -1803.576
  28  -948.7731
  29  -671.6667
  30  -1256.451
  31  -1561.609
  32  -387.0501
  33  -804.6139
  34  -1275.334
  35  -1006.276
  36  -459.4357
  37  -1019.919
  38  -648.1465
  39  -35.06491
  40  683.9543
  41  131.2085
  42  605.5004
  43  597.9575
  44  -66.0272
  45  -501.6253
  46  1106.848
  47  1600.025
  48  731.54
  49  788.084
  50  1540.176
  51  195.9317
  52  -1011.864
  53  1379.908
  54  3280.107
  55  3070.558
  56  2440.519
  57  2131.033
  58  1438.888
  59  528.8629
  60  909.6642
  61  1213.421
  62  -453.6078
  63  -1180.822
  64  -844.4716
  65  96.01074
  66  -50.69393
  67  27.34462
  68  161.4897
  69  -865.4195
  70  -1632.385
  71  -789.5859
  72  -352.6726
  73  7.850017
  74  -465.4728
  75  648.7112
  76  -55.68516
  77  -1065.945
  78  -1175.135
  79  -424.5363
  80  -1161.482
  81  -1030.97
  82  -1004.904
  83  -1207.726
  84  -1869.487
  85  -1256.055
  86  -1037.721
  87  -1211.148
  88  -1218.101
  89  -238.8197
  90  -620.2285
  91  -1674.613
  92  -1721.12
  93  -707.4846
  94  442.0478
  95  788.4669
  96  1821.44
  97  1688.58
  98  483.399
  99  165.9861
 100  707.1685
 101  768.2158
 102  911.4427
 103  1499.787
 104  1260.976
 105  555.1738
 106  400.4256
 107  556.8282
 108  594.5532
 109  688.1949
 110  1578.189
 111  1793.504
 112  1523.35
 113  651.7928
 114  1748.848
 115  1693.783
 116  2085.71
 117  2109.315
 118  2413.637
 119  979.1548
 120  480.1155
 121  1237.041
 122  2113.265
 123  1585.121
 124  1728.043
 125  2132.413
 126  1172.765
 127  285.5766
 128  799.1535
 129  1074.841
 130  2042.025
 131  1748.987
 132  2905.598
 133  1878.339
 134  -106.889
 135  -308.4369
 136  819.7622
 137  989.6664
 138  526.5464
 139  231.9467
 140  -389.2085
 141  -1727.641
 142  -1215.275
 143  -604.3117
 144  -920.2994
 145  -1183.41
 146  -814.7365
 147  -92.71524
 148  -719.545
 149  596.1494
 150  1239.185
 151  1843.597
 152  1250.819
 153  1964.574
 154  2494.782
 155  1575.976
 156  1103.615
 157  1256.218
 158  1204.311
 159  324.007
 160  112.2365
 161  957.8188
 162  381.2536
 163  -578.3119
 164  -788.3541
 165  -1152.059
 166  -2180.529
 167  -1880.504
 168  -1592.92
 169  -1376.431
 170  -1039.236
 171  -808.4875
 172  -851.3348
 173  -1857.44
 174  -1883.994
 175  -1259.862
 176  -1186.159
 177  -1179.679
 178  -733.18
 179  292.2169
 180  -171.3914
 181  -639.2129
 182  292.9572
 183  438.5266
 184  471.9226
 185  628.2275
 186  826.7115
 187  548.6782
 188  206.0261
 189  853.6935
 190  1387.533
 191  253.2496
 192  -85.93089
 193  180.4659
 194  102.9706
 195  -81.82821
 196  444.1678
 197  190.7393
 198  -1334.982
 199  -1539.116
 200  -1483.707
 201  -1403.364
 202  -1363.904
 203  -285.0135
 204  246.5806
 205  -562.5855
 206  -1490.718
 207  -1776.802
 208  -825.8134
 209  -993.9034
 210  -526.9816
 211  -325.751
 212  -138.2425
 213  -864.6638
 214  -407.2865
 215  -371.6103
 216  -1129.661
 217  -1208.026
 218  -270.2409
 219  -731.5972
 220  -1382.404
 221  -1144.604
 222  -1146.565
 223  -1922.744
 224  -1734.572
 225  -1224.565
 226  -1254.485
 227  -2123.306
 228  -2297.955
 229  -1553.663
 230  -1852.002
 231  -2524.209
 232  -2057.754
 233  -1691.263
 234  -1475.794
 235  -964.2462
 236  -310.9396
 237  -435.1976
 238  -2164.481
 239  -1255.374
 240  -545.4188
 241  -1165.519
 242  -1282.745
 243  -485.0168
 244  -583.3331
 245  -1468.611
 246  -2052.135
 247  -1474.807
 248  -1827.677
 249  -1642.252
 250  -896.2193
 251  76.69387
 252  -585.0809
 253  -194.1246
 254  -404.0675
 255  -953.4762
 256  -1753.548
 257  -1035.234
 258  442.933
 259  -65.17102
 260  -355.71
 261  28.07548
 262  -874.7426
 263  -1643.691
 264  -1519.252
 265  -526.0099
 266  -1080.369
 267  -1470.185
 268  -391.8458
 269  -566.2481
 270  -1621.926
 271  -1971.881
 272  -1471.299
 273  -1558.979
 274  -1481.567
 275  -652.3604
 276  -454.5424
 277  -1758.6
 278  -1501.114
 279  -399.7071
 280  54.48761
 281  -12.90371
 282  349.3489
 283  61.02663
 284  4.826109
 285  210.4235
 286  1370.92
 287  2057.8
 288  838.2063
 289  -285.4561
 290  475.7329
 291  1774.87
 292  2459.624
 293  4715.81
 294  3144.81
 295  58.36468
 296  -44.24424
 297  2798.335
 298  5302.8
 299  7023.797
 300  8053.795
 301  7736.769
 302  5606.053
 303  1488.923
 304  2547.874
 305  3751.431
 306  9463.143
 307  10439.81
 308  10552.9
 309  5789.68
 310  1198.093
 311  315.8444
 312  -142.2115
 313  -297.8932
 314  -117.7845
 315  200.4481
 316  -1073.313
 317  -1381.581
 318  -1267.161
 319  -1326.265
 320  -1746.673
 321  -1110.921
 322  -505.9815
 323  -437.5581
 324  -563.7747
 325  -565.4329
 326  -598.6631
 327  -775.8918
 328  -856.5338
 329  -142.6852
 330  -181.1153
 331  -566.5698
 332  -689.176
 333  815.5528
 334  182.0305
 335  317.2291
 336  -63.07998
 337  27.81
 338  -1616.668
 339  -1249.891
 340  -328.9627
 341  183.3463
 342  -916.3355
 343  -465.6645
 344  -585.0555
 345  -1397.827
 346  -1466.321
 347  -454.4703
 348  -185.2886
 349  -701.1768
 350  -395.6673
 351  377.0126
 352  -574.1789
 353  -974.0705
 354  -820.9266
 355  -735.376
 356  -992.434
 357  -508.1933
 358  295.3154
 359  -328.0342
 360  -900.311
 361  -357.3839
 362  -341.1781
 363  -929.2471
 364  501.1419
 365  847.8418
 366  274.8518
 367  -630.4738
 368  -608.756
 369  918.004
 370  437.8195
 371  670.0168
 372  3055.631
 373  975.0224
 374  38.43115
 375  -840.3123
 376  1905.431
 377  1689.896
 378  1659.969
 379  1559.956
 380  1845.618
 381  789.6471
 382  946.5582
 383  964.1912
 384  -474.771
 385  -869.1896
 386  774.5066
 387  2590.894
 388  1409.308
 389  265.8768
 390  682.0796
 391  556.5306
 392  144.0126
 393  562.0798
 394  413.081
 395  -1117.669
 396  -1744.251
 397  -795.3967
 398  -268.2818
 399  -94.29729
 400  17.94742
 401  366.8443
 402  -1229.825
 403  -1708.604
 404  -1283.417
 405  -576.8148
 406  -930.8942
 407  -354.5062
 408  295.9808
 409  -671.233
 410  -1724.109
 411  -715.3576
 412  -516.4463
 413  -549.2422
 414  -1316.039
 415  -124.3422
 416  -488.8647
 417  -1251.625
 418  -679.1264
 419  114.2795
 420  -260.0565
 421  -26.15122
 422  427.5795
 423  669.6523
 424  -233.7572
 425  -15.06402
 426  766.3539
 427  654.7132
 428  -21.46704
 429  -3.772459
 430  -122.4057
 431  -1150.974
 432  -1022.517
 433  70.03771
 434  -418.1287
 435  -831.8279
 436  -691.1476
 437  -335.4409
 438  -1015.739
 439  -1323.923
 440  -829.2006
 441  -753.1702
 442  -928.4078
 443  -698.2283
 444  -739.8909
 445  -1572.433
 446  -2033.083
 447  -1792.071
 448  -1589.609
 449  -2256.654
 450  -1993.371
 451  -1782.802
 452  -1996.883
 453  -2397.7
 454  -1822.838
 455  -1591.533
 456  -2117.506
 457  -1987.784
 458  -998.34
 459  -1347.858
 460  -1606.855
 461  -1418.169
 462  287.0026
 463  -66.46616
 464  386.8786
 465  960.0095
 466  829.4224
 467  -272.5317
 468  -171.5381
 469  -227.2504
 470  -65.20492
 471  -376.241
 472  640.0605
 473  649.4882
 474  -23.70521
 475  -690.156
 476  -385.1701
 477  -253.2403
 478  -209.1704
 479  608.2386
 480  693.757
 481  105.686
 482  -729.3531
 483  132.946
 484  757.3955
 485  1172.303
 486  945.4789
 487  978.3162
 488  -3.848063
 489  -1046.857
 490  -245.5838
 491  252.2391
 492  -38.9856
 493  -18.42295
 494  495.4319
 495  83.93237
 496  -664.9849
 497  633.2816
 498  792.9748
 499  205.8125
 500  -117.4269
 501  1279.17
 502  1035.27
 503  167.6638
 504  804.1605
 505  1817.798
 506  1832.511
 507  2190.213
 508  2095.553
 509  1533.004
 510  -526.1227
 511  -12.00715
