# Input file       =  1211801664.116601_cleaned.dat
# Candidate        =  PSR_0332+5434
# Telescope        =  AR
# Epoch_topo       =  58269.482443479181
# Epoch_bary       =  N/A
# T_sample         =  0.002
# Data Folded      =  7340032
# Data Avg         =  0.0562928287877838
# Data StdDev      =  2.86646676483994 
# Profile Bins     =  1024
# Profile Avg      =  403.479552379965 
# Profile StdDev   =  242.686662438347 
# Reduced chi-sqr  =  1.089
# Prob(Noise)      <  0.0239   (~2.0 sigma)
# P_topo (ms)      =  714.517780258355  +/- 0.000291
# P'_topo (s/s)    =  -0                +/- 1.53e-10
# P''_topo (s/s^2) =  0                 +/- 6.77e-14
# P_bary (ms)      =  N/A
# P'_bary (s/s)    =  N/A
# P''_bary (s/s^2) =  N/A
# P_orb (s)        =  N/A
# asin(i)/c (s)    =  N/A
# eccentricity     =  N/A
# w (rad)          =  N/A
# T_peri           =  N/A
######################################################
   0  565.4605
   1  511.7668
   2  409.2404
   3  422.3698
   4  487.8008
   5  474.1949
   6  468.956
   7  417.554
   8  479.7762
   9  339.4708
  10  318.3079
  11  240.0247
  12  296.7951
  13  320.4094
  14  296.2755
  15  365.6755
  16  451.3766
  17  524.9901
  18  530.2089
  19  571.1669
  20  559.1293
  21  562.8407
  22  478.5763
  23  510.765
  24  434.1688
  25  387.3546
  26  465.3789
  27  548.3569
  28  586.0922
  29  526.002
  30  485.2128
  31  423.4731
  32  362.7259
  33  278.4972
  34  366.5719
  35  515.0017
  36  590.1361
  37  395.7156
  38  173.7574
  39  135.9547
  40  268.3305
  41  411.2662
  42  525.5399
  43  583.0857
  44  674.5819
  45  662.0443
  46  434.2674
  47  360.2037
  48  369.2602
  49  541.7499
  50  484.0196
  51  436.1514
  52  431.8863
  53  465.4874
  54  426.2026
  55  382.1085
  56  365.3084
  57  367.5497
  58  350.4803
  59  365.4431
  60  411.6967
  61  424.8576
  62  515.5872
  63  587.2277
  64  586.302
  65  455.4262
  66  369.1213
  67  365.0612
  68  406.7581
  69  484.1996
  70  502.1656
  71  499.1492
  72  427.0141
  73  358.4993
  74  244.5701
  75  290.3791
  76  355.6157
  77  473.0445
  78  471.4859
  79  439.4561
  80  355.885
  81  317.0536
  82  413.1517
  83  482.1938
  84  500.5177
  85  462.9265
  86  400.1164
  87  384.9021
  88  422.0697
  89  370.6597
  90  351.7134
  91  358.7019
  92  466.8297
  93  562.6696
  94  536.9095
  95  551.0831
  96  510.291
  97  529.2642
  98  441.6221
  99  353.8082
 100  241.5728
 101  337.8143
 102  401.2316
 103  445.214
 104  328.0245
 105  218.8325
 106  72.02511
 107  32.86101
 108  82.7659
 109  213.8733
 110  265.3672
 111  422.5791
 112  478.9062
 113  474.5205
 114  400.9802
 115  378.3711
 116  344.7601
 117  338.5453
 118  291.097
 119  453.2666
 120  473.6205
 121  499.2394
 122  474.4746
 123  431.306
 124  485.739
 125  425.2763
 126  363.7163
 127  284.4366
 128  296.2667
 129  369.811
 130  356.6106
 131  300.6855
 132  280.6607
 133  324.3213
 134  391.2757
 135  426.8072
 136  326.6332
 137  346.2428
 138  376.6133
 139  428.6627
 140  430.0709
 141  449.5258
 142  450.3675
 143  314.4607
 144  326.2909
 145  448.0449
 146  506.2568
 147  405.92
 148  221.1394
 149  176.5923
 150  264.5438
 151  268.6117
 152  187.484
 153  82.8352
 154  172.0302
 155  313.6985
 156  353.3391
 157  487.0543
 158  555.188
 159  578.835
 160  408.0792
 161  349.5489
 162  361.1818
 163  287.3012
 164  287.865
 165  337.933
 166  435.5232
 167  407.2625
 168  336.0352
 169  278.2575
 170  309.2387
 171  344.1881
 172  333.679
 173  334.4564
 174  321.5416
 175  321.0507
 176  285.376
 177  167.3649
 178  133.1608
 179  208.8415
 180  289.4048
 181  320.9852
 182  308.1908
 183  373.9116
 184  443.6055
 185  497.0281
 186  497.6217
 187  492.5916
 188  535.3862
 189  590.791
 190  518.5676
 191  388.8126
 192  285.5535
 193  320.8753
 194  386.5109
 195  446.8267
 196  471.5192
 197  444.5776
 198  497.6159
 199  530.9053
 200  571.7263
 201  520.3676
 202  495.9798
 203  384.341
 204  388.319
 205  323.4743
 206  412.0276
 207  351.4252
 208  376.8534
 209  284.8377
 210  322.2762
 211  267.887
 212  272.5376
 213  350.9668
 214  364.8791
 215  296.9664
 216  222.1718
 217  271.9904
 218  347.714
 219  355.2096
 220  416.6266
 221  422.2166
 222  437.4407
 223  547.5464
 224  619.5146
 225  574.4837
 226  441.8711
 227  318.6748
 228  315.1655
 229  232.2971
 230  197.4247
 231  210.8383
 232  282.7561
 233  322.9603
 234  249.545
 235  207.7677
 236  283.901
 237  457.3294
 238  535.017
 239  439.5436
 240  401.7888
 241  413.4545
 242  451.965
 243  387.2043
 244  412.4456
 245  445.038
 246  399.8543
 247  312.1541
 248  334.3392
 249  482.5088
 250  566.887
 251  611.3572
 252  671.7029
 253  629.8655
 254  429.2783
 255  273.5644
 256  331.1749
 257  535.9426
 258  514.6959
 259  463.1341
 260  344.9825
 261  272.1406
 262  268.5396
 263  307.8669
 264  414.0176
 265  503.5421
 266  592.7825
 267  737.2407
 268  720.1056
 269  613.5645
 270  471.7557
 271  356.5967
 272  414.3738
 273  382.8185
 274  339.0302
 275  260.3899
 276  401.9223
 277  455.9675
 278  439.5945
 279  352.1457
 280  454.1203
 281  475.7836
 282  488.277
 283  358.7306
 284  395.1597
 285  387.8517
 286  493.5316
 287  415.4999
 288  442.5956
 289  391.3932
 290  423.5235
 291  468.5408
 292  542.7506
 293  549.3395
 294  504.6416
 295  456.096
 296  439.3827
 297  289.0909
 298  397.0687
 299  516.734
 300  604.2134
 301  528.1654
 302  494.0045
 303  427.7869
 304  397.3408
 305  427.2514
 306  469.9151
 307  476.3529
 308  483.2689
 309  484.1672
 310  397.9303
 311  368.9691
 312  468.9652
 313  596.7057
 314  575.0256
 315  421.8885
 316  260.2082
 317  198.9659
 318  212.3071
 319  267.7434
 320  338.9044
 321  289.2885
 322  382.6573
 323  255.396
 324  324.5748
 325  307.1942
 326  355.3427
 327  406.9106
 328  397.9214
 329  307.8329
 330  153.2781
 331  278.0558
 332  457.5919
 333  416.7601
 334  364.1425
 335  337.2187
 336  371.5818
 337  324.2847
 338  331.4679
 339  375.5372
 340  391.0171
 341  354.9526
 342  365.3206
 343  439.9015
 344  443.7706
 345  379.8495
 346  415.0464
 347  405.3437
 348  451.2319
 349  499.4891
 350  619.5574
 351  643.9434
 352  490.7176
 353  388.3624
 354  289.4904
 355  355.4221
 356  401.4113
 357  471.1622
 358  409.4437
 359  470.1098
 360  378.3268
 361  448.9813
 362  403.6784
 363  466.0249
 364  398.5523
 365  413.1408
 366  364.6313
 367  419.8994
 368  429.7585
 369  531.7894
 370  589.7349
 371  569.6791
 372  529.5211
 373  425.6984
 374  551.3262
 375  582.1278
 376  701.7703
 377  625.2887
 378  552.7418
 379  405.2241
 380  416.5602
 381  398.4533
 382  405.61
 383  378.5868
 384  376.3389
 385  442.2941
 386  486.8853
 387  502.0052
 388  434.0849
 389  489.9482
 390  646.415
 391  737.3339
 392  653.1193
 393  592.8851
 394  500.6563
 395  449.1849
 396  388.2765
 397  535.5669
 398  631.1799
 399  600.5023
 400  552.3346
 401  494.7687
 402  434.4836
 403  494.7845
 404  566.1387
 405  508.347
 406  256.0984
 407  154.5813
 408  254.1936
 409  372.1205
 410  417.8767
 411  490.1882
 412  465.6782
 413  448.4594
 414  435.9366
 415  452.0608
 416  494.7518
 417  401.7479
 418  404.4221
 419  380.4095
 420  360.5216
 421  316.2176
 422  215.4095
 423  226.0802
 424  204.534
 425  264.2488
 426  246.4939
 427  246.3326
 428  283.0983
 429  285.3652
 430  337.0788
 431  409.3727
 432  387.0542
 433  445.4387
 434  463.7465
 435  453.1637
 436  342.1138
 437  250.3608
 438  316.6647
 439  406.1526
 440  512.1916
 441  474.3942
 442  516.8162
 443  505.3378
 444  461.7889
 445  312.3322
 446  235.9092
 447  255.4017
 448  358.1203
 449  565.0842
 450  563.3589
 451  351.0967
 452  186.3435
 453  179.8372
 454  353.6203
 455  497.3683
 456  584.6797
 457  595.2927
 458  525.2006
 459  449.983
 460  432.7635
 461  434.8784
 462  419.0398
 463  392.4391
 464  341.0528
 465  353.8028
 466  345.0089
 467  398.1597
 468  422.5526
 469  482.3424
 470  367.6833
 471  288.2546
 472  191.3248
 473  195.8938
 474  199.4602
 475  234.1302
 476  298.5766
 477  326.6582
 478  396.4535
 479  464.0477
 480  520.6113
 481  540.6736
 482  465.7892
 483  340.3128
 484  292.6568
 485  471.4796
 486  607.9515
 487  695.8307
 488  569.2326
 489  537.3726
 490  420.0011
 491  444.8422
 492  362.3683
 493  300.7187
 494  247.341
 495  244.6516
 496  346.4904
 497  466.3101
 498  581.8328
 499  580.483
 500  553.5807
 501  476.3507
 502  447.1797
 503  445.3153
 504  494.0074
 505  464.3894
 506  393.9192
 507  430.1256
 508  400.6152
 509  396.6652
 510  419.8303
 511  525.5623
 512  505.0909
 513  415.975
 514  361.7705
 515  459.4969
 516  510.9086
 517  504.1017
 518  434.6429
 519  385.4213
 520  457.5825
 521  378.3542
 522  367.5043
 523  400.1902
 524  491.1017
 525  465.5808
 526  328.0464
 527  392.7979
 528  443.0264
 529  549.5005
 530  574.7654
 531  608.8622
 532  560.1757
 533  489.8313
 534  493.5266
 535  555.5828
 536  539.2811
 537  418.41
 538  364.0905
 539  429.5878
 540  426.8305
 541  468.2531
 542  530.6183
 543  568.552
 544  412.2527
 545  234.7676
 546  202.1479
 547  381.7587
 548  479.7594
 549  460.4664
 550  469.6327
 551  474.9445
 552  484.0207
 553  402.3501
 554  308.8062
 555  271.432
 556  214.7828
 557  216.7455
 558  300.2641
 559  331.0572
 560  407.8406
 561  407.7329
 562  431.2223
 563  371.3967
 564  342.0551
 565  350.3332
 566  376.0136
 567  231.9484
 568  177.2793
 569  215.9041
 570  349.0986
 571  383.9318
 572  362.236
 573  270.7802
 574  271.2461
 575  318.1804
 576  423.1054
 577  413.4362
 578  350.6473
 579  360.1052
 580  372.1797
 581  419.3135
 582  452.7747
 583  473.7109
 584  412.935
 585  393.8789
 586  370.3808
 587  446.2767
 588  548.695
 589  654.068
 590  732.043
 591  732.9877
 592  780.1987
 593  917.0087
 594  1141.337
 595  1281.436
 596  1333.4
 597  1335.567
 598  1305.395
 599  1283.496
 600  1098.591
 601  1022.531
 602  1003.639
 603  1019.956
 604  800.0048
 605  559.2034
 606  421.5992
 607  374.0021
 608  435.0644
 609  444.8858
 610  381.0097
 611  326.5668
 612  387.4733
 613  457.2781
 614  519.2615
 615  504.0728
 616  483.9678
 617  399.7148
 618  426.2022
 619  346.149
 620  268.549
 621  239.9573
 622  434.1377
 623  523.2484
 624  554.4325
 625  442.7133
 626  382.0743
 627  478.5316
 628  587.5175
 629  656.2938
 630  719.5962
 631  744.8309
 632  694.3409
 633  565.0606
 634  540.7479
 635  540.4046
 636  564.5346
 637  524.2457
 638  548.6943
 639  378.2189
 640  228.3207
 641  174.3344
 642  313.1807
 643  419.3979
 644  428.9164
 645  502.6379
 646  493.5802
 647  479.1448
 648  447.5684
 649  397.2769
 650  274.8005
 651  205.0017
 652  198.9686
 653  233.2993
 654  266.0747
 655  366.1299
 656  431.8727
 657  480.212
 658  388.1555
 659  287.6255
 660  188.4175
 661  229.7637
 662  318.1209
 663  538.8711
 664  575.2652
 665  491.3105
 666  402.8301
 667  452.1311
 668  486.118
 669  367.6071
 670  374.7551
 671  389.3459
 672  448.7719
 673  430.8211
 674  452.6295
 675  455.5859
 676  369.2176
 677  315.8807
 678  203.0874
 679  70.34962
 680  127.4381
 681  321.2502
 682  496.0344
 683  475.6057
 684  416.7632
 685  360.9733
 686  354.0597
 687  339.45
 688  344.1446
 689  277.5626
 690  314.2045
 691  309.322
 692  404.2368
 693  357.8016
 694  365.7564
 695  387.4135
 696  371.8759
 697  446.5608
 698  326.2357
 699  430.119
 700  372.8174
 701  411.1404
 702  242.7122
 703  185.8712
 704  179.6263
 705  251.4115
 706  301.357
 707  339.06
 708  410.7109
 709  425.5554
 710  391.0842
 711  415.1235
 712  403.5658
 713  414.5452
 714  485.9584
 715  534.2155
 716  521.9256
 717  411.4481
 718  434.993
 719  569.931
 720  573.053
 721  461.9896
 722  372.85
 723  289.1327
 724  283.5334
 725  235.7947
 726  348.577
 727  375.3332
 728  425.7379
 729  455.4071
 730  455.0297
 731  345.2457
 732  291.1505
 733  482.4515
 734  548.2308
 735  530.3097
 736  421.8184
 737  415.0185
 738  387.141
 739  425.4613
 740  569.923
 741  706.3779
 742  597.4223
 743  461.0708
 744  326.1381
 745  349.9707
 746  348.605
 747  354.2054
 748  351.3794
 749  380.1159
 750  424.1557
 751  389.4124
 752  287.1207
 753  251.4203
 754  243.5115
 755  323.2567
 756  385.4343
 757  495.8608
 758  514.9857
 759  471.3979
 760  505.0448
 761  511.7385
 762  524.2286
 763  515.9785
 764  518.9661
 765  540.1346
 766  500.8297
 767  470.8512
 768  357.3479
 769  271.14
 770  264.6224
 771  293.5286
 772  417.196
 773  449.5511
 774  359.2578
 775  292.6975
 776  228.197
 777  288.5306
 778  265.902
 779  163.1039
 780  208.8306
 781  234.3183
 782  317.6975
 783  352.4278
 784  440.9184
 785  528.5784
 786  433.7317
 787  384.2589
 788  393.8171
 789  364.2752
 790  392.0129
 791  352.7527
 792  294.5232
 793  230.5495
 794  353.3942
 795  384.7082
 796  378.1815
 797  261.6144
 798  292.1682
 799  332.0316
 800  391.1575
 801  442.4311
 802  343.1821
 803  341.1614
 804  288.0709
 805  346.4567
 806  261.8821
 807  368.7294
 808  340.7885
 809  467.578
 810  441.9984
 811  442.6246
 812  343.7323
 813  307.4825
 814  253.2705
 815  295.8376
 816  324.5834
 817  310.9726
 818  193.3571
 819  212.9888
 820  240.901
 821  230.1343
 822  265.8048
 823  288.4439
 824  329.3975
 825  337.7885
 826  356.1942
 827  354.5918
 828  320.5385
 829  446.8252
 830  497.9712
 831  524.1566
 832  329.0418
 833  232.8037
 834  221.1991
 835  295.7712
 836  256.7586
 837  250.5585
 838  290.3902
 839  311.9431
 840  375.2014
 841  431.3346
 842  479.1946
 843  467.6639
 844  403.6707
 845  394.7422
 846  423.0826
 847  465.7205
 848  493.7553
 849  420.5862
 850  392.0723
 851  417.7493
 852  576.3563
 853  554.5768
 854  488.8527
 855  331.3919
 856  201.5991
 857  290.8681
 858  329.7932
 859  429.4022
 860  354.351
 861  247.5192
 862  352.8679
 863  406.3561
 864  503.6278
 865  444.0948
 866  521.671
 867  558.228
 868  526.1817
 869  349.398
 870  220.5125
 871  132.1722
 872  128.7944
 873  241.7583
 874  351.5368
 875  340.3714
 876  226.9332
 877  228
 878  299.7977
 879  350.3382
 880  425.65
 881  482.7809
 882  517.4401
 883  459.5054
 884  499.7442
 885  545.7887
 886  538.3148
 887  420.2664
 888  337.7049
 889  376.9916
 890  490.2218
 891  499.2122
 892  458.331
 893  457.2088
 894  453.9478
 895  392.2033
 896  375.4523
 897  348.0404
 898  286.8416
 899  221.8023
 900  131.6408
 901  220.8425
 902  337.6397
 903  533.8365
 904  571.9554
 905  496.0938
 906  329.6927
 907  247.1587
 908  210.2212
 909  189.8444
 910  228.7961
 911  306.0503
 912  337.4015
 913  357.9305
 914  337.9498
 915  368.9293
 916  278.625
 917  236.5917
 918  271.9832
 919  255.9342
 920  343.0576
 921  359.9092
 922  486.5914
 923  453.5807
 924  372.3196
 925  364.8565
 926  333.7094
 927  376.6864
 928  277.0916
 929  294.2964
 930  214.8851
 931  275.9954
 932  251.67
 933  304.2105
 934  312.8313
 935  394.1486
 936  283.4659
 937  228.4149
 938  255.1481
 939  340.5592
 940  321.5575
 941  293.3421
 942  360.261
 943  406.334
 944  301.917
 945  163.2348
 946  168.5006
 947  282.8118
 948  446.9169
 949  501.9965
 950  492.0119
 951  419.9986
 952  369.6735
 953  354.1492
 954  245.4974
 955  232.5491
 956  349.1112
 957  480.674
 958  426.1607
 959  302.9865
 960  293.3602
 961  383.9793
 962  501.4449
 963  459.3027
 964  441.4834
 965  422.9509
 966  415.839
 967  392.7118
 968  380.8228
 969  461.1607
 970  401.6691
 971  373.735
 972  387.0144
 973  462.6164
 974  490.0884
 975  431.6279
 976  434.3301
 977  266.145
 978  119.9692
 979  45.95147
 980  19.55643
 981  76.3101
 982  133.8716
 983  213.8955
 984  218.1177
 985  289.0617
 986  331.2365
 987  319.38
 988  269.2266
 989  238.5525
 990  241.0901
 991  273.0768
 992  308.2974
 993  275.6654
 994  224.2277
 995  188.5927
 996  239.3857
 997  346.4129
 998  426.6505
 999  298.3944
1000  307.9547
1001  231.6771
1002  324.018
1003  367.3383
1004  566.4059
1005  564.687
1006  616.6074
1007  471.2784
1008  383.2247
1009  312.4132
1010  463.7785
1011  428.3973
1012  280.5633
1013  151.0946
1014  267.6992
1015  399.3004
1016  438.4124
1017  329.6934
1018  310.7923
1019  348.0663
1020  436.494
1021  528.2455
1022  503.9592
1023  584.9113
