# Input file       =  1211973974.110982_cleaned.dat
# Candidate        =  PSR_0332+5434
# Telescope        =  AR
# Epoch_topo       =  58271.476772117843
# Epoch_bary       =  N/A
# T_sample         =  0.002
# Data Folded      =  7340032
# Data Avg         =  0.369063186928022
# Data StdDev      =  12.8378684201546 
# Profile Bins     =  512
# Profile Avg      =  5290.96391539674 
# Profile StdDev   =  1537.1169665505  
# Reduced chi-sqr  =  0.893
# Prob(Noise)      <  0.96   (~0.0 sigma)
# P_topo (ms)      =  714.515839462206  +/- 0.000421
# P'_topo (s/s)    =  -0                +/- 2.22e-10
# P''_topo (s/s^2) =  0                 +/- 9.81e-14
# P_bary (ms)      =  N/A
# P'_bary (s/s)    =  N/A
# P''_bary (s/s^2) =  N/A
# P_orb (s)        =  N/A
# asin(i)/c (s)    =  N/A
# eccentricity     =  N/A
# w (rad)          =  N/A
# T_peri           =  N/A
######################################################
   0  6672.767
   1  6645.35
   2  6256.887
   3  5768.819
   4  6390.896
   5  5934.246
   6  5721.522
   7  6015.866
   8  7454.432
   9  6455.078
  10  5233.279
  11  6082.115
  12  7959.26
  13  8536.808
  14  6930.995
  15  5645.921
  16  4946.234
  17  4276.808
  18  4334.691
  19  5274.408
  20  6821.843
  21  7075.136
  22  5630.151
  23  5804.549
  24  6527.013
  25  6346.643
  26  5846.883
  27  5942.634
  28  6518.523
  29  6475.042
  30  6487.405
  31  6773.18
  32  7140.927
  33  7143.047
  34  7662.343
  35  7626.111
  36  8160.022
  37  6922.8
  38  6542.533
  39  6234.672
  40  4579.85
  41  5264.693
  42  7162.126
  43  6229.632
  44  6326.188
  45  6728.979
  46  5785.18
  47  6637.41
  48  5735.917
  49  5887.503
  50  5826.144
  51  6474.358
  52  6515.877
  53  5873.446
  54  5813.892
  55  5772.413
  56  6648.035
  57  6947.627
  58  6170.652
  59  5193.055
  60  5558.125
  61  6212.451
  62  5822.583
  63  6257.706
  64  6678.144
  65  5909.362
  66  6575.859
  67  6270.136
  68  6158.665
  69  5155.455
  70  6133.334
  71  6947.889
  72  5524.654
  73  5071.274
  74  5999.126
  75  6119.889
  76  6620.081
  77  6837.453
  78  6669.19
  79  5805.886
  80  5627.544
  81  6546.833
  82  6085.792
  83  6000.228
  84  6298.801
  85  5742.926
  86  6543.346
  87  6975.021
  88  6328.894
  89  5672.341
  90  5389.517
  91  6524.897
  92  6937.092
  93  6899.061
  94  5813.599
  95  5901.353
  96  5234.43
  97  3792.587
  98  5161.267
  99  5765.95
 100  4712.269
 101  3576.636
 102  3181.928
 103  3897.203
 104  4636.212
 105  5001.157
 106  5709.333
 107  6315.677
 108  5399.033
 109  5577.194
 110  5099.577
 111  5933.984
 112  6348.681
 113  6017.706
 114  5714.971
 115  4758.342
 116  6220.298
 117  6329.884
 118  6129.42
 119  6161.011
 120  4645.784
 121  4488.417
 122  5332.081
 123  4479.907
 124  5394.911
 125  4890.633
 126  3902.815
 127  4893.855
 128  4721.091
 129  4207.935
 130  3611.621
 131  3939.132
 132  3978.049
 133  5600.72
 134  5204.775
 135  5203.116
 136  5608.743
 137  4790.753
 138  5053.795
 139  3695.107
 140  3540.899
 141  3927.156
 142  5598.973
 143  5610.486
 144  4363.932
 145  3661.437
 146  3017.888
 147  3611.606
 148  3102.598
 149  3277.472
 150  3501.939
 151  3973.889
 152  3639.155
 153  4602.792
 154  4706.316
 155  4294.759
 156  5134.87
 157  5117.682
 158  5455.873
 159  4625.513
 160  2952.597
 161  3011.135
 162  4031.791
 163  4131.998
 164  5278.491
 165  4971.714
 166  5749.473
 167  5704.564
 168  4165.904
 169  3991.829
 170  3984.038
 171  4306.658
 172  4422.051
 173  4724.513
 174  4641.284
 175  5933.032
 176  5995.529
 177  5269.106
 178  5483.887
 179  5391.64
 180  5998.268
 181  5018.834
 182  5540.796
 183  6302.14
 184  4861.891
 185  5383.395
 186  4521.57
 187  4037.661
 188  4965.267
 189  5193.119
 190  4867.23
 191  4776.954
 192  5669.575
 193  6278.954
 194  6272.271
 195  6627.344
 196  5946.466
 197  6379.894
 198  6719.659
 199  6758.646
 200  5510.982
 201  5927.63
 202  6557.377
 203  6469.079
 204  5742.422
 205  5993.67
 206  5480.519
 207  6228.529
 208  5952.962
 209  4932.751
 210  4684.167
 211  4837.814
 212  7431.233
 213  7307.716
 214  5884.871
 215  5388.131
 216  5715.11
 217  5282.566
 218  5192.454
 219  5077.124
 220  4503.056
 221  4792.625
 222  3885.31
 223  3446.267
 224  3760.53
 225  4501.79
 226  3741.25
 227  4171.68
 228  3976.241
 229  3949.043
 230  4242.595
 231  3360.249
 232  3743.231
 233  4119.278
 234  4651.562
 235  5277.741
 236  6829.084
 237  6083.222
 238  5520.824
 239  5526.11
 240  5011.478
 241  4721.382
 242  6323.17
 243  6547.983
 244  6408.179
 245  6462.818
 246  6066.034
 247  4807.265
 248  4951.622
 249  5378.603
 250  4174.074
 251  4392.292
 252  4662.393
 253  3610.278
 254  3264.272
 255  2956
 256  2443.12
 257  3443.824
 258  3116.449
 259  2825.091
 260  2253.819
 261  2703.222
 262  4079.216
 263  4339.423
 264  4862.412
 265  3857.286
 266  4440.074
 267  4492.886
 268  6155.189
 269  6423.23
 270  5320.43
 271  4886.843
 272  5394.526
 273  5410.666
 274  4859.401
 275  5724.385
 276  5549.188
 277  6198.468
 278  5060.653
 279  4471.162
 280  6147.208
 281  4419.501
 282  3710.144
 283  4656.613
 284  5087.45
 285  5228.069
 286  5763.752
 287  5408.827
 288  4642.479
 289  4956.244
 290  4458.791
 291  5070.013
 292  4931.122
 293  5322.205
 294  6638.195
 295  7221.873
 296  7678.309
 297  8303.004
 298  8378.202
 299  8306.457
 300  7952.619
 301  6555.859
 302  5371.623
 303  5440.393
 304  5419.79
 305  4399.135
 306  4060.331
 307  5928.578
 308  5368.394
 309  5753.894
 310  4761.204
 311  5211.909
 312  5743.947
 313  6035.029
 314  5715.277
 315  5638.639
 316  6037.972
 317  6823.641
 318  6475.441
 319  6321.378
 320  6570.425
 321  6671.94
 322  6591.357
 323  6055.456
 324  6099.937
 325  5941.048
 326  6003.697
 327  2849.153
 328  2315.975
 329  3499.099
 330  4556.695
 331  5237.439
 332  5075.011
 333  4972.184
 334  5012.937
 335  4848.408
 336  5068.776
 337  5000.005
 338  5011.52
 339  4082.634
 340  4061.111
 341  4624.376
 342  4340.524
 343  5413.398
 344  5930.429
 345  5594.258
 346  5236.295
 347  5162.103
 348  4980.886
 349  5953.207
 350  5361.205
 351  4737.609
 352  3624.152
 353  4365.109
 354  4641.689
 355  2918.213
 356  3242.25
 357  3914.206
 358  3757.486
 359  4382.362
 360  4539.983
 361  4373.32
 362  2935.353
 363  3837.383
 364  3640.18
 365  4744.921
 366  5706.637
 367  4933.237
 368  3679.618
 369  3506.536
 370  3375.21
 371  4855.028
 372  5958.119
 373  6777.856
 374  6033.828
 375  5507.134
 376  6051.637
 377  5362.442
 378  4897.424
 379  4590.27
 380  5462.162
 381  6137.139
 382  6997.018
 383  6330.484
 384  5742.926
 385  4716.857
 386  4695.853
 387  4796.776
 388  5297.166
 389  5367.184
 390  4973.198
 391  5028.455
 392  3777.335
 393  4075.251
 394  4632.35
 395  4809.535
 396  5749.569
 397  6080.546
 398  5344.6
 399  4876.741
 400  4436.022
 401  4105.462
 402  4491.698
 403  4116.421
 404  4098.983
 405  4761.952
 406  4417.985
 407  5161.694
 408  5069.886
 409  5121.77
 410  5146.095
 411  6111.636
 412  5809.417
 413  5530.658
 414  4267.671
 415  5393.732
 416  4409.683
 417  3778.021
 418  5664.076
 419  4718.847
 420  3617.19
 421  4175.467
 422  4887.75
 423  5757.858
 424  4713.503
 425  5202.201
 426  4340.158
 427  3479.977
 428  3937.928
 429  5047.771
 430  6006.481
 431  4736.118
 432  4664.458
 433  5975.291
 434  5323.125
 435  5456.088
 436  6147.466
 437  5981.685
 438  7069.01
 439  6281.387
 440  6292.357
 441  5376.369
 442  5982.128
 443  5027.701
 444  4029.943
 445  5215.981
 446  4953.753
 447  5276.152
 448  6236.92
 449  5840.861
 450  5293.044
 451  5016.055
 452  4712.931
 453  4480.968
 454  4217.03
 455  5757.337
 456  5833.602
 457  5929.141
 458  5663.756
 459  5390.621
 460  5193.348
 461  5550.066
 462  5439.305
 463  5839.276
 464  4921.646
 465  4497.401
 466  5243.544
 467  4319.036
 468  5033.388
 469  5053.041
 470  4418.306
 471  4603.257
 472  5360.393
 473  4945.276
 474  6115.193
 475  5674.625
 476  4910.612
 477  5079.917
 478  4937.818
 479  6308.729
 480  6303.915
 481  6748.21
 482  6102.068
 483  5009.395
 484  5673.194
 485  5540.438
 486  6192.865
 487  6121.657
 488  5417.477
 489  5346.046
 490  5308.971
 491  4484.123
 492  5028.726
 493  5559.842
 494  4492.244
 495  4080.06
 496  4495.458
 497  5135.499
 498  4530.077
 499  4730.136
 500  4079.803
 501  3913.216
 502  5139.347
 503  5058.562
 504  5349.645
 505  5347.68
 506  5147.086
 507  5753.153
 508  6220.938
 509  5612.207
 510  5529.147
 511  6416.234
