# Input file       =  1211255245.100422_cleaned.dat
# Candidate        =  PSR_0332+5434
# Telescope        =  AR
# Epoch_topo       =  58263.158149310439
# Epoch_bary       =  N/A
# T_sample         =  0.002
# Data Folded      =  7143424
# Data Avg         =  0.0296313645385351
# Data StdDev      =  0.999819401193189
# Profile Bins     =  512
# Profile Avg      =  413.403289183372 
# Profile StdDev   =  118.097252406448 
# Reduced chi-sqr  =  1.369
# Prob(Noise)      <  5.18e-08   (~5.3 sigma)
# P_topo (ms)      =  714.523613680705  +/- 0.000213
# P'_topo (s/s)    =  -0                +/- 1.15e-10
# P''_topo (s/s^2) =  0                 +/- 5.23e-14
# P_bary (ms)      =  N/A
# P'_bary (s/s)    =  N/A
# P''_bary (s/s^2) =  N/A
# P_orb (s)        =  N/A
# asin(i)/c (s)    =  N/A
# eccentricity     =  N/A
# w (rad)          =  N/A
# T_peri           =  N/A
######################################################
   0  1016.23
   1  1007.212
   2  792.4053
   3  510.4258
   4  446.1719
   5  574.8604
   6  666.8965
   7  514.8664
   8  472.1666
   9  501.4974
  10  504.8948
  11  539.8567
  12  670.6578
  13  549.6603
  14  507.2072
  15  436.1237
  16  379.5709
  17  372.8071
  18  404.3749
  19  288.8715
  20  275.3494
  21  259.5492
  22  337.3779
  23  454.4974
  24  569.8604
  25  608.4789
  26  547.8634
  27  379.1569
  28  276.6457
  29  357.6617
  30  484.5555
  31  438.8096
  32  415.6709
  33  466.3588
  34  339.3213
  35  348.9328
  36  370.7159
  37  256.4436
  38  396.4878
  39  488.897
  40  505.6266
  41  495.4149
  42  292.1981
  43  424.6247
  44  435.2804
  45  487.1642
  46  434.1898
  47  400.741
  48  351.9188
  49  416.5607
  50  296.5303
  51  385.0638
  52  478.2243
  53  455.1815
  54  446.2298
  55  402.4663
  56  365.3753
  57  358.1297
  58  463.27
  59  413.6498
  60  513.6486
  61  426.3556
  62  501.5359
  63  465.0413
  64  301.2145
  65  462.55
  66  498.5971
  67  348.744
  68  379.0469
  69  647.3495
  70  663.2985
  71  463.1508
  72  418.6429
  73  404.9494
  74  464.0944
  75  435.4116
  76  444.016
  77  356.9698
  78  295.5436
  79  329.2078
  80  340.8546
  81  393.1241
  82  431.6719
  83  390.2389
  84  446.7593
  85  448.713
  86  414.0158
  87  411.3704
  88  440.6758
  89  517.7927
  90  458.2383
  91  245.7985
  92  227.3063
  93  348.1111
  94  458.4569
  95  411.1529
  96  427.1645
  97  452.9409
  98  463.8823
  99  443.0786
 100  377.6742
 101  267.4159
 102  397.5291
 103  450.6591
 104  435.3731
 105  513.8704
 106  464.4803
 107  391.4746
 108  455.1669
 109  406.5572
 110  519.8131
 111  403.9536
 112  361.5374
 113  397.1624
 114  456.7326
 115  424.2705
 116  430.4098
 117  390.6956
 118  367.9376
 119  532.9911
 120  546.3629
 121  391.8182
 122  346.0771
 123  486.3997
 124  519.9258
 125  462.7045
 126  442.9881
 127  444.8644
 128  269.4903
 129  284.951
 130  353.8441
 131  416.3575
 132  371.7255
 133  279.9701
 134  318.3713
 135  447.8546
 136  473.9976
 137  381.1733
 138  501.678
 139  526.6046
 140  466.8348
 141  461.6453
 142  483.8936
 143  549.1633
 144  403.9483
 145  490.5118
 146  558.8126
 147  522.3182
 148  454.0125
 149  365.0112
 150  436.9784
 151  473.2276
 152  399.4464
 153  341.7693
 154  457.0919
 155  432.8822
 156  391.5624
 157  386.7136
 158  401.0804
 159  527.7835
 160  367.2309
 161  367.95
 162  438.6774
 163  419.8026
 164  482.8285
 165  458.9351
 166  339.3492
 167  304.5991
 168  344.3165
 169  412.6985
 170  317.3749
 171  328.1351
 172  462.6091
 173  325.4268
 174  360.3351
 175  430.2048
 176  471.4842
 177  368.4148
 178  398.41
 179  439.2284
 180  406.3861
 181  444.8612
 182  415.0259
 183  297.6569
 184  373.4466
 185  409.0461
 186  379.8804
 187  415.5474
 188  401.9222
 189  510.1876
 190  438.723
 191  388.3888
 192  574.2205
 193  474.4403
 194  371.1494
 195  329.4771
 196  399.613
 197  392.6423
 198  412.7541
 199  449.8962
 200  437.8293
 201  351.3139
 202  382.038
 203  513.4514
 204  547.9297
 205  603.0905
 206  551.9221
 207  506.4685
 208  609.1132
 209  488.3125
 210  444.6748
 211  429.3978
 212  289.5775
 213  283.5891
 214  425.9893
 215  487.3347
 216  427.5299
 217  423.0454
 218  529.6053
 219  463.206
 220  480.015
 221  481.2192
 222  374.8694
 223  472.4
 224  427.1263
 225  445.2411
 226  365.3456
 227  435.2825
 228  425.2229
 229  407.7447
 230  481.613
 231  465.7257
 232  457.7569
 233  445.4745
 234  355.9226
 235  412.9894
 236  390.1277
 237  505.868
 238  500.6643
 239  566.8845
 240  480.5326
 241  348.1389
 242  305.7288
 243  365.7896
 244  430.9596
 245  430.8069
 246  264.2227
 247  338.8636
 248  527.8843
 249  460.061
 250  319.6253
 251  286.9033
 252  310.9943
 253  358.7118
 254  589.5192
 255  524.6099
 256  454.1344
 257  261.7478
 258  337.7628
 259  499.7567
 260  463.953
 261  450.6374
 262  386.5994
 263  489.7501
 264  467.2549
 265  425.9341
 266  398.3789
 267  450.1172
 268  348.1227
 269  357.349
 270  448.1766
 271  420.4215
 272  497.2874
 273  419.2535
 274  437.5429
 275  401.278
 276  406.445
 277  339.3122
 278  351.429
 279  340.3821
 280  487.3096
 281  469.3377
 282  377.9367
 283  348.8833
 284  408.0455
 285  483.9247
 286  376.9339
 287  314.1097
 288  362.2349
 289  372.5241
 290  476.9834
 291  475.5063
 292  321.3817
 293  312.363
 294  446.7719
 295  457.5031
 296  382.5759
 297  333.7518
 298  332.0155
 299  292.2146
 300  313.335
 301  439.2191
 302  417.2077
 303  448.1755
 304  455.1716
 305  504.1757
 306  383.8409
 307  181.6491
 308  323.1927
 309  297.1951
 310  357.8879
 311  371.5692
 312  508.9083
 313  489.9514
 314  420.2423
 315  351.9751
 316  226.4356
 317  263.3631
 318  310.97
 319  401.0331
 320  434.2618
 321  395.8841
 322  345.0223
 323  360.2904
 324  431.1195
 325  458.7629
 326  418.3427
 327  413.7915
 328  301.5017
 329  251.89
 330  254.0599
 331  321.4187
 332  396.8326
 333  457.1666
 334  461.6928
 335  432.2581
 336  381.7749
 337  445.6696
 338  434.1383
 339  455.9677
 340  523.1411
 341  394.6825
 342  275.9029
 343  282.3242
 344  423.3481
 345  424.2674
 346  405.3012
 347  430.3732
 348  395.0654
 349  275.133
 350  296.8076
 351  301.4837
 352  314.7869
 353  447.4452
 354  554.5527
 355  497.0394
 356  350.3912
 357  391.4594
 358  409.5851
 359  464.9862
 360  426.7563
 361  325.9191
 362  411.5082
 363  422.577
 364  338.6527
 365  313.3611
 366  238.6876
 367  257.6348
 368  307.0706
 369  344.4097
 370  430.8636
 371  390.8261
 372  529.6541
 373  614.5024
 374  359.37
 375  246.4743
 376  350.4281
 377  320.4366
 378  377.8221
 379  347.8862
 380  436.8085
 381  424.4386
 382  563.1502
 383  520.2399
 384  523.8243
 385  413.706
 386  408.13
 387  363.6515
 388  311.549
 389  347.9624
 390  403.5506
 391  457.4055
 392  413.8686
 393  223.0408
 394  339.7462
 395  437.2809
 396  428.9284
 397  325.1546
 398  375.0203
 399  422.0936
 400  321.3719
 401  398.1752
 402  497.6781
 403  488.3783
 404  397.5268
 405  348.1103
 406  315.9318
 407  465.5836
 408  547.237
 409  399.7591
 410  437.6347
 411  297.0722
 412  278.5006
 413  371.8558
 414  385.9765
 415  357.3947
 416  235.3885
 417  233.7016
 418  325.2831
 419  415.2444
 420  448.9521
 421  402.8145
 422  469.7785
 423  434.8393
 424  418.0746
 425  414.6607
 426  349.3998
 427  405.1992
 428  391.143
 429  486.6354
 430  447.77
 431  302.5629
 432  245.3386
 433  343.5859
 434  325.8642
 435  329.3615
 436  440.9903
 437  372.6903
 438  357.6659
 439  330.7844
 440  378.2288
 441  313.5555
 442  275.1507
 443  277.4424
 444  363.6553
 445  425.3195
 446  473.6166
 447  401.7157
 448  402.1572
 449  453.157
 450  322.0416
 451  381.5044
 452  445.3889
 453  379.7415
 454  369.5211
 455  238.3473
 456  276.6841
 457  370.6363
 458  444.2428
 459  287.881
 460  331.4848
 461  365.0757
 462  204.4651
 463  386.112
 464  577.1132
 465  488.2284
 466  342.9232
 467  295.6752
 468  381.4305
 469  275.5444
 470  438.5755
 471  432.709
 472  246.579
 473  202.4653
 474  236.2228
 475  345.3441
 476  418.4036
 477  468.7139
 478  461.0199
 479  358.1709
 480  314.6156
 481  307.3551
 482  281.1927
 483  290.9001
 484  309.3094
 485  338.4438
 486  364.534
 487  324.6616
 488  408.6196
 489  437.7234
 490  449.8452
 491  314.5357
 492  286.561
 493  320.5069
 494  427.3757
 495  432.95
 496  446.2797
 497  458.9552
 498  522.8328
 499  435.2719
 500  515.4348
 501  471.6823
 502  379.1083
 503  468.4521
 504  479.9572
 505  584.6006
 506  503.9406
 507  465.6659
 508  585.0641
 509  781.0546
 510  968.2717
 511  1054.441
