# Input file       =  1211944410.106287_cleaned.dat
# Candidate        =  PSR_0332+5434
# Telescope        =  AR
# Epoch_topo       =  58271.134596137585
# Epoch_bary       =  N/A
# T_sample         =  0.002
# Data Folded      =  7208960
# Data Avg         =  0.395340651828288
# Data StdDev      =  6.20174240262785 
# Profile Bins     =  1024
# Profile Avg      =  2783.13508173759 
# Profile StdDev   =  520.355384475849 
# Reduced chi-sqr  =  0.583
# Prob(Noise)      <  1   (~0.0 sigma)
# P_topo (ms)      =  714.515827467891  +/- 9.38e-05
# P'_topo (s/s)    =  -0                +/- 5.04e-11
# P''_topo (s/s^2) =  0                 +/- 2.27e-14
# P_bary (ms)      =  N/A
# P'_bary (s/s)    =  N/A
# P''_bary (s/s^2) =  N/A
# P_orb (s)        =  N/A
# asin(i)/c (s)    =  N/A
# eccentricity     =  N/A
# w (rad)          =  N/A
# T_peri           =  N/A
######################################################
   0  2981.894
   1  2821.963
   2  2579.445
   3  2585.956
   4  2603.54
   5  2542.284
   6  2455.09
   7  2545.845
   8  2662.399
   9  2607.536
  10  2650.088
  11  2672.755
  12  2716.774
  13  2829.108
  14  2958.81
  15  2828.516
  16  2619.403
  17  2497.803
  18  2663.501
  19  2840.954
  20  2914.351
  21  2891.752
  22  2831.486
  23  2856.587
  24  2911.454
  25  2986.848
  26  3028.88
  27  2974.702
  28  2968.595
  29  2950.46
  30  2986.664
  31  2901.742
  32  2801.652
  33  2682.029
  34  2683.702
  35  2668.065
  36  2625.472
  37  2632.093
  38  2653.949
  39  2644.233
  40  2736.608
  41  2768.757
  42  2634.567
  43  2610.087
  44  2817.02
  45  3039.981
  46  2954.948
  47  2758.149
  48  2662.976
  49  2663.57
  50  2640.699
  51  2732.426
  52  2643.71
  53  2655.895
  54  2676.47
  55  2792.86
  56  2695.674
  57  2518.841
  58  2696.167
  59  2937.391
  60  3138.432
  61  3120.541
  62  3151.065
  63  3160.216
  64  3274.516
  65  3361.316
  66  3342.531
  67  2948.222
  68  2812.868
  69  2919.638
  70  3051.452
  71  2890.48
  72  2831.265
  73  2988.979
  74  2940.453
  75  2716.553
  76  2667.471
  77  2761.889
  78  2899.322
  79  3047.921
  80  3150.972
  81  2997.848
  82  2770.47
  83  2888.577
  84  3094.221
  85  2898.196
  86  2825.31
  87  2994.163
  88  3147.881
  89  2943.313
  90  2655.972
  91  2698.831
  92  2758.294
  93  2881.173
  94  2997.388
  95  3173.189
  96  3043.394
  97  2987.835
  98  2976.285
  99  2950.35
 100  2930.59
 101  3050.959
 102  3203.562
 103  3126.552
 104  2923.799
 105  2862.438
 106  2806.986
 107  2725.384
 108  2716.835
 109  2714.875
 110  2782.751
 111  2786.934
 112  2838.378
 113  2840.464
 114  2871.164
 115  2900.151
 116  2906.071
 117  2773.951
 118  2714.276
 119  2939.139
 120  3037.747
 121  3034.472
 122  2834.026
 123  2937.912
 124  2877.917
 125  2976.697
 126  2965.004
 127  2970.725
 128  2916.098
 129  3038.792
 130  3190.763
 131  2861.878
 132  2621.313
 133  2748.421
 134  3149.598
 135  2899.716
 136  2726.266
 137  2817.257
 138  2990.699
 139  2833.199
 140  2938.029
 141  3076.584
 142  2999.574
 143  2877.574
 144  2900.866
 145  2951.15
 146  2727.246
 147  2656.587
 148  2716.841
 149  2818.848
 150  2671.819
 151  2554.924
 152  2640.046
 153  2734.579
 154  2859.628
 155  2995.392
 156  3162.828
 157  3116.597
 158  2959.205
 159  3026.545
 160  3051.281
 161  3204.612
 162  3379.308
 163  3457.789
 164  3194.876
 165  3036.341
 166  3132.121
 167  3283.35
 168  3058.115
 169  2908.851
 170  2774.16
 171  2599.51
 172  2441.605
 173  2523.303
 174  2719.066
 175  2842.415
 176  2841.742
 177  2885.492
 178  2916.966
 179  2906.794
 180  2883.182
 181  2769.927
 182  2784.884
 183  2638.695
 184  2613.964
 185  2535.733
 186  2691.834
 187  2676.008
 188  2907.281
 189  3102.512
 190  3150.405
 191  3079.924
 192  2983.493
 193  3161.248
 194  3096.794
 195  3004.988
 196  2952.611
 197  3000.455
 198  2849.99
 199  2755.633
 200  2619.672
 201  2654.234
 202  2609.328
 203  2721.695
 204  2662.984
 205  2473.647
 206  2440.464
 207  2571.096
 208  2628.477
 209  2682.77
 210  2846.152
 211  3076.974
 212  3037.147
 213  2947.659
 214  2824.156
 215  2589.985
 216  2504.17
 217  2758.246
 218  2824.893
 219  2749.079
 220  2606.818
 221  2857.136
 222  2907.235
 223  2797.785
 224  2838.168
 225  2913.067
 226  3034.856
 227  2985.862
 228  3125.81
 229  3174.373
 230  3080.052
 231  3029.029
 232  3000.563
 233  2767.778
 234  2701.96
 235  2699.59
 236  2860.655
 237  2806.243
 238  2637.004
 239  2582.953
 240  2609.196
 241  2693.452
 242  2916.112
 243  3133.657
 244  3049.287
 245  2815.166
 246  2758.816
 247  2762.54
 248  2676.734
 249  2695.7
 250  2704.167
 251  2625.199
 252  2580.019
 253  2856.267
 254  2998.327
 255  2906.069
 256  2912.535
 257  3091.555
 258  3182.181
 259  2987.741
 260  3037.44
 261  3123.755
 262  3131.331
 263  3047.749
 264  3009.178
 265  2832.966
 266  2749.148
 267  2815.26
 268  2871.328
 269  2757.033
 270  2724.882
 271  2806.929
 272  2777.513
 273  2623.611
 274  2558.058
 275  2635.7
 276  2567.453
 277  2503.233
 278  2522.37
 279  2629.34
 280  2677.58
 281  2808.036
 282  2946.159
 283  2838.721
 284  2757.032
 285  2830.296
 286  2938.108
 287  2807.308
 288  2731.811
 289  2785.295
 290  2774.541
 291  2614.946
 292  2791.422
 293  2950.469
 294  3073.743
 295  2849.067
 296  2989.044
 297  2845.855
 298  2846.206
 299  2849.302
 300  3039.776
 301  2935.779
 302  2854.696
 303  2811.945
 304  2885.242
 305  2700.134
 306  2608.104
 307  2739.35
 308  2822.708
 309  2681.423
 310  2587.63
 311  2650.088
 312  2790.628
 313  2769.159
 314  2766.747
 315  2560.489
 316  2634.23
 317  2777.767
 318  2972.042
 319  2994.838
 320  2929.495
 321  2971.869
 322  2997.721
 323  2963.779
 324  2883.117
 325  2821.89
 326  2838.487
 327  2802.282
 328  2789.94
 329  2775.888
 330  2749.455
 331  2749.862
 332  2658.783
 333  2673.008
 334  2686.457
 335  2586.652
 336  2365.471
 337  2365.695
 338  2525.235
 339  2546.462
 340  2543.271
 341  2559.27
 342  2637.457
 343  2789.753
 344  3011.036
 345  3210.196
 346  3070.787
 347  2779.355
 348  2589.972
 349  2434.005
 350  2348.807
 351  2320.63
 352  2449.039
 353  2573.667
 354  2624.681
 355  2782.095
 356  2868.846
 357  2810.024
 358  2965.466
 359  3195.759
 360  3395.169
 361  3284.937
 362  3213.839
 363  3016.435
 364  2867.998
 365  2792.613
 366  2773.85
 367  2632.35
 368  2457.174
 369  2333.804
 370  2446.311
 371  2302.035
 372  2325.78
 373  2367.516
 374  2418.017
 375  2559.908
 376  2714.844
 377  2934.933
 378  2882.814
 379  2762.577
 380  2716.538
 381  2748.134
 382  2595.407
 383  2693.449
 384  2805.456
 385  2697.265
 386  2583.219
 387  2623.854
 388  2613.95
 389  2475.615
 390  2571.464
 391  2758.125
 392  2810.089
 393  2731.013
 394  2748.052
 395  2781.8
 396  2663.539
 397  2704.833
 398  2668.913
 399  2655.656
 400  2502.727
 401  2545.512
 402  2702.102
 403  2638.699
 404  2476.844
 405  2477.604
 406  2480.493
 407  2503.996
 408  2621.436
 409  2678.006
 410  2851.831
 411  2745.804
 412  2797.011
 413  2710.853
 414  2777.006
 415  2815.331
 416  2888.498
 417  2738.208
 418  2667.916
 419  2581.389
 420  2561.762
 421  2358.005
 422  2351.432
 423  2613.002
 424  2831.971
 425  3123.627
 426  3167.059
 427  3099.108
 428  2928.344
 429  2895.904
 430  2868.624
 431  2585.319
 432  2458.552
 433  2567.823
 434  2751.58
 435  2631.524
 436  2426.667
 437  2495.984
 438  2567.517
 439  2516.904
 440  2621.675
 441  2618.047
 442  2687.058
 443  2656.561
 444  2625.151
 445  2548.887
 446  2550.753
 447  2657.536
 448  2871.146
 449  2791.938
 450  2646.281
 451  2631.351
 452  2599.706
 453  2426.892
 454  2475.521
 455  2771.091
 456  2958.848
 457  2897.45
 458  2923.369
 459  2935.847
 460  2785.953
 461  2893.204
 462  2918.59
 463  2910.007
 464  2795.21
 465  2685.599
 466  2541.992
 467  2429.052
 468  2519.989
 469  2641.879
 470  2647.589
 471  2397.907
 472  2291.012
 473  2256.305
 474  2417.02
 475  2506.393
 476  2404.519
 477  2378
 478  2368.691
 479  2471.053
 480  2349.508
 481  2229.969
 482  2437.2
 483  2759.152
 484  2914.98
 485  2657.254
 486  2499.552
 487  2487.203
 488  2612.414
 489  2851.008
 490  3012.579
 491  2989.864
 492  2876.94
 493  2968.506
 494  2818.289
 495  2551.481
 496  2388.894
 497  2736.128
 498  2784.856
 499  2679.032
 500  2621.175
 501  2633.615
 502  2533.772
 503  2301.574
 504  2441.203
 505  2642.076
 506  2697.388
 507  2835.14
 508  2841.063
 509  2760.245
 510  2666.118
 511  2801.874
 512  2684.163
 513  2492.911
 514  2309.365
 515  2418.96
 516  2480.419
 517  2456.956
 518  2348.938
 519  2411.389
 520  2477.199
 521  2541.395
 522  2675.924
 523  2761.115
 524  2769.963
 525  2812.725
 526  2993.554
 527  2990.175
 528  2925.307
 529  2973.679
 530  2825.632
 531  2665.496
 532  2497.258
 533  2487.217
 534  2343.415
 535  2213.006
 536  2312.783
 537  2540.814
 538  2643.711
 539  2623.412
 540  2585.553
 541  2468.17
 542  2561.356
 543  2797.994
 544  2898.886
 545  2699.705
 546  2528.185
 547  2530.974
 548  2596.538
 549  2717.979
 550  2676.761
 551  2629.764
 552  2613.38
 553  2780.761
 554  2675.404
 555  2671.318
 556  2775.73
 557  3005.901
 558  3104.802
 559  3113.612
 560  3059.859
 561  2976.617
 562  2871.605
 563  2763.38
 564  2656.786
 565  2588.923
 566  2682.752
 567  2806.182
 568  2697.407
 569  2449.653
 570  2358.123
 571  2620.167
 572  2768.316
 573  2727.135
 574  2698.403
 575  2777.802
 576  2951.316
 577  2842.579
 578  2868.04
 579  2742.903
 580  2928.592
 581  3128.935
 582  3016.105
 583  2686.147
 584  2510.686
 585  2834.554
 586  2855.093
 587  2771.969
 588  2740.763
 589  2995.117
 590  3128.269
 591  3298.662
 592  3579.725
 593  3676.987
 594  3801.792
 595  3766.354
 596  3744.867
 597  3489.944
 598  3346.355
 599  3314.13
 600  3262.198
 601  3016.582
 602  2926.989
 603  2904.737
 604  2814.718
 605  2619.04
 606  2623.313
 607  2833.561
 608  2830.56
 609  2749.398
 610  2587.603
 611  2635.74
 612  2661.246
 613  2874.029
 614  2879.925
 615  2726.668
 616  2752.188
 617  2909.126
 618  2920.535
 619  2612.011
 620  2502.564
 621  2628.062
 622  2825.479
 623  2853.947
 624  2730.87
 625  2664.686
 626  2651.644
 627  2715.862
 628  2656.974
 629  2490.2
 630  2576.93
 631  2874.507
 632  2981.92
 633  2770.981
 634  2778.916
 635  2797.993
 636  2716.399
 637  2501.847
 638  2454.43
 639  2570.154
 640  2638.995
 641  2719.222
 642  2721.212
 643  2706.827
 644  2748.95
 645  2820.058
 646  2862.033
 647  2480.113
 648  2403.463
 649  2589.169
 650  2862.25
 651  2862.816
 652  2775.078
 653  2918.422
 654  2850.072
 655  2840.387
 656  2828.347
 657  2828.375
 658  2762.072
 659  2935.524
 660  3082.216
 661  2997.045
 662  2653.884
 663  2658.523
 664  2708.115
 665  2548.615
 666  2411.332
 667  2551.351
 668  2726.839
 669  2625.308
 670  2547.722
 671  2629.359
 672  2738.342
 673  2848.253
 674  2764.834
 675  2710.67
 676  2570.092
 677  2587.889
 678  2460.132
 679  2308.754
 680  2189.694
 681  2452.459
 682  2732.523
 683  2853.044
 684  2769.749
 685  2835.001
 686  2893.446
 687  2937.411
 688  2806.813
 689  2852.687
 690  2959.055
 691  3057.675
 692  2866.844
 693  2755.059
 694  2651.272
 695  2630.625
 696  2692.149
 697  2684.296
 698  2709.374
 699  2670.784
 700  2655.727
 701  2524.305
 702  2536.939
 703  2632.856
 704  2913.014
 705  3011.253
 706  2838.904
 707  2708.532
 708  2683.221
 709  2664.443
 710  2512.24
 711  2463.359
 712  2359.395
 713  2344.073
 714  2492.689
 715  2723.701
 716  2776.181
 717  2577.288
 718  2725.39
 719  3001.92
 720  3164.203
 721  2911.936
 722  2770.237
 723  2851.252
 724  2836.312
 725  2765.504
 726  2757.742
 727  2758.635
 728  2758.26
 729  2802.387
 730  2665.618
 731  2532.886
 732  2420.688
 733  2628.193
 734  2670.689
 735  2531.65
 736  2439.737
 737  2651.437
 738  2803.859
 739  2868.228
 740  3001.171
 741  3070.443
 742  2860.499
 743  2689.165
 744  2617.975
 745  2624.09
 746  2693.97
 747  2931.816
 748  3125.463
 749  2952.556
 750  2933.337
 751  2870.263
 752  2807.232
 753  2702.196
 754  2880.258
 755  3198.156
 756  3273.286
 757  3308.019
 758  3365.464
 759  3288.392
 760  3067.534
 761  2930.119
 762  2880.427
 763  2858.245
 764  2920.279
 765  2935.961
 766  2739.853
 767  2537.602
 768  2470.144
 769  2644.091
 770  2660.68
 771  2525.235
 772  2612.576
 773  2823.766
 774  3007.17
 775  2934.272
 776  2897.12
 777  2842.758
 778  2912.99
 779  2984.299
 780  2900.531
 781  2769.537
 782  2798.57
 783  3064.889
 784  3134.434
 785  2901.356
 786  2810.966
 787  3045.912
 788  3236.11
 789  3310.954
 790  3161.17
 791  3034.406
 792  2869.6
 793  2922.711
 794  2813.7
 795  2589.063
 796  2437.44
 797  2648.216
 798  2843.68
 799  2954.503
 800  2987.936
 801  3134.134
 802  3142.299
 803  3032.284
 804  2862.764
 805  2845.22
 806  2744.323
 807  2822.416
 808  2940.675
 809  2906.861
 810  2847.811
 811  2830.126
 812  2906.559
 813  2893.443
 814  2609.513
 815  2781.79
 816  2911.955
 817  3009.655
 818  2936.598
 819  2873.164
 820  3075.708
 821  3042.826
 822  3208.554
 823  3249.9
 824  3151.253
 825  2939.691
 826  2826.172
 827  2810.99
 828  2875.398
 829  2851.23
 830  2848.232
 831  2789.584
 832  2676.525
 833  2618.044
 834  2620.703
 835  2605.686
 836  2566.092
 837  2790.125
 838  2961.811
 839  3018.001
 840  2851.677
 841  2828.406
 842  2878.668
 843  2911.808
 844  2850.727
 845  2669.747
 846  2619.36
 847  2769.023
 848  3032.059
 849  3138.545
 850  3024.926
 851  2938.42
 852  3212.139
 853  3412.094
 854  3352.444
 855  3007.583
 856  2872.907
 857  2843.365
 858  2727.024
 859  2691.417
 860  2546.126
 861  2610.265
 862  2633.686
 863  2656.1
 864  2720.158
 865  2733.533
 866  2718.629
 867  2729.74
 868  2723.657
 869  2788.987
 870  2840.35
 871  3019.727
 872  2994.924
 873  2771.184
 874  2642.203
 875  2545.224
 876  2539.742
 877  2404.083
 878  2428.782
 879  2515.167
 880  2749.666
 881  2992.805
 882  2964.271
 883  2808.159
 884  2857.131
 885  3078.596
 886  3072.394
 887  2906.778
 888  2787.394
 889  2822.006
 890  2951.804
 891  2950.591
 892  2919.381
 893  2683.247
 894  2665.945
 895  2529.283
 896  2706.805
 897  2613.223
 898  2595.323
 899  2607.884
 900  2649.335
 901  2626.107
 902  2621.096
 903  2791.221
 904  2935.633
 905  2857.915
 906  2844.571
 907  2842.076
 908  2712.942
 909  2495.696
 910  2434.723
 911  2573.967
 912  2768.328
 913  2969.089
 914  2915.737
 915  2653.363
 916  2533.107
 917  2753.297
 918  2773.705
 919  2770.603
 920  2842.101
 921  3179.594
 922  3278.438
 923  3097.846
 924  2890.894
 925  2781.209
 926  2840.031
 927  2713.688
 928  2534.817
 929  2392.39
 930  2512.158
 931  2502.28
 932  2460.198
 933  2216.138
 934  2405.327
 935  2573.153
 936  2661.324
 937  2688.254
 938  2618.638
 939  2639.313
 940  2747.951
 941  3067.136
 942  3027.289
 943  2721.124
 944  2601.725
 945  2780.551
 946  2877.072
 947  2667.774
 948  2572.224
 949  2754.966
 950  2800.904
 951  2758.856
 952  2774.678
 953  2940.158
 954  2951.402
 955  3099.906
 956  3085.714
 957  2969.215
 958  2634.866
 959  2656.647
 960  2663.407
 961  2578.581
 962  2477.93
 963  2639.96
 964  2903.431
 965  2816.731
 966  2669.086
 967  2786.556
 968  2871.132
 969  2985.673
 970  2794.615
 971  2804.54
 972  2653.043
 973  2529.863
 974  2458.001
 975  2426.88
 976  2524.079
 977  2591.019
 978  2663.866
 979  2673.559
 980  2724.687
 981  2901.409
 982  3001.332
 983  2953.875
 984  2924.341
 985  2972.393
 986  3093.945
 987  3086.687
 988  2979.172
 989  2714.923
 990  2563.765
 991  2449.93
 992  2479.458
 993  2401.664
 994  2598.568
 995  2697.794
 996  2698.961
 997  2717.957
 998  2760.952
 999  2933.277
1000  2894.857
1001  2859.496
1002  2883.948
1003  2713.636
1004  2696
1005  2853.683
1006  2958.768
1007  2689.02
1008  2535.854
1009  2635.493
1010  2800.156
1011  2518.273
1012  2382.63
1013  2638.562
1014  2862.656
1015  2853.102
1016  2745.747
1017  2826.171
1018  2777.364
1019  2809.432
1020  2936.477
1021  2893.718
1022  2838.792
1023  2865.975
