# Input file       =  1211427572.105833_cleaned.dat
# Candidate        =  PSR_0332+5434
# Telescope        =  AR
# Epoch_topo       =  58265.152674836034
# Epoch_bary       =  N/A
# T_sample         =  0.002
# Data Folded      =  7143424
# Data Avg         =  0.176733835863052
# Data StdDev      =  4.98585287045989 
# Profile Bins     =  512
# Profile Avg      =  2465.74908919833 
# Profile StdDev   =  588.921883493577 
# Reduced chi-sqr  =  0.683
# Prob(Noise)      <  1   (~0.0 sigma)
# P_topo (ms)      =  714.521660864246  +/- 0.000122
# P'_topo (s/s)    =  -0                +/- 6.6e-11
# P''_topo (s/s^2) =  0                 +/- 2.99e-14
# P_bary (ms)      =  N/A
# P'_bary (s/s)    =  N/A
# P''_bary (s/s^2) =  N/A
# P_orb (s)        =  N/A
# asin(i)/c (s)    =  N/A
# eccentricity     =  N/A
# w (rad)          =  N/A
# T_peri           =  N/A
######################################################
   0  2502.476
   1  2642.945
   2  2315.142
   3  1919.446
   4  2401.916
   5  2576.334
   6  2605.297
   7  2282.464
   8  2311.825
   9  2445.029
  10  2169.116
  11  2160.41
  12  2081.093
  13  2476.969
  14  2475.818
  15  2766.174
  16  2455.392
  17  2415.097
  18  2288.955
  19  2062.398
  20  2446.319
  21  2290.792
  22  2284.98
  23  2303.346
  24  2368.664
  25  2201.482
  26  2076.832
  27  2021.677
  28  1606.25
  29  1840.656
  30  1977.754
  31  2775.876
  32  2383.52
  33  2233.797
  34  2452.502
  35  2444.46
  36  2267.136
  37  2051.186
  38  2233.241
  39  1886.028
  40  1861.419
  41  2354.55
  42  2361.925
  43  2448.074
  44  2229.528
  45  2557.475
  46  2278.233
  47  2341.337
  48  2591.078
  49  2255.983
  50  2247.868
  51  2359.555
  52  2683.19
  53  2563.609
  54  2498.178
  55  2489.446
  56  2514.076
  57  2419.974
  58  2555.815
  59  2163.102
  60  2120.369
  61  2328.195
  62  2012.103
  63  2317.758
  64  2463.378
  65  2367.329
  66  2663.065
  67  2575.835
  68  2520.237
  69  2550.146
  70  2502.709
  71  2862.898
  72  2421.86
  73  2413.762
  74  2489.846
  75  2442.394
  76  2454.685
  77  2689.502
  78  2487.519
  79  2717.217
  80  2620.949
  81  2236.268
  82  2468.647
  83  2848.299
  84  2878.358
  85  2523.604
  86  2152.588
  87  2948.668
  88  3117.882
  89  2954.885
  90  2611.408
  91  2501.999
  92  3058.521
  93  2794.377
  94  2380.172
  95  2486.279
  96  2671.62
  97  3126.13
  98  3377.284
  99  3513.244
 100  3170.001
 101  2638.607
 102  2633.159
 103  3018.755
 104  2801.761
 105  3087.641
 106  3018.742
 107  2830.021
 108  3060.592
 109  3095.203
 110  2781.454
 111  2494.362
 112  2622.625
 113  2780.934
 114  2872.925
 115  2985.256
 116  3216.912
 117  3005.303
 118  2843.255
 119  2970
 120  2724.68
 121  2614.195
 122  2693.763
 123  2887.461
 124  2995.921
 125  3122.803
 126  3005.379
 127  2888.283
 128  2876.106
 129  2842.713
 130  2931.354
 131  2929.526
 132  2596.323
 133  2876.397
 134  3166.093
 135  3177.375
 136  2996.28
 137  2738.043
 138  2932.542
 139  2890.083
 140  2855.172
 141  2565.635
 142  2175.696
 143  2467.275
 144  2810.054
 145  2851.684
 146  2567.188
 147  2861.218
 148  3118.073
 149  2871.445
 150  2359.486
 151  2546.853
 152  2865.988
 153  2366.927
 154  2937.06
 155  2846.437
 156  2871.291
 157  2428.372
 158  2644.42
 159  3308.984
 160  2951.132
 161  2995.954
 162  2684.254
 163  2479.01
 164  2276.237
 165  2912.993
 166  3046.238
 167  2601.476
 168  2660.697
 169  2616.896
 170  3061.052
 171  2614.929
 172  2748.981
 173  2514.514
 174  2756.733
 175  2539.697
 176  2390.778
 177  2449.493
 178  2520.143
 179  2952.371
 180  2734.855
 181  3098.393
 182  3060.465
 183  2560.67
 184  2304.358
 185  2155.039
 186  2980.271
 187  3153.894
 188  2988.613
 189  2726.378
 190  2295.106
 191  2167.138
 192  2258.375
 193  2364.171
 194  2290.133
 195  2649.622
 196  2350.818
 197  2529.211
 198  2527.568
 199  2804.36
 200  2512.009
 201  2072.195
 202  2523.7
 203  2446.514
 204  2222.402
 205  2364.161
 206  2683.06
 207  2698.225
 208  2603.708
 209  2093.377
 210  2087
 211  2451.833
 212  2603.725
 213  2441.926
 214  2439.219
 215  2247.513
 216  2193.528
 217  2298.301
 218  2333.882
 219  2155.167
 220  1947.609
 221  2525.119
 222  2161.134
 223  2189.649
 224  2385.768
 225  2029.596
 226  2266.54
 227  1782.173
 228  2185.763
 229  2229.616
 230  1876.703
 231  2022.871
 232  2301.376
 233  2157.143
 234  2366.941
 235  2588.89
 236  2224.675
 237  2612.029
 238  2456.826
 239  2241.208
 240  2394.856
 241  2456.983
 242  2552.951
 243  2328.471
 244  2293.032
 245  1856.072
 246  2069.755
 247  2003.579
 248  2629.572
 249  2696.65
 250  1854.158
 251  2064.702
 252  2116.474
 253  2319.277
 254  2264.755
 255  2285.845
 256  2403.393
 257  1987.56
 258  2474.607
 259  2147.307
 260  2102.354
 261  2194.65
 262  2006.437
 263  2163.927
 264  2403.468
 265  2277.924
 266  2069.91
 267  2648.805
 268  2372.432
 269  2536.809
 270  2578.287
 271  2131.838
 272  1868.307
 273  2030.446
 274  2266.27
 275  2212.925
 276  2106.86
 277  2254.56
 278  2823.461
 279  2716.173
 280  2605.795
 281  2457.759
 282  2492.95
 283  2063.502
 284  1954.139
 285  2352.284
 286  2570.268
 287  2332.519
 288  2252.966
 289  2054.609
 290  2248.525
 291  2559.663
 292  2477.839
 293  2379.729
 294  2685.909
 295  3026.62
 296  3117.929
 297  3398.082
 298  3692.935
 299  4207.345
 300  4271.34
 301  4053.986
 302  3416.936
 303  2412.633
 304  2262.958
 305  1992.812
 306  2571.494
 307  2554.103
 308  2063.76
 309  1945.952
 310  1940.895
 311  2190.239
 312  2415.5
 313  2518.754
 314  2518.109
 315  2363.156
 316  2500.636
 317  2580.346
 318  2689.841
 319  1974.337
 320  1844.902
 321  2385.48
 322  2322.622
 323  2126.635
 324  2118.494
 325  2227.305
 326  2405.043
 327  2407.45
 328  2234.26
 329  2056.126
 330  1893.379
 331  2399.191
 332  2635.024
 333  1995.178
 334  2214.714
 335  1881.652
 336  2169.895
 337  2145.585
 338  1959.551
 339  1983.732
 340  2042.252
 341  2510.477
 342  2308.484
 343  2204.061
 344  2332.389
 345  2311.944
 346  2173.937
 347  2543.342
 348  2692.188
 349  1932.61
 350  2299.303
 351  2326.676
 352  2527.186
 353  2350.795
 354  2070.884
 355  2334.706
 356  2104.44
 357  1980.022
 358  2232.593
 359  2349.79
 360  2464.585
 361  2680.858
 362  2962.569
 363  2918.416
 364  2826.646
 365  2202.25
 366  2069.077
 367  1985.284
 368  1916.626
 369  2198.239
 370  2117.355
 371  2104.459
 372  1823.771
 373  2208.43
 374  1847.297
 375  1740.091
 376  2575.845
 377  2482.846
 378  2200.748
 379  1988.125
 380  2291.899
 381  2336.779
 382  2390.355
 383  2495.806
 384  2344.167
 385  2366.467
 386  1934.744
 387  2167.004
 388  2714.916
 389  2887.991
 390  2532.439
 391  2028.384
 392  2587.214
 393  2335.204
 394  2196.76
 395  2122.698
 396  2013.077
 397  2435.405
 398  2665.379
 399  2826.175
 400  2323.936
 401  2392.795
 402  2182.414
 403  1956.631
 404  2218.462
 405  2393.177
 406  2812.572
 407  2303.17
 408  2636.055
 409  2784.973
 410  2552.26
 411  2307.227
 412  2124.498
 413  2293.436
 414  2468.4
 415  2677.348
 416  2502.131
 417  2762.082
 418  2609.414
 419  2765.08
 420  2820.229
 421  2290.734
 422  2500.45
 423  2627.738
 424  2856.217
 425  2566.392
 426  2913.966
 427  2948.457
 428  2729.477
 429  2716.31
 430  2656.044
 431  2580.086
 432  2804.932
 433  2775.159
 434  2645.804
 435  2973.976
 436  2814.069
 437  2506.193
 438  2127.082
 439  2325.859
 440  2294.849
 441  2406.449
 442  2463.634
 443  2480.873
 444  2261.607
 445  2506.454
 446  2415.431
 447  2365.593
 448  2184.463
 449  2872.569
 450  2728.698
 451  2726.445
 452  2473.658
 453  2286.882
 454  2503.121
 455  2383.492
 456  2263.112
 457  1963.059
 458  2126.297
 459  2497.057
 460  2707.954
 461  2781.877
 462  2860.188
 463  2947.406
 464  2741.764
 465  2012.367
 466  2261.156
 467  2380.421
 468  2328.723
 469  2263.672
 470  2655.447
 471  2527.661
 472  2197.66
 473  2100.212
 474  1855.689
 475  1983.601
 476  2321.233
 477  2326.548
 478  2063.772
 479  2176.08
 480  2380.586
 481  2375.732
 482  2416.251
 483  2410.913
 484  2485.597
 485  1993.088
 486  1878.181
 487  2188.042
 488  2205.36
 489  2565.346
 490  2724.884
 491  2616.359
 492  2280.332
 493  2019.434
 494  2209.006
 495  2580.4
 496  2338.934
 497  2444.824
 498  2375.791
 499  2077.736
 500  2431.73
 501  2667.363
 502  2849.864
 503  2423.979
 504  2042.871
 505  1948.609
 506  1941.748
 507  2425.798
 508  2763.462
 509  2520.105
 510  2373.024
 511  2534.723
