# Input file       =  1211528298.098192_cleaned.dat
# Candidate        =  PSR_0332+5434
# Telescope        =  AR
# Epoch_topo       =  58266.318484932781
# Epoch_bary       =  N/A
# T_sample         =  0.002
# Data Folded      =  7340032
# Data Avg         =  0.0367316039027637
# Data StdDev      =  1.00005220590206 
# Profile Bins     =  512
# Profile Avg      =  526.668908906573 
# Profile StdDev   =  119.739287147936 
# Reduced chi-sqr  =  0.938
# Prob(Noise)      <  0.838   (~0.0 sigma)
# P_topo (ms)      =  714.520533713516  +/- 0.000279
# P'_topo (s/s)    =  -0                +/- 1.47e-10
# P''_topo (s/s^2) =  0                 +/- 6.5e-14
# P_bary (ms)      =  N/A
# P'_bary (s/s)    =  N/A
# P''_bary (s/s^2) =  N/A
# P_orb (s)        =  N/A
# asin(i)/c (s)    =  N/A
# eccentricity     =  N/A
# w (rad)          =  N/A
# T_peri           =  N/A
######################################################
   0  971.3344
   1  790.5236
   2  695.2396
   3  544.5158
   4  556.2012
   5  592.3946
   6  441.4265
   7  437.7215
   8  423.8224
   9  424.9774
  10  396.6964
  11  451.219
  12  589.1256
  13  640.4275
  14  533.081
  15  514.983
  16  545.9298
  17  435.347
  18  508.2866
  19  461.3253
  20  406.2887
  21  518.0632
  22  475.977
  23  408.4614
  24  408.0116
  25  391.828
  26  379.4391
  27  399.9961
  28  403.3572
  29  346.1413
  30  466.9138
  31  469.5171
  32  549.6815
  33  555.0121
  34  524.3222
  35  549.3284
  36  646.2476
  37  490.3018
  38  455.3626
  39  475.02
  40  500.3505
  41  606.3605
  42  477.7568
  43  492.8968
  44  410.2989
  45  472.321
  46  427.344
  47  436.852
  48  499.4034
  49  564.3954
  50  468.171
  51  518.4724
  52  517.6559
  53  426.2536
  54  423.8318
  55  445.5811
  56  424.2075
  57  413.7302
  58  441.5441
  59  452.776
  60  497.9272
  61  525.11
  62  525.9705
  63  542.7056
  64  411.7529
  65  465.8471
  66  495.0268
  67  551.9872
  68  547.7477
  69  490.9476
  70  540.9792
  71  485.0714
  72  528.0568
  73  529.3705
  74  506.6983
  75  414.7857
  76  541.6693
  77  606.8969
  78  535.9131
  79  544.2828
  80  507.5251
  81  432.457
  82  443.5829
  83  441.326
  84  458.1401
  85  417.6424
  86  497.4306
  87  523.9326
  88  447.6863
  89  509.6228
  90  495.7866
  91  452.8571
  92  397.8499
  93  323.5956
  94  402.362
  95  437.963
  96  507.0154
  97  460.3226
  98  498.8184
  99  474.7562
 100  390.6286
 101  416.6445
 102  513.4834
 103  467.6478
 104  541.6389
 105  477.8243
 106  361.3559
 107  320.9344
 108  270.6655
 109  391.5271
 110  455.7406
 111  445.3126
 112  460.6263
 113  468.2712
 114  596.3281
 115  527.8389
 116  515.0767
 117  422.4736
 118  492.0212
 119  465.9517
 120  504.8995
 121  553.3779
 122  641.2043
 123  584.3132
 124  396.9678
 125  403.4138
 126  469.0868
 127  482.3661
 128  427.9332
 129  507.2234
 130  565.8287
 131  502.4748
 132  502.2376
 133  573.3315
 134  564.3737
 135  403.36
 136  387.924
 137  426.9059
 138  467.3059
 139  465.142
 140  513.5389
 141  396.8628
 142  331.4166
 143  438.8951
 144  468.4301
 145  448.6838
 146  522.0189
 147  538.2581
 148  555.8196
 149  531.9178
 150  509.0952
 151  538.183
 152  541.5952
 153  603.2266
 154  579.4628
 155  495.5858
 156  552.996
 157  562.21
 158  632.6077
 159  698.3802
 160  594.5422
 161  604.1172
 162  625.8215
 163  673.059
 164  724.7654
 165  680.3847
 166  662.8189
 167  542.6102
 168  593.3705
 169  568.9796
 170  594.0635
 171  667.0468
 172  746.9568
 173  636.2514
 174  520.5562
 175  559.5188
 176  573.1865
 177  551.0975
 178  513.7716
 179  448.1891
 180  488.6044
 181  534.9362
 182  488.475
 183  436.294
 184  393.4242
 185  434.864
 186  527.6414
 187  537.2113
 188  377.7958
 189  532.5809
 190  562.1281
 191  554.3419
 192  550.1398
 193  532.5462
 194  491.4129
 195  458.333
 196  555.9767
 197  535.9515
 198  528.0901
 199  480.0299
 200  492.3956
 201  420.5886
 202  423.0191
 203  528.7313
 204  514.2994
 205  544.5646
 206  554.1625
 207  381.3451
 208  483.8461
 209  478.7957
 210  481.6686
 211  513.732
 212  474.5032
 213  541.6026
 214  438.3922
 215  577.2815
 216  545.6583
 217  588.5561
 218  591.7919
 219  553.3643
 220  477.0148
 221  504.8056
 222  528.3502
 223  550.1771
 224  544.5641
 225  555.4951
 226  522.1495
 227  561.7605
 228  538.3381
 229  607.2491
 230  562.4366
 231  579.2328
 232  539.04
 233  477.7274
 234  519.1638
 235  538.4473
 236  527.1122
 237  528.4258
 238  607.4079
 239  606.8063
 240  632.5539
 241  561.3785
 242  562.2897
 243  650.5656
 244  609.2402
 245  583.8999
 246  548.0737
 247  595.1489
 248  596.9481
 249  574.506
 250  630.1283
 251  570.4071
 252  516.0439
 253  650.2897
 254  656.0566
 255  662.817
 256  561.9708
 257  572.3906
 258  704.0958
 259  632.0651
 260  515.8721
 261  633.0736
 262  673.7025
 263  598.9118
 264  615.6078
 265  694.8276
 266  529.6028
 267  501.0421
 268  611.998
 269  612.8674
 270  642.3002
 271  554.6429
 272  546.5654
 273  441.4769
 274  438.0626
 275  400.9831
 276  471.1369
 277  626.1083
 278  630.8658
 279  552.6785
 280  514.8412
 281  573.7852
 282  608.5402
 283  581.8062
 284  568.3591
 285  511.5837
 286  417.966
 287  485.2101
 288  620.264
 289  579.197
 290  593.5178
 291  572.7477
 292  588.5576
 293  551.7435
 294  492.9409
 295  466.9713
 296  515.4274
 297  467.0009
 298  456.4693
 299  545.4098
 300  449.7413
 301  413.3956
 302  471.6074
 303  417.5058
 304  471.0439
 305  511.2774
 306  499.1889
 307  444.2799
 308  486.3453
 309  541.1564
 310  488.3196
 311  454.6527
 312  560.7932
 313  510.8531
 314  533.8846
 315  577.8416
 316  508.9595
 317  644.676
 318  594.3124
 319  564.2741
 320  584.1775
 321  635.7003
 322  624.3671
 323  600.2504
 324  491.6832
 325  600.4406
 326  627.8102
 327  714.5998
 328  725.0368
 329  600.2003
 330  549.6153
 331  508.5582
 332  623.8456
 333  599.2107
 334  573.5579
 335  590.8489
 336  538.1061
 337  543.5685
 338  617.6992
 339  720.1852
 340  726.2385
 341  557.1996
 342  477.0225
 343  602.1288
 344  443.2755
 345  280.9947
 346  426.1473
 347  551.1351
 348  535.7413
 349  468.8517
 350  595.5364
 351  632.1972
 352  658.225
 353  642.0361
 354  557.1966
 355  540.9894
 356  437.9937
 357  443.7763
 358  538.7961
 359  560.0878
 360  541.6918
 361  525.2808
 362  463.3268
 363  567.0568
 364  600.7475
 365  544.7902
 366  578.3685
 367  644.8484
 368  544.0092
 369  567.3743
 370  544.3248
 371  470.8496
 372  591.2921
 373  530.8917
 374  524.201
 375  603.5264
 376  549.1622
 377  477.5748
 378  462.6212
 379  416.4377
 380  500.5363
 381  537.9656
 382  514.9178
 383  543.6249
 384  501.4322
 385  491.801
 386  465.8349
 387  452.0933
 388  503.7229
 389  572.5398
 390  590.8506
 391  506.2083
 392  533.9516
 393  554.4698
 394  414.279
 395  425.5188
 396  468.1152
 397  468.9579
 398  471.2812
 399  495.9564
 400  549.9976
 401  536.4988
 402  474.8812
 403  469.3156
 404  421.6048
 405  473.2317
 406  473.9856
 407  485.4358
 408  590.5275
 409  551.8817
 410  534.9717
 411  527.9874
 412  481.3382
 413  507.6106
 414  487.6625
 415  495.6399
 416  561.2349
 417  559.61
 418  578.7809
 419  500.8968
 420  388.5782
 421  496.253
 422  568.1284
 423  620.6481
 424  621.8655
 425  667.1363
 426  646.2657
 427  549.1814
 428  601.6052
 429  581.375
 430  456.092
 431  475.3419
 432  625.7838
 433  558.5446
 434  559.8557
 435  528.7489
 436  482.7151
 437  470.8077
 438  466.7259
 439  483.4492
 440  617.159
 441  678.3913
 442  544.4117
 443  471.7548
 444  482.0352
 445  525.1774
 446  517.6037
 447  490.3381
 448  532.3286
 449  435.8475
 450  458.642
 451  491.2108
 452  525.5315
 453  597.282
 454  490.3761
 455  465.8083
 456  458.2585
 457  475.566
 458  522.8524
 459  481.6447
 460  486.1602
 461  541.2319
 462  526.9872
 463  477.3918
 464  514.518
 465  533.496
 466  488.7818
 467  564.2883
 468  576.3445
 469  589.6691
 470  525.0697
 471  533.7903
 472  566.7677
 473  495.5469
 474  495.1522
 475  506.0583
 476  642.4465
 477  702.58
 478  561.5418
 479  487.5818
 480  550.8031
 481  379.3062
 482  378.0652
 483  468.053
 484  474.2859
 485  476.2325
 486  545.8487
 487  565.6529
 488  521.9908
 489  477.0106
 490  480.7962
 491  446.7459
 492  577.7959
 493  587.9055
 494  558.3348
 495  496.0893
 496  556.4448
 497  577.6077
 498  540.1212
 499  416.9559
 500  526.0857
 501  594.8651
 502  645.5693
 503  605.579
 504  567.0068
 505  542.4175
 506  604.9077
 507  646.5934
 508  698.7427
 509  802.4761
 510  922.6533
 511  1014.409
