# Input file       =  1211184299.108801_cleaned.dat
# Candidate        =  PSR_0332+5434
# Telescope        =  AR
# Epoch_topo       =  58262.337015148158
# Epoch_bary       =  N/A
# T_sample         =  0.002
# Data Folded      =  7340032
# Data Avg         =  0.0312946245549429
# Data StdDev      =  0.999995089252431
# Profile Bins     =  512
# Profile Avg      =  448.491540936852 
# Profile StdDev   =  119.732448398049 
# Reduced chi-sqr  =  1.092
# Prob(Noise)      <  0.0735   (~1.5 sigma)
# P_topo (ms)      =  714.524442725726  +/- 0.000388
# P'_topo (s/s)    =  -0                +/- 2.05e-10
# P''_topo (s/s^2) =  0                 +/- 9.04e-14
# P_bary (ms)      =  N/A
# P'_bary (s/s)    =  N/A
# P''_bary (s/s^2) =  N/A
# P_orb (s)        =  N/A
# asin(i)/c (s)    =  N/A
# eccentricity     =  N/A
# w (rad)          =  N/A
# T_peri           =  N/A
######################################################
   0  221.3165
   1  368.0591
   2  416.2751
   3  398.3568
   4  430.1078
   5  557.1939
   6  519.9204
   7  534.4703
   8  527.8068
   9  488.439
  10  427.3353
  11  390.4006
  12  406.1096
  13  352.195
  14  412.2675
  15  581.5361
  16  660.9492
  17  468.2444
  18  389.4849
  19  452.3833
  20  421.5388
  21  423.6847
  22  431.8608
  23  472.8358
  24  453.4256
  25  330.2115
  26  372.7369
  27  485.2891
  28  517.1274
  29  497.9573
  30  507.2539
  31  570.6182
  32  560.7251
  33  531.4467
  34  607.5554
  35  498.8248
  36  655.0636
  37  617.7295
  38  617.6836
  39  580.084
  40  585.7996
  41  490.8357
  42  472.398
  43  476.5316
  44  457.9576
  45  550.8366
  46  477.8841
  47  424.2093
  48  367.013
  49  265.0724
  50  464.1142
  51  551.0165
  52  468.9753
  53  595.942
  54  570.4352
  55  600.7178
  56  482.8636
  57  317.0209
  58  404.9385
  59  375.0135
  60  389.6328
  61  408.4031
  62  360.3822
  63  426.7222
  64  482.493
  65  436.3261
  66  417.4166
  67  343.9197
  68  316.0193
  69  363.6086
  70  329.5247
  71  253.3206
  72  306.2776
  73  304.0637
  74  267.9645
  75  269.3886
  76  321.4252
  77  369.4424
  78  462.5396
  79  456.9499
  80  485.6273
  81  419.9915
  82  377.7587
  83  432.7303
  84  497.8063
  85  477.3669
  86  375.4521
  87  426.2856
  88  396.1899
  89  362.4616
  90  427.0225
  91  411.0406
  92  355.9456
  93  354.9398
  94  399.7044
  95  444.7246
  96  423.3968
  97  470.7346
  98  528.0102
  99  571.9681
 100  479.201
 101  381.5773
 102  339.6136
 103  376.2183
 104  372.3187
 105  413.0763
 106  478.9584
 107  517.4565
 108  484.2247
 109  420.8719
 110  515.7896
 111  529.4103
 112  525.0048
 113  500.2047
 114  462.1131
 115  501.9412
 116  516.4595
 117  508.5251
 118  510.3652
 119  518.6313
 120  565.6178
 121  539.1852
 122  546.2254
 123  508.1749
 124  502.8788
 125  501.8741
 126  500.3087
 127  489.6093
 128  380.3352
 129  401.6574
 130  375.1362
 131  389.59
 132  455.612
 133  460.1963
 134  411.7879
 135  363.8157
 136  351.3058
 137  304.3861
 138  393.4658
 139  371.2266
 140  310.8863
 141  290.0546
 142  422.7324
 143  447.7768
 144  465.1514
 145  434.4281
 146  430.2553
 147  481.5704
 148  400.2678
 149  370.8927
 150  358.5641
 151  454.4062
 152  448.0663
 153  427.17
 154  416.6215
 155  378.267
 156  425.6567
 157  385.8474
 158  367.6237
 159  251.8245
 160  213.2772
 161  340.5053
 162  417.9628
 163  494.5172
 164  413.2217
 165  392.6773
 166  327.6639
 167  386.9961
 168  414.7806
 169  430.7918
 170  369.4911
 171  352.5755
 172  334.0714
 173  354.5062
 174  285.9242
 175  345.2209
 176  458.0334
 177  471.7419
 178  428.9214
 179  390.3008
 180  443.2943
 181  474.742
 182  517.8935
 183  480.1823
 184  437.2002
 185  447.6277
 186  439.8481
 187  472.4757
 188  394.9353
 189  369.177
 190  320.1105
 191  347.4471
 192  453.3102
 193  511.7187
 194  564.3599
 195  490.1328
 196  459.311
 197  262.0912
 198  336.9012
 199  380.108
 200  421.8813
 201  392.3091
 202  382.123
 203  398.5481
 204  352.0299
 205  341.0706
 206  290.5518
 207  354.6893
 208  287.1756
 209  376.5667
 210  387.7857
 211  309.9747
 212  304.0657
 213  352.4331
 214  411.6138
 215  354.9029
 216  332.2968
 217  396.8611
 218  477.1203
 219  475.348
 220  422.9377
 221  338.3184
 222  358.9948
 223  385.7542
 224  331.1655
 225  324.8058
 226  452.9414
 227  495.8046
 228  522.3953
 229  487.8869
 230  452.1033
 231  425.747
 232  465.7527
 233  423.0916
 234  431.9583
 235  426.5745
 236  506.0473
 237  489.19
 238  445.523
 239  446.6417
 240  401.6162
 241  379.9101
 242  416.8487
 243  350.7809
 244  422.959
 245  495.0325
 246  424.9387
 247  469.237
 248  560.183
 249  501.275
 250  522.3721
 251  496.9757
 252  483.1866
 253  469.4529
 254  531.2312
 255  558.3334
 256  543.5339
 257  503.936
 258  544.1926
 259  468.8155
 260  480.7859
 261  522.7136
 262  552.401
 263  483.1968
 264  399.9575
 265  461.2873
 266  643.6032
 267  546.3726
 268  458.611
 269  456.143
 270  527.1879
 271  547.4676
 272  480.2119
 273  441.9416
 274  432.6572
 275  467.4294
 276  494.435
 277  449.1587
 278  486.6967
 279  511.387
 280  469.8751
 281  457.5401
 282  489.5434
 283  500.8457
 284  541.3672
 285  454.1132
 286  433.5944
 287  468.5026
 288  454.7324
 289  431.8421
 290  458.5218
 291  430.4626
 292  392.7116
 293  327.8118
 294  414.2913
 295  343.8178
 296  339.0617
 297  446.3295
 298  460.9595
 299  344.4945
 300  271.2209
 301  281.0873
 302  254.5041
 303  342.7844
 304  345.4304
 305  416.3831
 306  363.6957
 307  382.9303
 308  448.1106
 309  441.8813
 310  413.2489
 311  424.85
 312  420.4013
 313  396.9934
 314  445.7718
 315  435.9398
 316  425.1249
 317  442.541
 318  380.2267
 319  374.4191
 320  462.8495
 321  412.3195
 322  415.794
 323  381.6557
 324  472.1333
 325  481.1295
 326  379.2681
 327  390.2665
 328  349.1264
 329  371.4329
 330  456.7669
 331  518.6859
 332  490.2036
 333  457.5967
 334  477.4513
 335  554.4447
 336  667.8879
 337  772.703
 338  834.9349
 339  947.3436
 340  1032.677
 341  988.6671
 342  831.145
 343  676.66
 344  634.2152
 345  477.2492
 346  403.6086
 347  453.4579
 348  397.9973
 349  478.6554
 350  463.1784
 351  540.9634
 352  594.1017
 353  512.868
 354  461.1482
 355  482.0507
 356  528.78
 357  521.2433
 358  405.6541
 359  535.6711
 360  498.7727
 361  524.5003
 362  542.4418
 363  518.3134
 364  482.9204
 365  529.4978
 366  527.9166
 367  424.7683
 368  414.6221
 369  508.2126
 370  457.746
 371  404.2311
 372  460.27
 373  345.7272
 374  320.1369
 375  331.4438
 376  424.6607
 377  476.7296
 378  368.9897
 379  359.0955
 380  332.3078
 381  405.4107
 382  440.5501
 383  435.8833
 384  514.4439
 385  507.4305
 386  432.3833
 387  423.2766
 388  431.5798
 389  430.0337
 390  462.3332
 391  535.0212
 392  513.8016
 393  476.555
 394  473.9178
 395  528.6818
 396  502.7057
 397  467.4768
 398  447.9274
 399  401.1275
 400  412.4994
 401  316.0143
 402  455.7262
 403  541.7042
 404  565.6075
 405  451.6825
 406  302.1013
 407  380.1293
 408  483.7991
 409  544.7246
 410  457.3109
 411  500.1159
 412  491.5818
 413  565.0867
 414  542.7505
 415  469.8586
 416  434.0951
 417  468.8926
 418  502.3918
 419  524.2511
 420  463.6205
 421  449.796
 422  462.6147
 423  436.973
 424  375.8615
 425  353.9182
 426  399.361
 427  380.7572
 428  320.3814
 429  363.0087
 430  478.4881
 431  468.0894
 432  380.3961
 433  433.2265
 434  465.7231
 435  450.0551
 436  449.5566
 437  444.6007
 438  514.4688
 439  523.7218
 440  496.2044
 441  599.1619
 442  484.4412
 443  465.0251
 444  438.453
 445  527.6595
 446  532.0834
 447  483.9249
 448  541.8354
 449  571.7714
 450  516.8184
 451  459.7221
 452  481.6447
 453  520.4481
 454  594.1782
 455  576.3964
 456  528.7394
 457  469.6587
 458  402.6574
 459  506.8637
 460  473.5826
 461  453.6033
 462  428.9832
 463  479.5268
 464  529.0569
 465  518.1576
 466  475.3646
 467  501.2685
 468  445.6318
 469  458.7745
 470  507.5763
 471  443.5684
 472  473.0205
 473  472.5178
 474  462.8067
 475  493.2039
 476  556.7878
 477  482.364
 478  435.523
 479  545.4713
 480  512.2863
 481  443.7742
 482  471.4612
 483  472.0069
 484  418.3271
 485  381.6396
 486  413.8305
 487  322.0136
 488  345.2581
 489  470.6811
 490  464.5227
 491  474.7169
 492  389.3681
 493  379.7785
 494  379.4277
 495  438.5959
 496  430.5809
 497  372.2763
 498  407.2941
 499  484.14
 500  495.4487
 501  439.3629
 502  451.4466
 503  434.4756
 504  334.5177
 505  347.1444
 506  459.2026
 507  374.54
 508  419.5262
 509  408.7582
 510  378.1092
 511  326.9887
