# Input file       =  1211427572.105833_cleaned.dat
# Candidate        =  PSR_0332+5434
# Telescope        =  AR
# Epoch_topo       =  58265.152674836034
# Epoch_bary       =  N/A
# T_sample         =  0.002
# Data Folded      =  7143424
# Data Avg         =  0.176733835863052
# Data StdDev      =  4.98585287045989 
# Profile Bins     =  256
# Profile Avg      =  4931.49817839666 
# Profile StdDev   =  832.861314814924 
# Reduced chi-sqr  =  0.803
# Prob(Noise)      <  0.991   (~0.0 sigma)
# P_topo (ms)      =  714.521660864246  +/- 0.000233
# P'_topo (s/s)    =  -0                +/- 1.27e-10
# P''_topo (s/s^2) =  0                 +/- 5.74e-14
# P_bary (ms)      =  N/A
# P'_bary (s/s)    =  N/A
# P''_bary (s/s^2) =  N/A
# P_orb (s)        =  N/A
# asin(i)/c (s)    =  N/A
# eccentricity     =  N/A
# w (rad)          =  N/A
# T_peri           =  N/A
######################################################
   0  5145.42
   1  4234.588
   2  4978.25
   3  4887.761
   4  4756.854
   5  4329.526
   6  4558.062
   7  5241.992
   8  4870.489
   9  4351.354
  10  4737.11
  11  4588.326
  12  4570.146
  13  4098.509
  14  3446.906
  15  4753.63
  16  4617.316
  17  4896.961
  18  4318.322
  19  4119.269
  20  4215.969
  21  4810
  22  4787.002
  23  4619.57
  24  4847.061
  25  4607.424
  26  5246.799
  27  4987.624
  28  4934.05
  29  4718.917
  30  4448.563
  31  4329.861
  32  4830.707
  33  5238.9
  34  5070.383
  35  5365.606
  36  4835.623
  37  4932.24
  38  5144.188
  39  5204.736
  40  4857.217
  41  5316.946
  42  5401.962
  43  5101.256
  44  6072.767
  45  5113.408
  46  5852.899
  47  4866.452
  48  5797.75
  49  6890.528
  50  5808.609
  51  5651.914
  52  5889.402
  53  5848.764
  54  6155.795
  55  5275.816
  56  5403.559
  57  5858.181
  58  6222.216
  59  5813.255
  60  5338.875
  61  5581.224
  62  6118.724
  63  5893.663
  64  5718.819
  65  5860.88
  66  5472.72
  67  6343.468
  68  5734.323
  69  5822.625
  70  5420.807
  71  4642.971
  72  5661.739
  73  5428.406
  74  5989.518
  75  4906.339
  76  5232.915
  77  5783.497
  78  5299.663
  79  5953.404
  80  5947.085
  81  5163.265
  82  5189.229
  83  5647.714
  84  5277.593
  85  5675.982
  86  5263.495
  87  5296.43
  88  4840.271
  89  5472.514
  90  5833.248
  91  5621.136
  92  4459.397
  93  6134.166
  94  5714.991
  95  4462.245
  96  4622.546
  97  4939.755
  98  4880.028
  99  5331.928
 100  4584.204
 101  4970.214
 102  4586.563
 103  5381.285
 104  4697.085
 105  4538.833
 106  5045.651
 107  4686.731
 108  4491.829
 109  4489.049
 110  4472.729
 111  4350.783
 112  4415.364
 113  4048.713
 114  4415.379
 115  3899.574
 116  4458.519
 117  4955.831
 118  4836.703
 119  4698.034
 120  4851.839
 121  4881.422
 122  4149.104
 123  4073.333
 124  5326.222
 125  3918.861
 126  4435.751
 127  4550.6
 128  4390.953
 129  4621.914
 130  4297.004
 131  4170.365
 132  4681.391
 133  4718.716
 134  4909.241
 135  4710.125
 136  3898.753
 137  4479.194
 138  4361.42
 139  5539.634
 140  5063.553
 141  4556.453
 142  4306.423
 143  4902.787
 144  4307.575
 145  4808.188
 146  4857.569
 147  5712.529
 148  6516.011
 149  7900.279
 150  8325.326
 151  5829.569
 152  4255.77
 153  5125.597
 154  4009.712
 155  4131.133
 156  4934.254
 157  4881.265
 158  5080.982
 159  4664.178
 160  4230.382
 161  4449.257
 162  4345.799
 163  4812.493
 164  4290.386
 165  4292.57
 166  4630.203
 167  4096.366
 168  4315.48
 169  3943.283
 170  4552.729
 171  4512.544
 172  4644.333
 173  4717.279
 174  4624.798
 175  4625.979
 176  4877.981
 177  4405.59
 178  4084.462
 179  4582.382
 180  5145.442
 181  5880.985
 182  5028.896
 183  4054.361
 184  4114.865
 185  4221.814
 186  4032.201
 187  3587.389
 188  5058.691
 189  4188.874
 190  4628.678
 191  4886.162
 192  4710.634
 193  4101.748
 194  5602.907
 195  4560.822
 196  4922.417
 197  4319.458
 198  4448.481
 199  5491.554
 200  4716.73
 201  4139.044
 202  4611.639
 203  5115.742
 204  5421.028
 205  4859.487
 206  4417.934
 207  5145.748
 208  5264.213
 209  5374.494
 210  5110.963
 211  5128.188
 212  5422.609
 213  5862.423
 214  5445.787
 215  5236.13
 216  5580.092
 217  5619.78
 218  5320.261
 219  4452.94
 220  4701.298
 221  4944.507
 222  4768.061
 223  4781.023
 224  5057.032
 225  5455.143
 226  4760.54
 227  4886.614
 228  4226.17
 229  4623.354
 230  5489.832
 231  5807.594
 232  4754.131
 233  4641.577
 234  4592.395
 235  5183.108
 236  4297.873
 237  3839.29
 238  4647.781
 239  4239.852
 240  4756.318
 241  4827.165
 242  4478.685
 243  4066.223
 244  4770.707
 245  5341.243
 246  4299.765
 247  4789.406
 248  4783.759
 249  4453.527
 250  5099.092
 251  5273.843
 252  3991.48
 253  4367.545
 254  5283.568
 255  4907.748
