# Input file       =  1211284752.109416_cleaned.dat
# Candidate        =  PSR_0332+5434
# Telescope        =  AR
# Epoch_topo       =  58263.499665618241
# Epoch_bary       =  N/A
# T_sample         =  0.002
# Data Folded      =  7340032
# Data Avg         =  0.0373744471907602
# Data StdDev      =  1.00013849404563 
# Profile Bins     =  512
# Profile Avg      =  535.788345084493 
# Profile StdDev   =  119.74961868937  
# Reduced chi-sqr  =  1.183
# Prob(Noise)      <  0.0027   (~2.8 sigma)
# P_topo (ms)      =  714.523627830262  +/- 0.000363
# P'_topo (s/s)    =  -0                +/- 1.91e-10
# P''_topo (s/s^2) =  0                 +/- 8.45e-14
# P_bary (ms)      =  N/A
# P'_bary (s/s)    =  N/A
# P''_bary (s/s^2) =  N/A
# P_orb (s)        =  N/A
# asin(i)/c (s)    =  N/A
# eccentricity     =  N/A
# w (rad)          =  N/A
# T_peri           =  N/A
######################################################
   0  1086.992
   1  936.3497
   2  929.159
   3  788.9177
   4  678.2538
   5  682.381
   6  561.3829
   7  588.2643
   8  621.1616
   9  639.8362
  10  646.9859
  11  614.2712
  12  536.4041
  13  616.0524
  14  748.155
  15  766.9158
  16  629.7514
  17  575.8409
  18  470.0925
  19  428.4298
  20  499.018
  21  526.4249
  22  480.3006
  23  522.6232
  24  526.4557
  25  491.2603
  26  521.4419
  27  569.189
  28  535.3512
  29  474.7838
  30  436.3572
  31  420.658
  32  446.9348
  33  512.1898
  34  553.2355
  35  570.6501
  36  562.1741
  37  621.2083
  38  480.2108
  39  475.1589
  40  500.3182
  41  571.631
  42  521.9521
  43  493.5993
  44  551.5551
  45  569.7701
  46  503.8033
  47  502.7786
  48  608.1038
  49  569.7782
  50  480.8528
  51  528.6046
  52  571.9264
  53  563.9811
  54  483.9938
  55  515.6212
  56  572.7054
  57  564.8764
  58  612.2167
  59  444.1385
  60  528.2366
  61  636.5225
  62  506.5583
  63  520.674
  64  460.2605
  65  541.9344
  66  485.1483
  67  532.3236
  68  579.7109
  69  581.3634
  70  543.6099
  71  520.9411
  72  435.5009
  73  519.0696
  74  428.3565
  75  417.5217
  76  408.278
  77  509.8799
  78  510.6453
  79  437.3245
  80  469.8643
  81  409.7594
  82  487.0222
  83  601.5524
  84  564.032
  85  420.3452
  86  472.8221
  87  443.0872
  88  364.7012
  89  489.9171
  90  494.4828
  91  481.1222
  92  396.4984
  93  426.3506
  94  475.648
  95  452.5641
  96  378.1587
  97  430.3576
  98  323.9651
  99  407.4031
 100  430.4995
 101  490.444
 102  536.7678
 103  565.4527
 104  523.5366
 105  443.3241
 106  470.6153
 107  378.6722
 108  462.7496
 109  505.3475
 110  365.3151
 111  355.8781
 112  460.4137
 113  502.5021
 114  558.3763
 115  530.8337
 116  511.3527
 117  504.7256
 118  601.9547
 119  535.3136
 120  452.1766
 121  604.1289
 122  690.5481
 123  594.7523
 124  673.0099
 125  628.9195
 126  637.7937
 127  652.4247
 128  565.6479
 129  558.0277
 130  544.7813
 131  606.2922
 132  621.8022
 133  592.7637
 134  542.3224
 135  548.0732
 136  481.3235
 137  504.1658
 138  543.7047
 139  643.5727
 140  596.0023
 141  588.1415
 142  500.0452
 143  509.6707
 144  493.3149
 145  595.1521
 146  550.1818
 147  519.399
 148  561.1726
 149  514.8757
 150  493.2172
 151  516.9646
 152  516.98
 153  501.1004
 154  486.0816
 155  399.7496
 156  491.5757
 157  512.3494
 158  647.9288
 159  547.9889
 160  494.6127
 161  520.4957
 162  453.1559
 163  580.4721
 164  593.9127
 165  676.7988
 166  595.7913
 167  565.9868
 168  617.3315
 169  517.1899
 170  512.1221
 171  476.1727
 172  461.1168
 173  423.1629
 174  549.1978
 175  593.293
 176  551.9774
 177  495.9893
 178  487.7072
 179  561.2197
 180  589.4511
 181  609.838
 182  655.2615
 183  507.629
 184  469.5486
 185  477.4072
 186  534.548
 187  622.8233
 188  553.1068
 189  426.0949
 190  508.3111
 191  441.7098
 192  451.324
 193  430.0629
 194  452.6766
 195  454.6887
 196  535.3101
 197  530.8223
 198  435.067
 199  553.4697
 200  552.6725
 201  467.8397
 202  405.0597
 203  480.5257
 204  529.6792
 205  552.8957
 206  551.7619
 207  429.2948
 208  472.1387
 209  515.7728
 210  544.9664
 211  411.3001
 212  396.3119
 213  539.8295
 214  419.9416
 215  456.9416
 216  499.9414
 217  434.3373
 218  512.5579
 219  491.2487
 220  520.4414
 221  523.3936
 222  455.1934
 223  411.0156
 224  445.9246
 225  559.9819
 226  596.0078
 227  531.4061
 228  591.5472
 229  600.6793
 230  486.1667
 231  420.3164
 232  460.0583
 233  511.5284
 234  461.0405
 235  484.3592
 236  422.8188
 237  432.2476
 238  540.9101
 239  467.4967
 240  503.9552
 241  522.157
 242  509.0524
 243  440.2094
 244  390.9547
 245  441.7769
 246  523.6854
 247  508.459
 248  480.4962
 249  391.7298
 250  401.6397
 251  353.4434
 252  422.9229
 253  541.6763
 254  623.3286
 255  403.6255
 256  300.5281
 257  483.0211
 258  540.6008
 259  588.6556
 260  553.8134
 261  558.322
 262  493.7217
 263  484.2065
 264  598.2324
 265  527.0208
 266  507.3864
 267  620.3345
 268  615.6019
 269  700.6551
 270  562.7922
 271  500.6109
 272  515.7303
 273  591.2296
 274  485.6456
 275  560.427
 276  534.7488
 277  493.5135
 278  366.9735
 279  532.884
 280  572.213
 281  553.5718
 282  435.9713
 283  456.0607
 284  468.7419
 285  401.7662
 286  515.3716
 287  581.9017
 288  573.0171
 289  639.7701
 290  619.2022
 291  534.0078
 292  462.4474
 293  400.9151
 294  492.8116
 295  652.7371
 296  672.9694
 297  628.4089
 298  590.2493
 299  605.0474
 300  542.1894
 301  535.139
 302  496.5803
 303  479.9319
 304  394.2328
 305  459.4795
 306  501.2208
 307  523.0501
 308  494.0894
 309  541.8537
 310  623.6246
 311  500.6411
 312  500.1551
 313  478.9732
 314  407.3743
 315  475.7944
 316  570.4142
 317  693.8719
 318  642.7719
 319  529.0327
 320  514.7057
 321  522.5901
 322  574.7808
 323  732.7721
 324  686.1072
 325  637.087
 326  527.239
 327  469.8385
 328  568.1167
 329  654.3951
 330  612.9611
 331  570.667
 332  550.2457
 333  577.977
 334  563.776
 335  575.3337
 336  621.2496
 337  683.9858
 338  567.3116
 339  593.0037
 340  518.5961
 341  522.0386
 342  573.3736
 343  624.1475
 344  598.6248
 345  549.321
 346  549.0487
 347  588.1868
 348  599.9937
 349  632.2103
 350  646.4604
 351  601.9773
 352  581.4565
 353  526.1403
 354  500.527
 355  477.1494
 356  494.0577
 357  574.0157
 358  605.3315
 359  590.947
 360  512.9752
 361  496.6524
 362  687.2507
 363  546.7712
 364  581.4056
 365  452.5034
 366  550.2315
 367  653.3583
 368  599.674
 369  591.6266
 370  502.1431
 371  519.5643
 372  452.0848
 373  437.1772
 374  576.9374
 375  735.9868
 376  602.4663
 377  522.2828
 378  505.4163
 379  559.6345
 380  626.2598
 381  555.9277
 382  546.4042
 383  532.2268
 384  502.9891
 385  434.2843
 386  526.5172
 387  628.9089
 388  637.8669
 389  637.4473
 390  576.3578
 391  573.5204
 392  549.6042
 393  548.8914
 394  490.0728
 395  503.2444
 396  628.2442
 397  609.0567
 398  574.6993
 399  570.8234
 400  473.9847
 401  492.7077
 402  542.0532
 403  615.8757
 404  532.9171
 405  515.9111
 406  626.3701
 407  437.6807
 408  542.9961
 409  684.9493
 410  625.6194
 411  521.6957
 412  522.1941
 413  673.3351
 414  726.762
 415  647.1898
 416  644.2934
 417  670.856
 418  584.2404
 419  424.0541
 420  354.9494
 421  446.196
 422  501.2841
 423  562.533
 424  593.7457
 425  703.8834
 426  647.8271
 427  684.9682
 428  628.2374
 429  535.8778
 430  538.7576
 431  554.5946
 432  522.7737
 433  545.8163
 434  640.4061
 435  681.2144
 436  510.1926
 437  470.3868
 438  473.9084
 439  477.3318
 440  457.175
 441  529.5115
 442  468.2958
 443  554.0067
 444  528.9897
 445  511.2397
 446  557.405
 447  471.4319
 448  544.1711
 449  515.8919
 450  446.0786
 451  387.35
 452  375.8793
 453  471.2839
 454  523.6754
 455  470.417
 456  428.5215
 457  480.4502
 458  335.3573
 459  398.5067
 460  386.3481
 461  311.7172
 462  381.6697
 463  421.7171
 464  435.7996
 465  400.9337
 466  374.4836
 467  479.339
 468  541.6673
 469  579.9915
 470  588.1899
 471  597.0505
 472  562.4958
 473  616.6957
 474  649.0547
 475  610.3499
 476  513.3464
 477  364.4821
 478  546.6484
 479  553.4302
 480  606.6068
 481  659.9672
 482  601.7518
 483  537.772
 484  568.106
 485  562.0232
 486  506.4323
 487  657.5758
 488  650.1884
 489  526.4684
 490  455.6456
 491  542.8551
 492  479.9527
 493  449.8123
 494  445.2395
 495  502.0053
 496  470.1312
 497  529.4528
 498  667.9855
 499  712.163
 500  654.8634
 501  554.6382
 502  517.1527
 503  621.8358
 504  526.3656
 505  517.7471
 506  482.951
 507  548.6479
 508  748.2882
 509  848.4714
 510  1106.117
 511  1078.645
