# Input file       =  1211284752.109416_cleaned.dat
# Candidate        =  PSR_0332+5434
# Telescope        =  AR
# Epoch_topo       =  58263.499665618241
# Epoch_bary       =  N/A
# T_sample         =  0.002
# Data Folded      =  7340032
# Data Avg         =  0.245461514401541
# Data StdDev      =  4.85397376242246 
# Profile Bins     =  256
# Profile Avg      =  7037.82101758085 
# Profile StdDev   =  821.91407653135  
# Reduced chi-sqr  =  0.980
# Prob(Noise)      <  0.58   (~0.0 sigma)
# P_topo (ms)      =  714.523628496446  +/- 0.000807
# P'_topo (s/s)    =  -0                +/- 4.26e-10
# P''_topo (s/s^2) =  0                 +/- 1.88e-13
# P_bary (ms)      =  N/A
# P'_bary (s/s)    =  N/A
# P''_bary (s/s^2) =  N/A
# P_orb (s)        =  N/A
# asin(i)/c (s)    =  N/A
# eccentricity     =  N/A
# w (rad)          =  N/A
# T_peri           =  N/A
######################################################
   0  7017.792
   1  6548.862
   2  6366.93
   3  6638.007
   4  6858.086
   5  6365.273
   6  6796.162
   7  7493.526
   8  7731.783
   9  6122.619
  10  6269.142
  11  6454.946
  12  6234.628
  13  6916.636
  14  6979.139
  15  6288.558
  16  6082.747
  17  6938.532
  18  6069.205
  19  5327.931
  20  6921.402
  21  6366.275
  22  6173.078
  23  6767.804
  24  6318.946
  25  6237.664
  26  7052.973
  27  7515.785
  28  8060.496
  29  7202.291
  30  7755.136
  31  6907.208
  32  6550.423
  33  6825.354
  34  7470.747
  35  6853.739
  36  6397.017
  37  7364.589
  38  7883.286
  39  7436.951
  40  6567.303
  41  8070.121
  42  7904.817
  43  7045.978
  44  6847.267
  45  6469.128
  46  6251.805
  47  6924.816
  48  7469.349
  49  7081.512
  50  6084.411
  51  6327.29
  52  7832.833
  53  7290.838
  54  6883.09
  55  7782.614
  56  7871.06
  57  6909.9
  58  7726.258
  59  7131.357
  60  7397.256
  61  7737.511
  62  8304.317
  63  7298.903
  64  6950.277
  65  7947.94
  66  7286.67
  67  7380.386
  68  7560.533
  69  7568.538
  70  6567.334
  71  6484.726
  72  7242.03
  73  7293.784
  74  7139.656
  75  7696.255
  76  7176.024
  77  8045.143
  78  7506.284
  79  6995.63
  80  6520.429
  81  7867.992
  82  7117.653
  83  7248.011
  84  7604.452
  85  6947.672
  86  6418.979
  87  7366.594
  88  7403.984
  89  6895.32
  90  7014.968
  91  6527.288
  92  7081.973
  93  6700.416
  94  6304.855
  95  7093.137
  96  6970.19
  97  6568.511
  98  7449.172
  99  7342.282
 100  7871.75
 101  7974.471
 102  7921.929
 103  6688.484
 104  6386.965
 105  7587.325
 106  8550.868
 107  8165.528
 108  7384.96
 109  7217.999
 110  7154.657
 111  7449.874
 112  6062.453
 113  6229.483
 114  6640.63
 115  7032.32
 116  6145.128
 117  6514.012
 118  6642.531
 119  5555.768
 120  5925.906
 121  6139.033
 122  5419.734
 123  5215.528
 124  5376.495
 125  6054.617
 126  5917.663
 127  6059.921
 128  6964.052
 129  7239.488
 130  7024.238
 131  7280.311
 132  5605.845
 133  6433.544
 134  6827.1
 135  6114.026
 136  6573.583
 137  7661.544
 138  6940.636
 139  6460.979
 140  6449.806
 141  6682.94
 142  6560.141
 143  8156.322
 144  7674.727
 145  7520.637
 146  6634.279
 147  6755.503
 148  8949.426
 149  10919.96
 150  9707.383
 151  8716.915
 152  7798.27
 153  7439.159
 154  7589.272
 155  7240.607
 156  7556.529
 157  8193.635
 158  7141.006
 159  6409.467
 160  6924.993
 161  6676.018
 162  6520.491
 163  6687.32
 164  6552.332
 165  6167.429
 166  6933.655
 167  7104.963
 168  6895.422
 169  6512.592
 170  7406.845
 171  6852.565
 172  7081.993
 173  6775.548
 174  7322.023
 175  6424.575
 176  7601.877
 177  7158.428
 178  7280.677
 179  7039.309
 180  8028.113
 181  7451.835
 182  6919.925
 183  7013.885
 184  7814.964
 185  7473.513
 186  6577.79
 187  6277.761
 188  6909.084
 189  6562.548
 190  6084.315
 191  7058.721
 192  7261.138
 193  6740.379
 194  6432.507
 195  6575.903
 196  6787.688
 197  6204.564
 198  5842.83
 199  6066.535
 200  6457.92
 201  6802.811
 202  6534.44
 203  6276.461
 204  6620.332
 205  5893.709
 206  7057.798
 207  7397.013
 208  7130.866
 209  7725.255
 210  7939.493
 211  7776.975
 212  8211.297
 213  8020.486
 214  7872.631
 215  8010.056
 216  7410.145
 217  6913.027
 218  7191.036
 219  7757.474
 220  7474.251
 221  6597.172
 222  7257.728
 223  6918.414
 224  7033.428
 225  6887.361
 226  7136.132
 227  6769.088
 228  7568.142
 229  7763.518
 230  6872.808
 231  7615.566
 232  8229.851
 233  8230.166
 234  7925.438
 235  7340.094
 236  6945.312
 237  7655.878
 238  7096.044
 239  7403.098
 240  7774.142
 241  7209.381
 242  6947.882
 243  7722.836
 244  6405.643
 245  6254.265
 246  6801.147
 247  7246.849
 248  7406.787
 249  6896.054
 250  6703.446
 251  6676.832
 252  6970.887
 253  6206.721
 254  7263.852
 255  6909.849
