# Input file       =  1211715512.106801_cleaned.dat
# Candidate        =  PSR_0332+5434
# Telescope        =  AR
# Epoch_topo       =  58268.485313736121
# Epoch_bary       =  N/A
# T_sample         =  0.002
# Data Folded      =  7340032
# Data Avg         =  0.0167203844658027
# Data StdDev      =  1.00006004169855 
# Profile Bins     =  512
# Profile Avg      =  239.70757489411  
# Profile StdDev   =  119.740225351643 
# Reduced chi-sqr  =  1.273
# Prob(Noise)      <  2.61e-05   (~4.0 sigma)
# P_topo (ms)      =  714.518751691014  +/- 0.000261
# P'_topo (s/s)    =  -0                +/- 1.38e-10
# P''_topo (s/s^2) =  0                 +/- 6.08e-14
# P_bary (ms)      =  N/A
# P'_bary (s/s)    =  N/A
# P''_bary (s/s^2) =  N/A
# P_orb (s)        =  N/A
# asin(i)/c (s)    =  N/A
# eccentricity     =  N/A
# w (rad)          =  N/A
# T_peri           =  N/A
######################################################
   0  819.5107
   1  853.9898
   2  746.7775
   3  536.5584
   4  315.5498
   5  175.4753
   6  233.1548
   7  258.3982
   8  160.8496
   9  236.6788
  10  331.2296
  11  225.1419
  12  213.7041
  13  121.1967
  14  97.54899
  15  252.9464
  16  236.9066
  17  130.6062
  18  151.4762
  19  262.8336
  20  246.0662
  21  141.9026
  22  204.377
  23  245.8272
  24  285.8134
  25  307.089
  26  272.1736
  27  245.8499
  28  232.0185
  29  155.2078
  30  143.648
  31  225.6638
  32  239.8223
  33  201.0724
  34  222.3367
  35  162.6567
  36  228.4101
  37  238.1348
  38  90.27388
  39  29.71284
  40  139.0887
  41  149.0711
  42  132.275
  43  185.1383
  44  196.003
  45  256.0889
  46  298.5012
  47  350.0905
  48  155.5304
  49  151.2667
  50  173.7283
  51  208.0175
  52  203.5032
  53  209.4511
  54  201.5771
  55  184.7346
  56  159.3879
  57  269.7087
  58  363.0753
  59  414.1263
  60  367.4464
  61  295.1228
  62  411.2265
  63  313.2578
  64  246.8804
  65  316.6298
  66  230.564
  67  236.5205
  68  248.8569
  69  276.8999
  70  229.2244
  71  245.8292
  72  172.9454
  73  82.19795
  74  218.2543
  75  382.7112
  76  364.5132
  77  251.0326
  78  118.5339
  79  148.6806
  80  265.8743
  81  282.4872
  82  254.557
  83  328.2914
  84  232.5989
  85  89.79597
  86  127.0515
  87  303.8047
  88  218.5312
  89  199.1955
  90  235.0698
  91  290.1203
  92  300.8043
  93  195.2885
  94  99.20033
  95  117.1008
  96  205.8463
  97  147.1784
  98  206.159
  99  207.7542
 100  153.7038
 101  180.498
 102  163.9212
 103  177.3734
 104  132.8917
 105  97.47198
 106  245.0555
 107  218.1839
 108  78.29768
 109  172.1937
 110  208.3713
 111  148.8824
 112  239.664
 113  143.9375
 114  115.9061
 115  90.7691
 116  285.5678
 117  193.7911
 118  152.6382
 119  305.1634
 120  193.5356
 121  125.6018
 122  129.6806
 123  177.67
 124  171.2184
 125  139.3667
 126  228.3478
 127  288.1002
 128  240.2285
 129  249.9789
 130  329.4229
 131  184.7369
 132  126.9697
 133  257.4715
 134  359.2619
 135  308.7032
 136  292.9989
 137  223.9713
 138  264.9792
 139  243.3869
 140  189.5336
 141  171.8226
 142  255.8274
 143  276.8488
 144  373.6403
 145  263.4787
 146  162.8513
 147  260.5281
 148  190.778
 149  139.2136
 150  184.5637
 151  224.2794
 152  262.6945
 153  212.0568
 154  267.9789
 155  149.9816
 156  177.2104
 157  338.3645
 158  266.2596
 159  298.5291
 160  252.5925
 161  188.1949
 162  53.87242
 163  88.92644
 164  88.9016
 165  121.331
 166  189.5157
 167  183.5739
 168  301.6525
 169  296.3717
 170  267.6212
 171  157.9955
 172  328.5079
 173  357.3435
 174  183.5579
 175  127.9398
 176  159.8294
 177  393.703
 178  440.4254
 179  344.6707
 180  331.4577
 181  225.0489
 182  127.5436
 183  228.1276
 184  216.0399
 185  174.3688
 186  216.8483
 187  222.1516
 188  267.2939
 189  249.8009
 190  282.5207
 191  301.9733
 192  283.3129
 193  235.0496
 194  298.8851
 195  304.8842
 196  274.7072
 197  316.8143
 198  228.7135
 199  99.77223
 200  165.4822
 201  195.9083
 202  110.8843
 203  175.2248
 204  205.5596
 205  196.8133
 206  186.4648
 207  171.2778
 208  100.5313
 209  91.53756
 210  276.3168
 211  252.556
 212  196.3086
 213  180.2249
 214  224.2404
 215  217.2252
 216  272.0895
 217  302.0277
 218  200.9279
 219  187.1228
 220  231.8851
 221  178.8064
 222  153.3442
 223  174.4121
 224  257.7112
 225  267.4661
 226  262.8872
 227  160.9133
 228  218.1782
 229  407.9146
 230  311.8604
 231  203.9395
 232  161.0672
 233  194.1194
 234  189.495
 235  296.4199
 236  328.1638
 237  210.3755
 238  102.9085
 239  216.3919
 240  279.5443
 241  225.1874
 242  137.6518
 243  184.3976
 244  85.82601
 245  145.0698
 246  65.48146
 247  114.375
 248  113.4042
 249  192.7118
 250  437.0421
 251  379.9624
 252  420.2394
 253  410.6375
 254  291.5929
 255  230.4652
 256  205.6095
 257  202.2014
 258  308.2266
 259  325.7951
 260  317.5096
 261  361.7357
 262  348.0467
 263  290.731
 264  196.5258
 265  305.0909
 266  319.5226
 267  345.1255
 268  362.8886
 269  236.2522
 270  170.6085
 271  346.3315
 272  474.6324
 273  356.0673
 274  291.2702
 275  320.2769
 276  332.7808
 277  180.8869
 278  289.1513
 279  307.3673
 280  386.4101
 281  260.6996
 282  245.1046
 283  193.009
 284  300.5753
 285  279.8401
 286  378.3651
 287  235.9858
 288  203.0389
 289  141.2671
 290  123.0909
 291  234.6697
 292  138.6475
 293  137.2679
 294  147.9557
 295  159.9992
 296  221.1162
 297  196.3981
 298  171.5287
 299  87.15102
 300  58.10578
 301  139.5679
 302  192.4865
 303  184.5873
 304  299.0574
 305  336.8335
 306  226.5126
 307  123.9059
 308  187.5098
 309  221.9636
 310  168.5291
 311  295.7333
 312  370.8916
 313  118.4947
 314  176.6644
 315  188.5168
 316  90.81234
 317  108.8251
 318  205.5441
 319  244.8996
 320  195.9346
 321  216.8489
 322  345.6801
 323  189.1919
 324  131.2856
 325  212.2396
 326  234.8409
 327  267.9821
 328  255.2549
 329  189.4607
 330  140.2369
 331  112.4607
 332  151.3774
 333  273.4419
 334  315.7333
 335  241.2892
 336  301.047
 337  278.511
 338  231.1497
 339  200.0962
 340  261.1779
 341  271.1829
 342  242.9128
 343  186.1081
 344  103.5359
 345  141.5377
 346  123.8638
 347  178.0646
 348  152.2769
 349  224.4369
 350  213.1021
 351  266.5992
 352  306.2037
 353  373.821
 354  276.332
 355  199.8532
 356  198.7256
 357  188.7631
 358  242.5234
 359  243.7701
 360  173.961
 361  297.9977
 362  315.4139
 363  287.4349
 364  240.5426
 365  242.0699
 366  338.7648
 367  250.598
 368  273.9239
 369  291.5903
 370  170.5746
 371  197.5781
 372  127.2477
 373  180.575
 374  189.4737
 375  237.8499
 376  223.333
 377  278.8987
 378  324.3448
 379  281.7715
 380  209.3264
 381  205.0185
 382  315.255
 383  181.6726
 384  228.2893
 385  183.2215
 386  296.1853
 387  253.4547
 388  198.9794
 389  146.6571
 390  166.5039
 391  393.5406
 392  403.2157
 393  325.27
 394  228.012
 395  200.4635
 396  60.93918
 397  104.4412
 398  297.8347
 399  231.6706
 400  341.6965
 401  236.1215
 402  162.66
 403  140.115
 404  104.8016
 405  257.0161
 406  170.9127
 407  96.1505
 408  241.9497
 409  282.7111
 410  238.7665
 411  243.1718
 412  319.5907
 413  267.7109
 414  318.1532
 415  390.5471
 416  314.599
 417  274.6496
 418  303.4982
 419  392.5938
 420  193.496
 421  225.8298
 422  241.3981
 423  259.7697
 424  220.656
 425  200.716
 426  451.4951
 427  360.7027
 428  166.2472
 429  252.1051
 430  309.7589
 431  318.0821
 432  130.09
 433  184.3318
 434  234.0179
 435  323.6276
 436  338.7361
 437  334.4534
 438  155.6698
 439  184.5492
 440  276.89
 441  220.8426
 442  239.3497
 443  313.2847
 444  373.739
 445  329.4595
 446  356.7965
 447  276.1974
 448  285.2714
 449  293.1004
 450  310.5857
 451  226.711
 452  302.0344
 453  378.3984
 454  240.0321
 455  203.0624
 456  170.9872
 457  182.1555
 458  350.2327
 459  347.0935
 460  285.4496
 461  301.4839
 462  295.7743
 463  149.0303
 464  157.0452
 465  351.9226
 466  378.9073
 467  241.5571
 468  277.191
 469  216.7077
 470  219.0744
 471  310.6622
 472  262.2763
 473  167.2336
 474  275.2595
 475  371.9648
 476  268.6507
 477  243.4322
 478  222.0506
 479  311.9401
 480  225.9
 481  255.8469
 482  251.508
 483  174.7094
 484  303.1473
 485  207.4647
 486  193.9198
 487  236.8255
 488  267.4626
 489  275.5079
 490  201.5624
 491  348.2665
 492  236.6896
 493  257.14
 494  290.8848
 495  280.9727
 496  312.813
 497  317.2691
 498  163.523
 499  36.04654
 500  158.9748
 501  205.0159
 502  243.4176
 503  174.8968
 504  122.4657
 505  133.9928
 506  289.3545
 507  440.8164
 508  443.8257
 509  558.6951
 510  697.3535
 511  836.3215
