# Input file       =  1211629359.111562_cleaned.dat
# Candidate        =  PSR_0332+5434
# Telescope        =  AR
# Epoch_topo       =  58267.488172587524
# Epoch_bary       =  N/A
# T_sample         =  0.002
# Data Folded      =  7340032
# Data Avg         =  0.0228574420613024
# Data StdDev      =  1.00003153739956 
# Profile Bins     =  512
# Profile Avg      =  327.623060373107 
# Profile StdDev   =  119.736812445375 
# Reduced chi-sqr  =  1.354
# Prob(Noise)      <  1.48e-07   (~5.1 sigma)
# P_topo (ms)      =  714.519725676053  +/- 0.000171
# P'_topo (s/s)    =  -0                +/- 9.02e-11
# P''_topo (s/s^2) =  0                 +/- 3.98e-14
# P_bary (ms)      =  N/A
# P'_bary (s/s)    =  N/A
# P''_bary (s/s^2) =  N/A
# P_orb (s)        =  N/A
# asin(i)/c (s)    =  N/A
# eccentricity     =  N/A
# w (rad)          =  N/A
# T_peri           =  N/A
######################################################
   0  316.5793
   1  411.7175
   2  370.9198
   3  260.5117
   4  253.678
   5  293.4398
   6  279.3127
   7  353.9695
   8  384.9661
   9  236.1608
  10  335.0847
  11  425.2525
  12  281.595
  13  420.7763
  14  395.7486
  15  306.1582
  16  398.3488
  17  382.998
  18  348.0772
  19  297.5904
  20  384.2772
  21  356.5612
  22  284.2315
  23  386.9424
  24  403.6811
  25  366.4939
  26  309.9786
  27  344.0492
  28  353.1644
  29  296.9254
  30  356.847
  31  480.7938
  32  498.1597
  33  447.7873
  34  334.8982
  35  355.9745
  36  358.9201
  37  341.0308
  38  316.258
  39  332.5555
  40  325.8954
  41  318.4478
  42  216.6046
  43  275.0154
  44  305.6186
  45  420.716
  46  425.4639
  47  325.2024
  48  409.8326
  49  417.8435
  50  356.0295
  51  229.9667
  52  240.9455
  53  444.3088
  54  424.3347
  55  320.495
  56  307.5427
  57  239.7042
  58  320.0072
  59  207.6901
  60  226.3045
  61  249.9856
  62  243.9642
  63  392.1324
  64  386.9676
  65  329.068
  66  292.8474
  67  194.2309
  68  212.0967
  69  260.2225
  70  192.5897
  71  226.3286
  72  274.6542
  73  260.8415
  74  253.1455
  75  168.3629
  76  254.0515
  77  264.6432
  78  297.7381
  79  286.8531
  80  349.5655
  81  329.0351
  82  315.587
  83  338.1537
  84  357.3932
  85  405.0934
  86  423.0237
  87  328.7525
  88  366.4897
  89  400.0065
  90  402.6678
  91  290.5545
  92  369.6038
  93  428.713
  94  381.566
  95  375.8263
  96  371.5389
  97  287.8637
  98  387.1921
  99  303.8994
 100  229.1432
 101  340.063
 102  393.7674
 103  465.0703
 104  440.744
 105  390.9661
 106  302.0013
 107  235.7421
 108  337.202
 109  244.1932
 110  386.3459
 111  429.8878
 112  305.0827
 113  235.5272
 114  346.6856
 115  338.5897
 116  253.0009
 117  307.4019
 118  198.546
 119  281.2357
 120  410.5791
 121  412.7918
 122  267.6213
 123  320.3075
 124  312.4666
 125  208.0537
 126  297.3625
 127  272.1141
 128  301.5803
 129  287.2255
 130  192.5099
 131  288.2998
 132  266.2875
 133  171.6003
 134  195.2933
 135  328.3958
 136  385.2642
 137  313.2533
 138  330.4557
 139  369.4501
 140  266.5742
 141  180.9495
 142  269.4636
 143  457.4559
 144  401.6595
 145  321.7202
 146  294.2398
 147  193.3907
 148  170.2073
 149  295.0621
 150  249.6854
 151  278.6259
 152  388.7121
 153  465.1457
 154  397.3897
 155  370.4347
 156  418.3603
 157  374.0652
 158  254.4017
 159  150.9644
 160  253.162
 161  363.2061
 162  371.7103
 163  280.7864
 164  416.5371
 165  385.2399
 166  374.9024
 167  355.5933
 168  402.8315
 169  289.0473
 170  215.4643
 171  202.5383
 172  311.2507
 173  328.9411
 174  327.5462
 175  352.2619
 176  396.2902
 177  409.1334
 178  350.5232
 179  360.2786
 180  292.0455
 181  270.8506
 182  410.1116
 183  389.5806
 184  380.4835
 185  348.0604
 186  417.404
 187  395.6046
 188  359.979
 189  382.1671
 190  279.2788
 191  340.1968
 192  325.9045
 193  369.1994
 194  291.5577
 195  359.6285
 196  462.5316
 197  244.7868
 198  369.8401
 199  330.0917
 200  201.6886
 201  189.0401
 202  374.3802
 203  447.0177
 204  311.1579
 205  283.841
 206  289.1887
 207  280.7614
 208  292.0975
 209  244.6742
 210  288.8111
 211  239.9906
 212  271.1075
 213  433.8921
 214  422.5252
 215  370.7058
 216  324.8912
 217  270.2001
 218  419.3777
 219  386.8889
 220  366.4284
 221  272.0481
 222  295.1192
 223  236.6826
 224  288.8348
 225  211.1755
 226  178.4989
 227  263.433
 228  251.842
 229  232.7904
 230  158.9782
 231  176.7223
 232  299.2729
 233  395.6243
 234  411.1105
 235  288.1066
 236  265.9182
 237  297.0593
 238  395.8007
 239  241.856
 240  104.9348
 241  184.604
 242  248.9207
 243  293.8629
 244  324.4318
 245  295.1502
 246  294.1587
 247  275.6976
 248  297.897
 249  266.2804
 250  243.4226
 251  304.8532
 252  438.8437
 253  275.8696
 254  161.2246
 255  96.17474
 256  207.9773
 257  254.0207
 258  328.8255
 259  366.7752
 260  358.6396
 261  340.3264
 262  303.3217
 263  192.086
 264  250.5278
 265  292.9546
 266  228.3214
 267  292.6628
 268  312.8655
 269  260.7309
 270  269.1605
 271  253.0333
 272  352.4468
 273  303.7324
 274  259.2146
 275  237.0175
 276  295.9626
 277  160.5459
 278  174.4605
 279  206.2576
 280  235.7085
 281  279.6599
 282  279.1033
 283  361.6543
 284  350.4043
 285  376.61
 286  285.0178
 287  291.1483
 288  288.2473
 289  318.5541
 290  278.2901
 291  304.3372
 292  394.0306
 293  432.2094
 294  340.8104
 295  375.9812
 296  322.7934
 297  246.969
 298  269.2681
 299  104.2788
 300  129.1737
 301  221.2698
 302  280.2598
 303  244.803
 304  124.5102
 305  28.85615
 306  256.4789
 307  378.9577
 308  270.7251
 309  254.007
 310  306.013
 311  288.9637
 312  121.5243
 313  120.9788
 314  229.3802
 315  285.7591
 316  334.5032
 317  470.1722
 318  408.838
 319  420.9914
 320  309.7823
 321  260.6955
 322  410.9545
 323  464.568
 324  418.3152
 325  219.2065
 326  392.8306
 327  403.933
 328  163.0803
 329  211.1348
 330  324.4579
 331  154.1535
 332  167.6966
 333  198.7859
 334  344.7601
 335  322.268
 336  276.0175
 337  219.9434
 338  263.5765
 339  283.8373
 340  256.5963
 341  292.5955
 342  275.4447
 343  400.4012
 344  231.7702
 345  201.2786
 346  226.7381
 347  290.0811
 348  340.3065
 349  337.5641
 350  411.4843
 351  423.622
 352  347.4362
 353  338.4437
 354  351.8622
 355  312.7019
 356  323.9538
 357  356.3711
 358  343.2016
 359  323.1433
 360  476.953
 361  299.05
 362  221.0431
 363  213.6646
 364  306.0707
 365  254.8208
 366  334.3875
 367  261.9912
 368  196.011
 369  238.0931
 370  308.9453
 371  451.9746
 372  416.0199
 373  401.9504
 374  355.5008
 375  288.2882
 376  355.4936
 377  369.0558
 378  351.0483
 379  282.4776
 380  208.5981
 381  361.4536
 382  351.3006
 383  305.5049
 384  320.9704
 385  356.6655
 386  401.2045
 387  455.8319
 388  214.1669
 389  281.4646
 390  465.1782
 391  461.0327
 392  378.7951
 393  243.8308
 394  351.0074
 395  415.3293
 396  457.8432
 397  466.8699
 398  379.0747
 399  383.2351
 400  489.5547
 401  387.7888
 402  236.2272
 403  292.9352
 404  312.4428
 405  357.8364
 406  297.0796
 407  328.8531
 408  298.1925
 409  308.0095
 410  280.9699
 411  335.7003
 412  329.8681
 413  252.9741
 414  277.7387
 415  354.7754
 416  308.4682
 417  295.1964
 418  272.6571
 419  325.7838
 420  377.7066
 421  359.6932
 422  331.1961
 423  262.8055
 424  311.4985
 425  266.6497
 426  263.809
 427  354.4315
 428  295.7006
 429  310.1323
 430  326.3253
 431  324.1247
 432  351.8335
 433  272.4145
 434  229.9808
 435  235.453
 436  438.1973
 437  403.0806
 438  301.895
 439  305.6658
 440  355.9899
 441  266.9467
 442  343.3427
 443  357.638
 444  360.9348
 445  287.5284
 446  323.6622
 447  258.2433
 448  305.9821
 449  485.7042
 450  483.2254
 451  469.4867
 452  656.6105
 453  747.6834
 454  962.3494
 455  1064.605
 456  870.8478
 457  692.085
 458  656.9186
 459  547.2627
 460  458.5679
 461  513.2868
 462  381.4775
 463  461.2168
 464  357.0633
 465  310.2417
 466  338.8321
 467  455.1821
 468  543.4514
 469  493.2314
 470  572.7754
 471  555.7595
 472  512.9056
 473  564.0853
 474  416.2026
 475  396.461
 476  367.06
 477  401.9794
 478  254.9042
 479  358.8568
 480  483.3099
 481  452.3801
 482  414.299
 483  428.7944
 484  390.0721
 485  378.317
 486  493.8075
 487  427.8824
 488  361.0524
 489  336.5265
 490  287.7599
 491  333.9193
 492  370.8943
 493  393.2669
 494  349.4535
 495  355.5808
 496  214.8316
 497  251.2014
 498  274.5595
 499  176.5589
 500  184.8933
 501  261.6178
 502  273.1129
 503  355.842
 504  407.7051
 505  363.8182
 506  198.8231
 507  154.2057
 508  312.8521
 509  415.163
 510  329.1366
 511  378.1771
