# Input file       =  1211030064.097827-PSRB0329-2ms-sampling-dd.dat
# Candidate        =  PSR_0332+5434
# Telescope        =  AR
# Epoch_topo       =  58260.551887706330
# Epoch_bary       =  N/A
# T_sample         =  0.002
# Data Folded      =  7340032
# Data Avg         =  2.06325412128003e-10
# Data StdDev      =  8.93585099967822 
# Profile Bins     =  512
# Profile Avg      =  0.198736380247192
# Profile StdDev   =  1069.91657280183 
# Reduced chi-sqr  =  0.854
# Prob(Noise)      <  0.993   (~0.0 sigma)
# P_topo (ms)      =  714.526617972847  +/- 5.07e-05
# P'_topo (s/s)    =  -0                +/- 2.67e-11
# P''_topo (s/s^2) =  0                 +/- 1.18e-14
# P_bary (ms)      =  N/A
# P'_bary (s/s)    =  N/A
# P''_bary (s/s^2) =  N/A
# P_orb (s)        =  N/A
# asin(i)/c (s)    =  N/A
# eccentricity     =  N/A
# w (rad)          =  N/A
# T_peri           =  N/A
######################################################
   0  276.9195
   1  188.8181
   2  -312.4892
   3  -343.3009
   4  -95.41433
   5  -42.74179
   6  -148.4901
   7  329.1613
   8  19.26146
   9  -923.9079
  10  -1308.877
  11  -1502.804
  12  -619.6981
  13  517.9119
  14  731.7263
  15  -243.8089
  16  -1008.846
  17  -1126.547
  18  -859.62
  19  -507.9884
  20  -848.5045
  21  -45.05908
  22  -166.5078
  23  -554.5566
  24  -1008.564
  25  -977.1373
  26  -761.6376
  27  -296.2449
  28  426.066
  29  375.702
  30  -129.8094
  31  -919.3821
  32  -1010.808
  33  -692.0956
  34  -86.03103
  35  303.2931
  36  200.7483
  37  111.5884
  38  -604.1305
  39  -920.4537
  40  -882.065
  41  -880.397
  42  -1359.993
  43  -1127.54
  44  -1398.574
  45  -1294.271
  46  -1152.804
  47  -325.7887
  48  211.8789
  49  -649.8479
  50  -1002.688
  51  -913.5805
  52  -500.4225
  53  413.269
  54  1034.291
  55  543.7967
  56  26.23948
  57  -1042.152
  58  -1446.428
  59  -751.4203
  60  -85.27025
  61  656.6553
  62  -67.49325
  63  -515.4053
  64  -1426.523
  65  -1473.652
  66  -1390.841
  67  -502.2412
  68  174.7943
  69  -368.7372
  70  -258.7006
  71  -200.0862
  72  -193.3819
  73  -561.9418
  74  -304.233
  75  -422.6391
  76  -544.8826
  77  -751.1055
  78  -195.5544
  79  497.4311
  80  633.9366
  81  598.8494
  82  -604.6307
  83  -715.0679
  84  -1311.227
  85  -876.4658
  86  263.087
  87  1364.872
  88  1904.352
  89  1811.23
  90  1798.177
  91  1333.753
  92  1425.683
  93  1132.95
  94  667.699
  95  0.3659554
  96  -570.3759
  97  -299.5379
  98  -152.314
  99  -143.9171
 100  -339.6994
 101  -106.6904
 102  -792.645
 103  -1013.859
 104  -996.8104
 105  -251.0211
 106  216.4342
 107  120.9731
 108  -390.5048
 109  -1507.808
 110  -1860.799
 111  -1486.689
 112  -889.2839
 113  -23.43989
 114  172.339
 115  15.1182
 116  -254.744
 117  -1303.513
 118  -972.8356
 119  -733.2502
 120  -236.083
 121  -36.10921
 122  -71.90068
 123  19.6772
 124  -211.1072
 125  257.8056
 126  436.5388
 127  626.8732
 128  118.7943
 129  -279.6095
 130  -773.9303
 131  -335.3573
 132  145.0467
 133  554.8242
 134  400.9589
 135  -85.97952
 136  -251.7363
 137  -1176.653
 138  -1105.107
 139  -279.6029
 140  463.9568
 141  545.1106
 142  160.5067
 143  -384.3682
 144  -654.3575
 145  -282.2429
 146  384.0797
 147  778.2332
 148  694.5974
 149  -96.5967
 150  133.6063
 151  673.0717
 152  525.3508
 153  837.5186
 154  461.747
 155  416.5313
 156  251.7802
 157  -416.7404
 158  2.465527
 159  498.0712
 160  1091.438
 161  688.2493
 162  147.3201
 163  -403.0956
 164  -184.9081
 165  246.526
 166  533.1684
 167  447.6761
 168  653.8113
 169  -87.52213
 170  -538.9088
 171  -503.824
 172  53.21362
 173  858.8091
 174  332.7886
 175  -300.2628
 176  -615.1384
 177  -591.2197
 178  142.6371
 179  1259.134
 180  1982.083
 181  1309.119
 182  502.5363
 183  3.197762
 184  -24.72054
 185  12.10804
 186  537.1769
 187  1382.281
 188  984.2171
 189  568.277
 190  -504.4752
 191  -392.2137
 192  174.4329
 193  531.5906
 194  1091.344
 195  641.6622
 196  -377.7071
 197  -830.4938
 198  -931.0197
 199  -70.44484
 200  686.1019
 201  -56.84978
 202  -121.611
 203  -764.4465
 204  -810.8636
 205  -253.249
 206  592.4175
 207  547.8484
 208  -63.47575
 209  200.7717
 210  -332.7488
 211  -327.2462
 212  597.6061
 213  518.9658
 214  280.9899
 215  -245.4057
 216  -824.9203
 217  -938.7865
 218  -361.6159
 219  370.2521
 220  862.3489
 221  727.8236
 222  485.3467
 223  19.33497
 224  147.5281
 225  -8.839952
 226  509.8684
 227  735.7906
 228  612.5063
 229  521.2701
 230  386.1513
 231  325.6994
 232  31.30938
 233  176.121
 234  92.27499
 235  112.2614
 236  581.6833
 237  1272.083
 238  1038.882
 239  1042.297
 240  540.5831
 241  -408.1052
 242  -648.2374
 243  -655.618
 244  162.9236
 245  645.3812
 246  828.8492
 247  1135.33
 248  408.5346
 249  -118.5595
 250  -452.8975
 251  -590.7299
 252  -127.0617
 253  709.1934
 254  430.6562
 255  547.6013
 256  -268.1345
 257  -1020.699
 258  -936.8724
 259  -601.3055
 260  -33.54872
 261  265.7069
 262  655.2131
 263  632.7315
 264  381.4027
 265  -89.68945
 266  -170.5054
 267  -323.9162
 268  -235.1071
 269  -878.2917
 270  -523.1017
 271  603.9067
 272  1058.667
 273  967.5698
 274  863.7328
 275  344.5416
 276  -595.7912
 277  -326.682
 278  14.30641
 279  206.5768
 280  486.0002
 281  419.5706
 282  -74.38061
 283  -385.5028
 284  -161.9819
 285  178.459
 286  255.0026
 287  266.4406
 288  436.1389
 289  279.3416
 290  263.7235
 291  384.1187
 292  779.8135
 293  1325.322
 294  926.1905
 295  728.986
 296  208.1204
 297  601.2988
 298  1215.411
 299  1182.233
 300  1003.118
 301  853.9626
 302  1340.326
 303  1142.36
 304  2180.583
 305  3112.525
 306  1869.451
 307  316.4731
 308  120.5726
 309  -87.11767
 310  435.0115
 311  332.5486
 312  673.8213
 313  985.4402
 314  348.536
 315  152.4277
 316  252.727
 317  507.1439
 318  879.7858
 319  1214.038
 320  1286.684
 321  1306.937
 322  847.9096
 323  560.4971
 324  174.338
 325  374.8881
 326  997.2686
 327  1591.281
 328  384.178
 329  -482.9519
 330  -70.23926
 331  -702.3429
 332  -432.436
 333  339.3242
 334  586.1208
 335  36.71217
 336  -485.8819
 337  -450.9711
 338  -243.8429
 339  -292.7519
 340  -291.1323
 341  30.0838
 342  -238.8598
 343  -71.15361
 344  -87.05006
 345  332.0687
 346  394.2493
 347  -532.4848
 348  -796.5327
 349  -664.8475
 350  -220.7512
 351  -98.67181
 352  340.417
 353  616.0884
 354  431.1636
 355  101.9851
 356  -789.6599
 357  -456.1058
 358  -426.304
 359  444.8547
 360  450.9573
 361  949.4133
 362  678.5455
 363  39.20288
 364  -300.522
 365  -654.7645
 366  72.85237
 367  303.3972
 368  733.9501
 369  -512.2822
 370  -1420.644
 371  -990.3517
 372  -800.5859
 373  -628.6285
 374  -212.1292
 375  -323.2558
 376  5.670797
 377  -376.9611
 378  -632.9186
 379  -127.6367
 380  -303.7098
 381  -350.6241
 382  -930.2307
 383  -544.2216
 384  -419.0719
 385  -543.0889
 386  -173.0732
 387  -67.1914
 388  -396.1351
 389  -673.0505
 390  -288.6859
 391  -173.2861
 392  -91.17286
 393  94.34055
 394  167.3237
 395  -467.2921
 396  -363.1395
 397  -176.6204
 398  101.3123
 399  573.803
 400  257.9309
 401  983.7662
 402  -278.9588
 403  -1072.383
 404  -1328.704
 405  -847.4183
 406  128.2902
 407  15.97558
 408  90.57782
 409  -200.2844
 410  -985.3618
 411  -1557.014
 412  -752.338
 413  -88.6452
 414  -21.47262
 415  -281.369
 416  631.532
 417  820.7332
 418  0.4169929
 419  31.97627
 420  737.581
 421  1204.522
 422  705.6474
 423  920.7382
 424  576.5509
 425  -66.5753
 426  22.62299
 427  572.2061
 428  -224.9491
 429  -721.309
 430  -936.6483
 431  -840.647
 432  -452.5103
 433  -106.6476
 434  200.6012
 435  -702.4042
 436  -1123.625
 437  -1411.659
 438  -1052.446
 439  -623.88
 440  -176.9799
 441  123.2357
 442  5.846349
 443  126.5293
 444  -651.158
 445  -64.63422
 446  -8.41907
 447  -650.1172
 448  -878.9038
 449  -608.2943
 450  60.05793
 451  251.8642
 452  384.278
 453  -392.9259
 454  -748.3006
 455  -1359.834
 456  -1092.761
 457  -405.8555
 458  358.1795
 459  894.1288
 460  937.4619
 461  5.360104
 462  -851.8243
 463  -1203.166
 464  -855.9069
 465  -233.9283
 466  323.3268
 467  662.3285
 468  -230.6394
 469  -526.2568
 470  -1090.542
 471  -353.662
 472  -39.21505
 473  -25.12686
 474  147.4888
 475  -334.7209
 476  -394.6282
 477  108.8862
 478  1052.956
 479  250.0648
 480  323.7909
 481  505.4923
 482  1630.779
 483  1455.911
 484  602.824
 485  296.7162
 486  -19.89412
 487  2233.375
 488  2483.305
 489  2540.225
 490  1137.709
 491  727.8745
 492  316.3603
 493  -31.24157
 494  -459.3712
 495  -670.2727
 496  -373.7741
 497  -439.9788
 498  -207.235
 499  94.70066
 500  283.4138
 501  -39.99622
 502  -799.7003
 503  -1512.238
 504  -576.712
 505  -173.0693
 506  -65.49463
 507  639.693
 508  432.2694
 509  -64.25962
 510  -416.6442
 511  -149.6923
