# Input file       =  1211973974.110982_cleaned.dat
# Candidate        =  PSR_0332+5434
# Telescope        =  AR
# Epoch_topo       =  58271.476772117843
# Epoch_bary       =  N/A
# T_sample         =  0.002
# Data Folded      =  7340032
# Data Avg         =  0.0202637956010313
# Data StdDev      =  1.00010475010752 
# Profile Bins     =  512
# Profile Avg      =  290.535773406101 
# Profile StdDev   =  119.7455784252   
# Reduced chi-sqr  =  1.410
# Prob(Noise)      <  2.45e-09   (~5.9 sigma)
# P_topo (ms)      =  714.515839316457  +/- 0.000398
# P'_topo (s/s)    =  -0                +/- 2.1e-10
# P''_topo (s/s^2) =  0                 +/- 9.26e-14
# P_bary (ms)      =  N/A
# P'_bary (s/s)    =  N/A
# P''_bary (s/s^2) =  N/A
# P_orb (s)        =  N/A
# asin(i)/c (s)    =  N/A
# eccentricity     =  N/A
# w (rad)          =  N/A
# T_peri           =  N/A
######################################################
   0  465.0726
   1  420.674
   2  288.8376
   3  338.9551
   4  354.1999
   5  415.5887
   6  393.6139
   7  338.6981
   8  257.703
   9  240.9048
  10  139.089
  11  199.0745
  12  226.6888
  13  207.0486
  14  275.7453
  15  188.0958
  16  238.0365
  17  375.888
  18  230.8385
  19  204.0815
  20  332.2639
  21  375.2085
  22  359.5982
  23  348.5643
  24  389.5868
  25  391.9914
  26  430.7133
  27  344.7493
  28  253.9269
  29  266.6632
  30  330.9675
  31  290.372
  32  248.1712
  33  285.8759
  34  373.9373
  35  363.8177
  36  344.2325
  37  365.0762
  38  296.0181
  39  338.5047
  40  220.4038
  41  200.5473
  42  224.653
  43  352.5862
  44  334.2304
  45  204.2407
  46  162.5842
  47  239.1808
  48  297.4257
  49  305.6677
  50  216.8096
  51  172.225
  52  227.6525
  53  418.8833
  54  304.4984
  55  341.4478
  56  306.9003
  57  331.3515
  58  367.0503
  59  256.093
  60  340.9503
  61  426.9458
  62  381.6948
  63  407.4666
  64  254.0859
  65  263.5836
  66  319.3878
  67  248.4363
  68  207.447
  69  260.8867
  70  304.8829
  71  230.1693
  72  274.0152
  73  482.7711
  74  379.6181
  75  285.2409
  76  342.1461
  77  371.333
  78  414.5591
  79  323.0946
  80  354.96
  81  406.5874
  82  401.399
  83  324.8167
  84  382.7793
  85  422.9643
  86  339.7057
  87  277.1688
  88  402.0593
  89  256.3816
  90  247.9174
  91  388.5403
  92  371.4654
  93  319.1303
  94  370.0985
  95  327.0337
  96  355.0922
  97  385.7126
  98  436.0287
  99  411.8026
 100  298.2825
 101  260.0251
 102  236.7903
 103  319.7536
 104  287.9122
 105  307.5489
 106  309.2596
 107  109.9771
 108  100.7706
 109  281.073
 110  344.1709
 111  274.7664
 112  227.2267
 113  179.1396
 114  191.6899
 115  258.7704
 116  332.6059
 117  306.2629
 118  251.8054
 119  247.3471
 120  336.7169
 121  453.5471
 122  299.3556
 123  225.4671
 124  246.1517
 125  255.1627
 126  242.4091
 127  223.6263
 128  270.5317
 129  286.4597
 130  348.6633
 131  279.8759
 132  179.3144
 133  208.0194
 134  250.2128
 135  177.4419
 136  109.4177
 137  137.7686
 138  90.7006
 139  130.9134
 140  125.776
 141  154.8393
 142  160.0944
 143  284.0608
 144  201.2779
 145  191.0048
 146  248.1512
 147  224.6951
 148  252.4198
 149  284.9759
 150  348.0265
 151  357.2313
 152  158.5737
 153  141.461
 154  249.6447
 155  258.0629
 156  274.6387
 157  134.5699
 158  281.2814
 159  235.6909
 160  151.1209
 161  108.5517
 162  229.6107
 163  203.4199
 164  251.4811
 165  228.2976
 166  112.9224
 167  155.8917
 168  238.0783
 169  190.0319
 170  286.5548
 171  216.1888
 172  346.4742
 173  280.4297
 174  254.7023
 175  273.3243
 176  266.4027
 177  240.5855
 178  280.8185
 179  264.8091
 180  385.8559
 181  306.5769
 182  152.6252
 183  281.5464
 184  280.9389
 185  286.3204
 186  272.6097
 187  275.167
 188  129.156
 189  235.224
 190  188.5377
 191  272.2658
 192  208.2391
 193  228.4927
 194  246.3328
 195  309.2326
 196  306.0381
 197  193.9126
 198  271.7809
 199  232.1372
 200  206.0101
 201  118.5579
 202  152.9158
 203  90.97401
 204  275.5199
 205  362.3927
 206  339.4821
 207  383.6928
 208  364.4348
 209  235.5614
 210  207.0604
 211  314.515
 212  322.6464
 213  244.4103
 214  250.9267
 215  100.3917
 216  104.143
 217  144.7527
 218  182.1117
 219  156.2931
 220  228.747
 221  245.315
 222  212.4889
 223  144.7626
 224  169.574
 225  150.4512
 226  100.8651
 227  86.13953
 228  199.3896
 229  193.1897
 230  321.1277
 231  242.3389
 232  195.6508
 233  214.051
 234  244.4302
 235  317.6948
 236  275.5011
 237  258.023
 238  435.7296
 239  326.6239
 240  243.0961
 241  282.148
 242  276.7036
 243  304.6255
 244  341.2504
 245  251.2036
 246  144.9132
 247  166.6754
 248  159.6702
 249  257.8446
 250  264.3719
 251  306.0505
 252  295.1837
 253  209.2707
 254  341.7036
 255  335.5819
 256  345.3322
 257  310.869
 258  311.7516
 259  309.5177
 260  461.8151
 261  373.5715
 262  191.2965
 263  326.7687
 264  259.9271
 265  189.5612
 266  222.4603
 267  282.0172
 268  281.9522
 269  461.1296
 270  400.633
 271  333.1212
 272  365.4917
 273  381.8429
 274  294.4062
 275  433.625
 276  397.2711
 277  338.2905
 278  368.1387
 279  389.5333
 280  324.4795
 281  399.6707
 282  305.2145
 283  341.7149
 284  354.4453
 285  339.1816
 286  544.4094
 287  569.6298
 288  637.1276
 289  778.1876
 290  978.8808
 291  980.3992
 292  915.034
 293  767.2574
 294  419.0755
 295  400.4734
 296  464.2209
 297  269.2781
 298  205.7673
 299  324.8277
 300  289.755
 301  309.0574
 302  180.6434
 303  316.5955
 304  396.0249
 305  341.7129
 306  248.227
 307  231.2555
 308  231.9309
 309  296.5611
 310  292.1347
 311  106.143
 312  189.7768
 313  355.1216
 314  353.0562
 315  289.8936
 316  325.8084
 317  370.5618
 318  307.3495
 319  77.39675
 320  70.4847
 321  193.4888
 322  198.4971
 323  217.2217
 324  279.9294
 325  312.0742
 326  200.6383
 327  245.1416
 328  358.6488
 329  289.2948
 330  441.0415
 331  355.8345
 332  276.5154
 333  276.2356
 334  389.0066
 335  393.877
 336  357.1332
 337  357.9493
 338  262.2483
 339  209.2906
 340  266.2822
 341  223.7383
 342  154.8477
 343  205.0114
 344  183.1155
 345  247.602
 346  242.633
 347  171.5589
 348  168.6839
 349  201.9506
 350  153.8027
 351  281.2775
 352  362.8568
 353  390.9574
 354  298.7392
 355  260.9485
 356  290.1813
 357  246.4905
 358  227.2717
 359  315.7786
 360  233.757
 361  339.7649
 362  192.8527
 363  290.7169
 364  364.2816
 365  346.6494
 366  283.3694
 367  331.0246
 368  397.8698
 369  322.9535
 370  369.6613
 371  234.602
 372  264.5277
 373  315.0029
 374  349.6352
 375  393.2168
 376  263.7585
 377  230.2166
 378  230.8557
 379  215.4841
 380  202.7671
 381  316.9803
 382  249.6659
 383  246.9049
 384  263.7335
 385  335.8736
 386  128.2375
 387  134.0348
 388  191.4424
 389  219.1337
 390  223.4339
 391  111.9358
 392  204.9952
 393  238.9465
 394  239.6882
 395  248.486
 396  167.1921
 397  241.225
 398  306.868
 399  330.7554
 400  362.4525
 401  386.8252
 402  287.1664
 403  368.9281
 404  381.6638
 405  316.4886
 406  170.5905
 407  227.32
 408  295.6975
 409  309.8936
 410  408.1318
 411  314.1864
 412  192.4943
 413  203.8041
 414  226.4662
 415  380.054
 416  290.7897
 417  279.1121
 418  265.7581
 419  192.9783
 420  215.0036
 421  276.6104
 422  279.6404
 423  279.7068
 424  323.9434
 425  326.4878
 426  362.128
 427  347.104
 428  326.9479
 429  391.9161
 430  494.9847
 431  341.8654
 432  414.6163
 433  326.9478
 434  390.9887
 435  346.1289
 436  222.1124
 437  333.1444
 438  329.1972
 439  346.5654
 440  354.8368
 441  315.8604
 442  266.5764
 443  276.2038
 444  269.8943
 445  295.285
 446  266.611
 447  309.5027
 448  380.5892
 449  306.637
 450  249.8411
 451  289.8812
 452  255.7503
 453  359.4637
 454  303.3947
 455  396.8568
 456  288.3244
 457  180.2464
 458  274.8327
 459  262.4362
 460  324.5298
 461  381.1754
 462  302.3661
 463  214.4934
 464  305.0133
 465  293.8591
 466  293.6471
 467  251.7625
 468  357.9272
 469  354.7586
 470  302.2748
 471  279.9031
 472  181.0018
 473  269.6636
 474  270.4698
 475  136.5168
 476  236.5222
 477  350.1769
 478  296.8002
 479  377.4429
 480  262.7793
 481  256.7504
 482  282.015
 483  244.9699
 484  252.9494
 485  255.1256
 486  217.0508
 487  278.8724
 488  273.5925
 489  377.2971
 490  322.2259
 491  300.5778
 492  274.6369
 493  323.894
 494  309.0545
 495  259.5828
 496  336.5194
 497  380.0889
 498  275.5647
 499  337.9509
 500  441.8069
 501  431.2991
 502  260.5766
 503  258.574
 504  371.6956
 505  561.2362
 506  581.585
 507  451.5676
 508  383.8969
 509  259.4779
 510  256.0261
 511  346.3834
