# Input file       =  1211887824.112411_cleaned.dat
# Candidate        =  PSR_0332+5434
# Telescope        =  AR
# Epoch_topo       =  58270.479665652907
# Epoch_bary       =  N/A
# T_sample         =  0.002
# Data Folded      =  7340032
# Data Avg         =  0.0184672599685395
# Data StdDev      =  2.83270424469642 
# Profile Bins     =  256
# Profile Avg      =  529.310051858571 
# Profile StdDev   =  479.656382032883 
# Reduced chi-sqr  =  1.637
# Prob(Noise)      <  5.59e-10   (~6.1 sigma)
# P_topo (ms)      =  714.51680918712   +/- 0.000435
# P'_topo (s/s)    =  -0                +/- 2.3e-10
# P''_topo (s/s^2) =  0                 +/- 1.01e-13
# P_bary (ms)      =  N/A
# P'_bary (s/s)    =  N/A
# P''_bary (s/s^2) =  N/A
# P_orb (s)        =  N/A
# asin(i)/c (s)    =  N/A
# eccentricity     =  N/A
# w (rad)          =  N/A
# T_peri           =  N/A
######################################################
   0  -325.377
   1  372.2469
   2  312.4852
   3  363.0688
   4  -39.2095
   5  -78.04716
   6  444.0611
   7  541.109
   8  254.5223
   9  93.97197
  10  -36.91912
  11  145.119
  12  1012.81
  13  741.7454
  14  200.1001
  15  294.6252
  16  494.9351
  17  78.22192
  18  464.8201
  19  85.96954
  20  -80.16157
  21  844.7485
  22  -414.9533
  23  1134.391
  24  294.8397
  25  858.6926
  26  365.8513
  27  427.4775
  28  4.464063
  29  411.0789
  30  336.516
  31  188.3544
  32  34.99105
  33  -399.7036
  34  -18.8584
  35  -420.263
  36  -424.2616
  37  118.7611
  38  344.9081
  39  -499.5441
  40  178.5177
  41  -47.59586
  42  480.0851
  43  385.4801
  44  1625.824
  45  1191.22
  46  849.438
  47  1139.221
  48  768.3438
  49  986.1802
  50  1446.595
  51  676.745
  52  530.2123
  53  1040.188
  54  1218.667
  55  691.8738
  56  474.1351
  57  872.3645
  58  -330.168
  59  702.5427
  60  73.551
  61  319.1424
  62  337.0655
  63  23.48775
  64  717.9295
  65  1084.618
  66  478.9265
  67  422.6588
  68  411.3893
  69  416.7775
  70  553.0873
  71  901.0093
  72  261.5124
  73  459.6484
  74  177.1822
  75  -22.16985
  76  267.6546
  77  693.283
  78  421.6497
  79  815.301
  80  620.0009
  81  104.9531
  82  149.5686
  83  394.037
  84  543.8881
  85  562.3649
  86  380.3106
  87  819.8675
  88  966.9282
  89  1101.921
  90  571.9119
  91  1153.351
  92  958.0106
  93  960.3155
  94  485.2941
  95  307.539
  96  400.1616
  97  697.2537
  98  611.0798
  99  304.0179
 100  511.3012
 101  9.560934
 102  384.6762
 103  -26.76206
 104  24.87842
 105  52.8217
 106  202.9707
 107  99.28993
 108  675.2237
 109  1003.609
 110  434.028
 111  597.2848
 112  1003.486
 113  732.3324
 114  231.3809
 115  1006.863
 116  611.8635
 117  346.7746
 118  1491.457
 119  279.4922
 120  132.8829
 121  64.35506
 122  224.3839
 123  355.6449
 124  453.0106
 125  504.4907
 126  1175.849
 127  602.2917
 128  892.1487
 129  1276.522
 130  1344.474
 131  908.159
 132  1162.696
 133  843.1617
 134  537.4255
 135  582.2598
 136  733.645
 137  37.89102
 138  929.0333
 139  1183.978
 140  1279.539
 141  777.646
 142  232.0915
 143  780.7533
 144  634.5165
 145  1112.63
 146  1733.644
 147  1833.127
 148  1812.481
 149  3695.311
 150  3786.116
 151  1886.787
 152  1334.207
 153  1077.497
 154  1399.519
 155  440.8262
 156  1065.856
 157  423.7795
 158  220.1237
 159  409.8628
 160  632.2064
 161  362.6599
 162  284.7154
 163  532.9022
 164  136.0257
 165  220.4119
 166  188.2381
 167  -178.6606
 168  678.2676
 169  587.0099
 170  373.1287
 171  384.4393
 172  17.26497
 173  161.7345
 174  470.6675
 175  480.5585
 176  217.2085
 177  474.5565
 178  355.8236
 179  409.1964
 180  95.31355
 181  202.8883
 182  782.2886
 183  229.2334
 184  402.991
 185  332.2573
 186  -10.86236
 187  528.0007
 188  1.191222
 189  789.2369
 190  133.4993
 191  775.6554
 192  791.3758
 193  931.143
 194  1334.739
 195  1381.699
 196  708.5023
 197  892.2195
 198  917.2914
 199  864.0645
 200  681.7101
 201  460.2446
 202  52.00217
 203  272.7023
 204  592.072
 205  689.1192
 206  247.973
 207  285.4804
 208  538.4548
 209  654.7385
 210  488.9283
 211  822.0651
 212  690.7196
 213  762.3149
 214  350.4969
 215  -148.1737
 216  917.3608
 217  377.0795
 218  992.5947
 219  1483.615
 220  733.353
 221  282.7993
 222  481.8074
 223  468.7271
 224  441.5627
 225  482.3443
 226  282.0405
 227  4.939619
 228  -51.41224
 229  -144.1699
 230  630.7516
 231  402.7713
 232  371.0308
 233  265.774
 234  380.5042
 235  599.2316
 236  334.4735
 237  618.9381
 238  681.2053
 239  840.4123
 240  1086.119
 241  773.5001
 242  625.8156
 243  197.3389
 244  715.335
 245  1030.745
 246  583.325
 247  59.97992
 248  218.3451
 249  114.3748
 250  220.5701
 251  6.379809
 252  -999.2339
 253  4.105775
 254  -776.4573
 255  -413.6207
