# Input file       =  1211427572.105833_cleaned.dat
# Candidate        =  PSR_0332+5434
# Telescope        =  AR
# Epoch_topo       =  58265.152674836034
# Epoch_bary       =  N/A
# T_sample         =  0.002
# Data Folded      =  7143424
# Data Avg         =  0.0359662818037342
# Data StdDev      =  1.00006443709752 
# Profile Bins     =  512
# Profile Avg      =  501.784398995489 
# Profile StdDev   =  118.126195700614 
# Reduced chi-sqr  =  1.445
# Prob(Noise)      <  1.58e-10   (~6.3 sigma)
# P_topo (ms)      =  714.521660711746  +/- 0.000232
# P'_topo (s/s)    =  -0                +/- 1.26e-10
# P''_topo (s/s^2) =  0                 +/- 5.7e-14
# P_bary (ms)      =  N/A
# P'_bary (s/s)    =  N/A
# P''_bary (s/s^2) =  N/A
# P_orb (s)        =  N/A
# asin(i)/c (s)    =  N/A
# eccentricity     =  N/A
# w (rad)          =  N/A
# T_peri           =  N/A
######################################################
   0  568.3162
   1  616.9093
   2  488.006
   3  539.0243
   4  478.1801
   5  469.3098
   6  617.5123
   7  599.5976
   8  496.9745
   9  585.1234
  10  608.9898
  11  520.201
  12  333.4139
  13  357.3716
  14  397.8756
  15  469.4082
  16  518.8664
  17  445.5449
  18  360.0247
  19  439.8674
  20  384.4039
  21  348.2067
  22  468.392
  23  620.4243
  24  511.1478
  25  524.1628
  26  454.2175
  27  493.3633
  28  491.5988
  29  493.3168
  30  395.4116
  31  366.3939
  32  366.5135
  33  468.5525
  34  554.6339
  35  557.7582
  36  607.6313
  37  666.7823
  38  522.0543
  39  326.2808
  40  434.1656
  41  480.4385
  42  471.9015
  43  498.9336
  44  613.8687
  45  546.8273
  46  463.0048
  47  417.1755
  48  373.5857
  49  355.578
  50  440.8285
  51  455.067
  52  429.8524
  53  448.4019
  54  460.3762
  55  461.4431
  56  410.1126
  57  450.0051
  58  494.047
  59  411.3966
  60  410.0461
  61  513.403
  62  483.037
  63  539.3781
  64  571.3892
  65  508.2152
  66  422.5334
  67  338.6549
  68  392.6891
  69  448.392
  70  421.8207
  71  476.4485
  72  434.6262
  73  437.7708
  74  521.4717
  75  601.9949
  76  514.9695
  77  540.8601
  78  498.7144
  79  449.9268
  80  412.382
  81  556.4962
  82  648.4703
  83  497.1348
  84  495.2625
  85  558.1293
  86  473.8759
  87  443.2463
  88  387.823
  89  379.469
  90  456.9074
  91  524.6151
  92  504.4202
  93  560.1082
  94  521.2593
  95  504.9249
  96  420.8559
  97  382.5523
  98  374.9043
  99  498.9995
 100  591.4673
 101  577.0424
 102  465.5012
 103  473.6937
 104  429.1297
 105  421.9058
 106  401.077
 107  392.2034
 108  399.9158
 109  433.21
 110  568.007
 111  485.5634
 112  325.7476
 113  344.9732
 114  250.7613
 115  358.6813
 116  426.1236
 117  585.602
 118  431.013
 119  409.9214
 120  485.7002
 121  501.6613
 122  407.333
 123  365.9543
 124  426.1628
 125  372.8894
 126  340.5219
 127  397.3579
 128  506.8051
 129  552.3607
 130  451.222
 131  488.815
 132  421.3571
 133  449.1519
 134  471.4258
 135  371.7604
 136  374.3385
 137  457.0817
 138  419.6753
 139  388.5234
 140  455.458
 141  461.6414
 142  501.2004
 143  409.9776
 144  495.9741
 145  391.2679
 146  413.9428
 147  443.0727
 148  406.5092
 149  546.6763
 150  487.1273
 151  463.8097
 152  614.5387
 153  534.1434
 154  547.8273
 155  544.4107
 156  542.9039
 157  553.1351
 158  504.8669
 159  508.2961
 160  547.4664
 161  498.6152
 162  549.8942
 163  578.415
 164  441.2833
 165  536.7931
 166  529.5582
 167  483.3913
 168  479.7779
 169  555.4907
 170  593.605
 171  394.8659
 172  352.3888
 173  511.1265
 174  575.1539
 175  545.7203
 176  500.5833
 177  546.1132
 178  644.1479
 179  554.2693
 180  429.1389
 181  498.8311
 182  448.2871
 183  588.8392
 184  646.0867
 185  708.4236
 186  602.9397
 187  533.9363
 188  546.6787
 189  580.582
 190  512.8301
 191  567.2359
 192  614.1306
 193  597.4005
 194  639.6453
 195  556.2109
 196  563.9584
 197  501.9946
 198  485.8295
 199  532.3618
 200  539.5878
 201  623.5255
 202  661.7853
 203  551.3818
 204  514.8995
 205  528.7457
 206  541.1074
 207  521.4686
 208  517.5649
 209  577.3602
 210  627.4434
 211  617.0513
 212  657.4158
 213  581.46
 214  593.4859
 215  502.6551
 216  540.5669
 217  567.145
 218  486.6765
 219  527.2164
 220  642.0181
 221  670.2789
 222  573.6414
 223  513.7433
 224  577.0396
 225  636.1293
 226  534.2574
 227  474.8313
 228  374.642
 229  426.2869
 230  582.1212
 231  538.3839
 232  521.9292
 233  650.2443
 234  725.6173
 235  609.4187
 236  433.4044
 237  445.2844
 238  494.0274
 239  412.6022
 240  543.2277
 241  602.7209
 242  642.7977
 243  570.8573
 244  652.9805
 245  684.5037
 246  599.9636
 247  618.5037
 248  484.4894
 249  443.9125
 250  420.9957
 251  590.7889
 252  603.3104
 253  486.6603
 254  491.9474
 255  571.6484
 256  597.2377
 257  550.2385
 258  512.6704
 259  478.0665
 260  584.3005
 261  510.5156
 262  425.7536
 263  443.0291
 264  471.0369
 265  621.0895
 266  606.7173
 267  653.2894
 268  601.5854
 269  526.1135
 270  457.2269
 271  352.8557
 272  552.9852
 273  666.1059
 274  650.6378
 275  637.8239
 276  522.6444
 277  382.6797
 278  405.3683
 279  453.3907
 280  501.3242
 281  519.3009
 282  460.9794
 283  460.8232
 284  465.1205
 285  560.7373
 286  524.6592
 287  470.9682
 288  581.1239
 289  512.1042
 290  485.5157
 291  416.4131
 292  576.2965
 293  589.0045
 294  557.4528
 295  475.6175
 296  532.9007
 297  561.545
 298  504.6885
 299  494.8685
 300  512.871
 301  389.9713
 302  368.7028
 303  480.0555
 304  537.557
 305  404.174
 306  429.0461
 307  560.6909
 308  385.5053
 309  439.7722
 310  510.5697
 311  408.2677
 312  497.8786
 313  447.8221
 314  428.2903
 315  379.3082
 316  369.4311
 317  477.2197
 318  489.9294
 319  438.7611
 320  500.1153
 321  457.4171
 322  454.7496
 323  636.2358
 324  617.1909
 325  564.0544
 326  595.8599
 327  543.9156
 328  594.1026
 329  582.2692
 330  482.1056
 331  366.2706
 332  419.961
 333  450.3206
 334  495.6095
 335  487.2458
 336  331.6343
 337  422.5171
 338  526.6388
 339  502.3173
 340  525.7334
 341  503.3106
 342  543.2472
 343  412.084
 344  500.4586
 345  442.3481
 346  427.0906
 347  481.0012
 348  445.7823
 349  517.1419
 350  504.0186
 351  427.3961
 352  447.4464
 353  640.2098
 354  543.2233
 355  463.204
 356  475.2171
 357  419.6805
 358  448.4381
 359  480.3352
 360  501.0647
 361  542.0361
 362  499.1548
 363  531.596
 364  648.1526
 365  606.8259
 366  617.4767
 367  553.0714
 368  566.139
 369  490.105
 370  398.5358
 371  470.912
 372  534.8881
 373  506.1132
 374  473.5666
 375  479.1098
 376  535.7784
 377  640.619
 378  643.4354
 379  582.7742
 380  659.1069
 381  704.3755
 382  724.1879
 383  866.249
 384  1059.307
 385  1179.24
 386  1201.68
 387  1133.333
 388  904.6945
 389  617.0468
 390  468.2144
 391  432.0553
 392  578.4711
 393  575.2617
 394  478.8604
 395  468.6231
 396  434.8074
 397  456.0711
 398  587.3269
 399  654.0501
 400  595.266
 401  545.3901
 402  580.8208
 403  633.9509
 404  637.4125
 405  454.6423
 406  353.6589
 407  542.8414
 408  614.0602
 409  529.8527
 410  461.9188
 411  495.9016
 412  541.483
 413  544.6287
 414  525.2048
 415  451.1801
 416  427.1376
 417  511.2599
 418  488.6757
 419  445.0739
 420  449.4442
 421  383.7641
 422  447.0925
 423  466.7875
 424  428.1835
 425  392.4716
 426  412.6525
 427  577.3006
 428  585.3449
 429  427.9087
 430  474.9045
 431  505.4452
 432  464.9097
 433  521.9224
 434  525.8691
 435  409.8201
 436  448.0124
 437  478.1075
 438  505.9325
 439  467.9742
 440  391.3842
 441  475.258
 442  356.0518
 443  381.9447
 444  411.5448
 445  492.8828
 446  506.3429
 447  610.431
 448  636.9857
 449  611.8729
 450  603.1308
 451  443.8282
 452  393.4762
 453  390.3849
 454  382.7882
 455  421.9307
 456  368.1107
 457  387.3348
 458  346.7668
 459  445.2295
 460  301.6861
 461  365.1859
 462  593.9213
 463  552.9935
 464  396.5571
 465  361.3323
 466  407.9018
 467  478.5367
 468  480.1913
 469  523.0053
 470  480.7433
 471  446.9318
 472  342.9911
 473  398.8547
 474  573.4745
 475  626.4956
 476  473.9559
 477  395.4223
 478  496.2894
 479  417.3458
 480  427.0396
 481  388.4834
 482  373.6672
 483  414.9977
 484  518.8121
 485  543.5744
 486  450.025
 487  446.8253
 488  335.2425
 489  262.1519
 490  383.744
 491  443.062
 492  476.6246
 493  408.4325
 494  516.7466
 495  527.5494
 496  426.8388
 497  463.1539
 498  444.8515
 499  376.9048
 500  473.1652
 501  475.6792
 502  460.5055
 503  484.933
 504  504.2497
 505  513.6879
 506  562.1082
 507  470.0808
 508  531.3758
 509  575.6291
 510  595.3197
 511  436.4833
