# Input file       =  1211341354.116035_cleaned.dat
# Candidate        =  PSR_0332+5434
# Telescope        =  AR
# Epoch_topo       =  58264.154781435587
# Epoch_bary       =  N/A
# T_sample         =  0.002
# Data Folded      =  7208960
# Data Avg         =  0.0278895467898245
# Data StdDev      =  1.00003140075443 
# Profile Bins     =  512
# Profile Avg      =  392.668455496045 
# Profile StdDev   =  118.66290178117  
# Reduced chi-sqr  =  1.586
# Prob(Noise)      <  5.73e-16   (~8.0 sigma)
# P_topo (ms)      =  714.522638458274  +/- 0.000239
# P'_topo (s/s)    =  -0                +/- 1.29e-10
# P''_topo (s/s^2) =  0                 +/- 5.78e-14
# P_bary (ms)      =  N/A
# P'_bary (s/s)    =  N/A
# P''_bary (s/s^2) =  N/A
# P_orb (s)        =  N/A
# asin(i)/c (s)    =  N/A
# eccentricity     =  N/A
# w (rad)          =  N/A
# T_peri           =  N/A
######################################################
   0  245.2615
   1  264.3574
   2  315.6045
   3  351.8288
   4  335.6658
   5  414.9209
   6  306.7014
   7  381.7098
   8  291.113
   9  280.7229
  10  383.6254
  11  400.6316
  12  401.1044
  13  303.5844
  14  354.657
  15  224.7369
  16  159.8085
  17  359.9535
  18  332.519
  19  351.0265
  20  314.2408
  21  274.876
  22  262.6603
  23  260.0797
  24  275.9195
  25  365.0305
  26  265.4491
  27  365.9575
  28  450.1904
  29  334.803
  30  341.1843
  31  292.7198
  32  427.8916
  33  304.6396
  34  355.8203
  35  523.3195
  36  411.6131
  37  245.2798
  38  280.4746
  39  329.7381
  40  314.1931
  41  212.3365
  42  233.5096
  43  220.7214
  44  275.1951
  45  369.0236
  46  361.5409
  47  297.1055
  48  279.6451
  49  216.5264
  50  219.0828
  51  126.6039
  52  159.4428
  53  313.868
  54  353.9228
  55  368.54
  56  340.3829
  57  298.2252
  58  305.8297
  59  309.9304
  60  392.0531
  61  354.8808
  62  292.9561
  63  379.4268
  64  324.2012
  65  312.3283
  66  464.8389
  67  408.1397
  68  418.3283
  69  256.7653
  70  216.9456
  71  312.1567
  72  296.2618
  73  293.8071
  74  250.0918
  75  323.2193
  76  390.3839
  77  391.7652
  78  365.2692
  79  225.2866
  80  232.9622
  81  439.5074
  82  462.8895
  83  390.8445
  84  482.6249
  85  504.3463
  86  370.1623
  87  408.923
  88  425.0832
  89  316.5702
  90  368.6664
  91  321.325
  92  436.4421
  93  457.6714
  94  383.7441
  95  415.3574
  96  496.6772
  97  433.2593
  98  355.0576
  99  310.297
 100  392.4325
 101  435.0193
 102  384.0374
 103  542.3198
 104  688.4526
 105  508.1107
 106  524.4679
 107  438.7417
 108  437.5989
 109  527.1984
 110  454.0091
 111  312.7591
 112  311.6404
 113  221.5456
 114  349.5203
 115  440.3282
 116  290.5376
 117  373.3445
 118  524.7186
 119  482.2703
 120  556.3376
 121  477.643
 122  396.1656
 123  356.715
 124  397.7474
 125  460.307
 126  448.8916
 127  445.491
 128  387.0547
 129  358.0422
 130  484.2295
 131  494.4677
 132  414.6663
 133  438.7475
 134  333.098
 135  318.9837
 136  494.1815
 137  418.0343
 138  350.329
 139  433.3109
 140  413.9855
 141  394.2762
 142  329.1017
 143  390.9339
 144  460.8987
 145  423.2851
 146  311.2967
 147  230.1863
 148  294.8376
 149  316.8119
 150  529.5073
 151  482.8839
 152  429.8553
 153  426.5667
 154  362.2851
 155  338.7989
 156  442.4218
 157  338.1961
 158  234.5343
 159  350.4701
 160  379.7497
 161  252.1228
 162  305.2831
 163  393.7458
 164  454.563
 165  466.0031
 166  395.0938
 167  356.5105
 168  320.9544
 169  387.0963
 170  325.1622
 171  372.5343
 172  408.8983
 173  364.6567
 174  370.2625
 175  301.1809
 176  331.0299
 177  438.0866
 178  454.5766
 179  421.2826
 180  268.5675
 181  348.1495
 182  378.3419
 183  367.6593
 184  465.5812
 185  417.2326
 186  467.77
 187  413.0883
 188  440.0798
 189  298.1433
 190  255.9369
 191  256.994
 192  290.3654
 193  373.9778
 194  356.6584
 195  329.7878
 196  404.3439
 197  432.6063
 198  527.4607
 199  338.5284
 200  224.5403
 201  334.5774
 202  412.1236
 203  528.4573
 204  381.2349
 205  397.1332
 206  358.4891
 207  385.2308
 208  347.2094
 209  266.0238
 210  368.5464
 211  483.055
 212  496.3521
 213  488.1016
 214  505.6689
 215  348.3796
 216  438.9315
 217  499.1567
 218  512.3348
 219  414.8224
 220  339.2222
 221  339.1841
 222  444.0667
 223  403.0827
 224  317.2642
 225  415.8178
 226  495.7642
 227  471.0496
 228  507.3029
 229  485.9069
 230  529.9716
 231  482.9315
 232  400.8581
 233  437.3024
 234  532.5618
 235  545.9086
 236  541.3918
 237  476.9406
 238  335.6569
 239  427.8799
 240  557.7289
 241  483.6906
 242  349.1481
 243  401.0852
 244  413.8208
 245  265.1747
 246  473.4378
 247  538.5684
 248  344.4726
 249  457.9004
 250  415.4218
 251  368.4436
 252  389.3021
 253  370.2533
 254  322.8917
 255  468.6952
 256  509.5364
 257  514.2433
 258  453.3759
 259  521.2594
 260  457.9447
 261  420.9551
 262  498.5928
 263  480.8235
 264  495.5457
 265  475.8994
 266  410.2961
 267  506.1389
 268  522.7064
 269  531.6623
 270  456.3847
 271  542.4089
 272  638.924
 273  453.1576
 274  529.2538
 275  570.2667
 276  445.8818
 277  323.5179
 278  377.0571
 279  410.3802
 280  335.7809
 281  219.3798
 282  377.5485
 283  458.5167
 284  501.7995
 285  349.2252
 286  331.0287
 287  285.0349
 288  287.471
 289  388.5046
 290  370.6727
 291  466.9662
 292  390.2367
 293  376.4158
 294  373.3866
 295  397.7716
 296  399.5917
 297  410.0442
 298  438.4655
 299  498.4336
 300  439.5582
 301  387.8956
 302  390.7189
 303  370.5636
 304  319.4064
 305  404.9305
 306  366.1651
 307  292.4474
 308  439.714
 309  629.5497
 310  625.1246
 311  435.7469
 312  395.4947
 313  366.1404
 314  356.9843
 315  506.8919
 316  543.0665
 317  497.5099
 318  446.1008
 319  365.6885
 320  381.644
 321  466.235
 322  534.2227
 323  438.3264
 324  361.2078
 325  347.0141
 326  334.4361
 327  377.0571
 328  397.7061
 329  409.9162
 330  458.5158
 331  356.6519
 332  350.739
 333  288.2796
 334  251.8486
 335  221.7037
 336  245.991
 337  285.8382
 338  402.9199
 339  527.4127
 340  514.9131
 341  425.1464
 342  373.1711
 343  277.9943
 344  386.6299
 345  377.0422
 346  380.2408
 347  351.2075
 348  259.6375
 349  395.6504
 350  475.8884
 351  403.9173
 352  274.1742
 353  332.9023
 354  435.4326
 355  348.2436
 356  406.1472
 357  440.4763
 358  341.1533
 359  369.2223
 360  398.9301
 361  346.8412
 362  341.2693
 363  434.8176
 364  456.9781
 365  449.0972
 366  440.36
 367  432.2797
 368  372.592
 369  484.1793
 370  372.9984
 371  358.6562
 372  337.4533
 373  449.334
 374  491.8853
 375  494.412
 376  515.2643
 377  515.1946
 378  445.8352
 379  235.031
 380  342.799
 381  333.7888
 382  331.1934
 383  428.0454
 384  595.1969
 385  484.9508
 386  394.7057
 387  306.6708
 388  317.9753
 389  270.4569
 390  278.5892
 391  327.4958
 392  373.7672
 393  315.0721
 394  368.1604
 395  446.3429
 396  423.9818
 397  436.2076
 398  532.4086
 399  418.4065
 400  298.305
 401  365.584
 402  395.5047
 403  386.1641
 404  318.9382
 405  423.6598
 406  336.5403
 407  295.5757
 408  315.009
 409  354.6276
 410  389.5435
 411  472.2955
 412  360.8528
 413  360.3218
 414  341.74
 415  398.6646
 416  420.7988
 417  285.9377
 418  186.5801
 419  221.3386
 420  318.9912
 421  321.2455
 422  329.6393
 423  307.1145
 424  463.5275
 425  336.4933
 426  266.0746
 427  389.0858
 428  351.0602
 429  375.8734
 430  302.614
 431  429.9666
 432  433.2033
 433  293.0663
 434  256.9974
 435  241.7432
 436  335.4252
 437  405.5843
 438  233.5465
 439  249.4257
 440  431.4112
 441  488.1784
 442  396.8851
 443  389.6367
 444  427.7703
 445  404.8636
 446  352.3606
 447  226.6331
 448  404.2318
 449  474.3866
 450  381.1718
 451  273.2559
 452  227.6809
 453  394.833
 454  276.0146
 455  324.9861
 456  422.4323
 457  405.7537
 458  400.6375
 459  208.4676
 460  280.2208
 461  413.2718
 462  456.2307
 463  451.4666
 464  472.8604
 465  477.0723
 466  534.7833
 467  431.7278
 468  369.7765
 469  277.4687
 470  108.9864
 471  219.4497
 472  381.9243
 473  402.5144
 474  418.3339
 475  369.4954
 476  441.2735
 477  567.6216
 478  576.879
 479  612.4725
 480  636.583
 481  826.6518
 482  983.6253
 483  1095.759
 484  1118.826
 485  1034.923
 486  679.0524
 487  459.0268
 488  387.7422
 489  269.5706
 490  422.6079
 491  497.5397
 492  368.4594
 493  376.6382
 494  359.1878
 495  371.6829
 496  404.2063
 497  454.7973
 498  461.3044
 499  446.7297
 500  374.5098
 501  437.2884
 502  558.9672
 503  444.8092
 504  285.3979
 505  392.8477
 506  396.42
 507  480.0153
 508  440.6662
 509  401.3441
 510  227.1856
 511  245.4115
