# Input file       =  1211973974.110982_cleaned.dat
# Candidate        =  PSR_0332+5434
# Telescope        =  AR
# Epoch_topo       =  58271.476772117843
# Epoch_bary       =  N/A
# T_sample         =  0.002
# Data Folded      =  7340032
# Data Avg         =  0.0202637956010313
# Data StdDev      =  1.00010475010752 
# Profile Bins     =  512
# Profile Avg      =  290.535765922525 
# Profile StdDev   =  119.7455784252   
# Reduced chi-sqr  =  1.406
# Prob(Noise)      <  3.36e-09   (~5.8 sigma)
# P_topo (ms)      =  714.51583886545   +/- 0.000398
# P'_topo (s/s)    =  -0                +/- 2.1e-10
# P''_topo (s/s^2) =  0                 +/- 9.26e-14
# P_bary (ms)      =  N/A
# P'_bary (s/s)    =  N/A
# P''_bary (s/s^2) =  N/A
# P_orb (s)        =  N/A
# asin(i)/c (s)    =  N/A
# eccentricity     =  N/A
# w (rad)          =  N/A
# T_peri           =  N/A
######################################################
   0  949.7262
   1  906.1174
   2  688.1215
   3  376.2023
   4  431.7693
   5  431.8412
   6  211.5992
   7  259.6714
   8  310.4038
   9  309.3925
  10  269.3831
  11  189.2766
  12  351.7605
  13  394.4768
  14  313.5482
  15  247.3793
  16  218.7785
  17  260.2336
  18  289.423
  19  266.6588
  20  80.97704
  21  258.1058
  22  352.7279
  23  344.6592
  24  281.5205
  25  348.7287
  26  364.6037
  27  252.8201
  28  39.97674
  29  116.9818
  30  208.4471
  31  191.0965
  32  232.7721
  33  291.6969
  34  297.3147
  35  182.3683
  36  292.3289
  37  338.9951
  38  315.7968
  39  450.2217
  40  320.3763
  41  280.8512
  42  287.1697
  43  417.2562
  44  360.6011
  45  371.7812
  46  331.2404
  47  242.0452
  48  210.5878
  49  278.6974
  50  192.9144
  51  174.7736
  52  200.0052
  53  204.7098
  54  236.0702
  55  242.4505
  56  140.9531
  57  197.9211
  58  181.8322
  59  173.1085
  60  313.0636
  61  372.7325
  62  378.478
  63  267.7745
  64  269.2112
  65  299.176
  66  218.3921
  67  271.1985
  68  281.8706
  69  265.2012
  70  318.8308
  71  183.4148
  72  329.2526
  73  366.0422
  74  336.6209
  75  272.1222
  76  365.7339
  77  371.0178
  78  332.9311
  79  351.8764
  80  217.6591
  81  281.2108
  82  311.4934
  83  375.033
  84  384.2397
  85  242.4646
  86  235.7397
  87  221.0435
  88  202.574
  89  218.2456
  90  320.8907
  91  246.9735
  92  237.8257
  93  298.1564
  94  294.7772
  95  100.3651
  96  160.3221
  97  193.8426
  98  240.1766
  99  185.1133
 100  119.4443
 101  231.1781
 102  221.2729
 103  262.0026
 104  212.486
 105  187.7724
 106  256.0994
 107  322.9981
 108  331.3026
 109  375.2758
 110  362.5225
 111  296.0616
 112  382.844
 113  375.3502
 114  278.9695
 115  162.1502
 116  245.5932
 117  305.1965
 118  325.9965
 119  419.1349
 120  261.9474
 121  202.8126
 122  196.8086
 123  266.0519
 124  381.0292
 125  255.8556
 126  297.5482
 127  236.6377
 128  198.0868
 129  227.8849
 130  289.6936
 131  262.9423
 132  296.1376
 133  325.8191
 134  331.1825
 135  368.7441
 136  340.5596
 137  326.2891
 138  438.1393
 139  455.525
 140  352.1218
 141  395.4873
 142  339.3039
 143  397.3251
 144  306.9713
 145  242.4915
 146  347.9936
 147  319.5852
 148  341.6357
 149  359.649
 150  290.1318
 151  286.9882
 152  262.1584
 153  277.8833
 154  292.0294
 155  258.3595
 156  335.8946
 157  367.2394
 158  291.0983
 159  268.7881
 160  276.9221
 161  276.3929
 162  338.4069
 163  326.5113
 164  387.476
 165  249.61
 166  185.1418
 167  299.207
 168  248.1983
 169  371.252
 170  347.9193
 171  289.952
 172  216.7885
 173  327.5206
 174  287.227
 175  286.9259
 176  261.5524
 177  372.2112
 178  335.4622
 179  312.7248
 180  244.7463
 181  187.8382
 182  291.4119
 183  231.502
 184  146.9468
 185  270.9651
 186  345.329
 187  300.6924
 188  382.7266
 189  221.5617
 190  289.7499
 191  259.8248
 192  248.8761
 193  258.1603
 194  239.0369
 195  236.8009
 196  281.6411
 197  283.5392
 198  384.1768
 199  295.9114
 200  305.6426
 201  270.8031
 202  354.86
 203  269.6344
 204  290.0949
 205  348.2687
 206  365.0889
 207  267.2182
 208  360.0296
 209  467.7344
 210  385.3228
 211  238.0928
 212  284.7857
 213  412.8585
 214  605.2804
 215  533.8315
 216  439.8554
 217  349.358
 218  236.6761
 219  278.1549
 220  377.1343
 221  468.3258
 222  388.5672
 223  294.8757
 224  351.5163
 225  357.4139
 226  418.8423
 227  376.64
 228  328.8365
 229  250.6739
 230  219.0843
 231  134.0168
 232  215.221
 233  224.8831
 234  225.397
 235  260.523
 236  166.7882
 237  293.2508
 238  362.1561
 239  204.8259
 240  231.2736
 241  347.7327
 242  378.6651
 243  348.7004
 244  364.0662
 245  395.3401
 246  386.5653
 247  447.8648
 248  290.2752
 249  249.5038
 250  284.2686
 251  338.3463
 252  278.6598
 253  239.8798
 254  315.3955
 255  391.7071
 256  337.796
 257  360.1018
 258  344.93
 259  289.109
 260  330.4041
 261  204.5592
 262  207.3604
 263  251.6644
 264  374.3398
 265  299.5651
 266  184.7778
 267  172.8787
 268  253.6896
 269  307.1576
 270  275.0096
 271  213.9357
 272  156.238
 273  296.309
 274  398.0478
 275  295.9599
 276  340.0843
 277  310.9882
 278  346.8701
 279  346.7822
 280  243.3436
 281  388.8616
 282  404.5383
 283  396.3676
 284  378.9567
 285  233.7412
 286  300.2287
 287  304.1321
 288  226.8494
 289  212.9197
 290  293.5758
 291  287.6203
 292  223.4961
 293  318.9979
 294  494.0659
 295  335.7176
 296  287.728
 297  351.8013
 298  387.4487
 299  398.7858
 300  312.3544
 301  383.7477
 302  411.5819
 303  380.2827
 304  313.57
 305  406.944
 306  426.3826
 307  294.9922
 308  305.7397
 309  395.4776
 310  212.5835
 311  290.5483
 312  398.7333
 313  343.7747
 314  351.057
 315  338.5571
 316  351.1586
 317  338.0468
 318  416.5342
 319  432.9789
 320  398.0111
 321  276.2845
 322  240.2177
 323  258.9878
 324  310.3967
 325  294.8211
 326  319.8453
 327  266.4623
 328  82.30886
 329  129.5205
 330  335.6687
 331  323.6039
 332  270.007
 333  206.7991
 334  182.518
 335  193.2519
 336  291.9224
 337  323.2413
 338  306.088
 339  229.847
 340  270.1056
 341  361.3642
 342  450.8588
 343  247.8642
 344  243.7998
 345  244.2895
 346  263.7428
 347  221.0116
 348  233.5529
 349  277.5079
 350  295.1885
 351  362.2042
 352  239.5427
 353  182.5592
 354  216.1503
 355  256.0392
 356  136.3508
 357  122.6552
 358  124.4746
 359  99.19641
 360  132.0083
 361  128.7419
 362  145.3052
 363  198.1717
 364  276.4894
 365  185.2694
 366  205.2158
 367  247.1891
 368  231.6566
 369  258.1096
 370  295.2094
 371  363.1612
 372  325.8814
 373  122.2107
 374  180.8604
 375  254.8149
 376  264.1612
 377  235.1323
 378  147.7289
 379  304.6172
 380  207.5585
 381  136.0962
 382  128.4499
 383  245.9134
 384  191.6096
 385  265.209
 386  194.1732
 387  106.2248
 388  193.6451
 389  219.785
 390  212.8178
 391  286.3232
 392  225.9689
 393  362.8815
 394  241.9899
 395  263.9241
 396  283.718
 397  244.5637
 398  263.4858
 399  258.9846
 400  295.582
 401  395.0899
 402  248.3595
 403  189.3976
 404  275.6582
 405  293.9664
 406  264.4466
 407  293.014
 408  240.2828
 409  132.6958
 410  235.0013
 411  196.685
 412  272.0993
 413  204.7872
 414  238.3509
 415  272.5251
 416  295.2335
 417  290.7129
 418  183.8707
 419  290.8415
 420  221.4063
 421  183.834
 422  118.6574
 423  141.5635
 424  114.9624
 425  319.1975
 426  356.4148
 427  343.4547
 428  394.0161
 429  324.3174
 430  218.7618
 431  231.1339
 432  339.8404
 433  302.1221
 434  234.3725
 435  226.8318
 436  76.36977
 437  131.8293
 438  147.3425
 439  191.8671
 440  155.6157
 441  241.0031
 442  240.4996
 443  192.2324
 444  133.7089
 445  163.6315
 446  160.9235
 447  72.88809
 448  129.6743
 449  179.0839
 450  232.336
 451  318.6371
 452  220.1882
 453  197.9227
 454  217.9622
 455  258.3647
 456  337.04
 457  246.4026
 458  300.1072
 459  442.5034
 460  276.1058
 461  256.4461
 462  279.5562
 463  278.0346
 464  329.8465
 465  320.4165
 466  220.9783
 467  139.0089
 468  174.3869
 469  160.4272
 470  292.2557
 471  250.7171
 472  340.795
 473  244.2699
 474  229.1687
 475  368.2497
 476  320.5988
 477  359.4414
 478  293.2689
 479  309.5899
 480  342.0738
 481  480.644
 482  298.2812
 483  209.9261
 484  349.8391
 485  215.9634
 486  196.4338
 487  230.8843
 488  285.2093
 489  325.8015
 490  478.4052
 491  352.5277
 492  347.0359
 493  375.4668
 494  362.3414
 495  305.3401
 496  448.6255
 497  368.8874
 498  346.1517
 499  383.1759
 500  367.9766
 501  336.707
 502  393.5366
 503  291.2471
 504  364.9216
 505  332.8394
 506  387.2402
 507  571.201
 508  568.8398
 509  671.2163
 510  821.7499
 511  1003.878
