# Input file       =  1211700586.108932_cleaned.dat
# Candidate        =  PSR_0332+5434
# Telescope        =  AR
# Epoch_topo       =  58268.312559131155
# Epoch_bary       =  N/A
# T_sample         =  0.002
# Data Folded      =  7340032
# Data Avg         =  0.024323866615007
# Data StdDev      =  1.00000011955831 
# Profile Bins     =  512
# Profile Avg      =  348.761380207244 
# Profile StdDev   =  119.733050691845 
# Reduced chi-sqr  =  0.988
# Prob(Noise)      <  0.57   (~0.0 sigma)
# P_topo (ms)      =  714.518585837273  +/- 0.000199
# P'_topo (s/s)    =  -0                +/- 1.05e-10
# P''_topo (s/s^2) =  0                 +/- 4.63e-14
# P_bary (ms)      =  N/A
# P'_bary (s/s)    =  N/A
# P''_bary (s/s^2) =  N/A
# P_orb (s)        =  N/A
# asin(i)/c (s)    =  N/A
# eccentricity     =  N/A
# w (rad)          =  N/A
# T_peri           =  N/A
######################################################
   0  946.5147
   1  717.6086
   2  513.6238
   3  390.411
   4  392.2758
   5  305.3488
   6  271.9924
   7  404.2547
   8  404.9526
   9  379.1167
  10  323.3331
  11  270.4532
  12  241.2224
  13  332.4543
  14  339.3088
  15  300.6674
  16  379.9266
  17  407.0961
  18  372.0653
  19  350.3699
  20  361.5742
  21  357.4649
  22  361.9444
  23  441.1882
  24  341.5924
  25  404.9135
  26  356.6115
  27  299.2186
  28  365.9237
  29  304.6996
  30  424.6794
  31  352.9248
  32  347.8166
  33  390.8781
  34  362.109
  35  269.1617
  36  376.148
  37  410.1971
  38  413.0485
  39  272.4908
  40  324.2035
  41  392.5211
  42  363.1622
  43  277.9969
  44  333.4738
  45  380.877
  46  306.0942
  47  237.9755
  48  267.3835
  49  305.6842
  50  243.969
  51  208.1032
  52  283.0037
  53  244.8172
  54  158.681
  55  322.8352
  56  380.6606
  57  222.1669
  58  214.3075
  59  247.4561
  60  275.1479
  61  231.5732
  62  229.402
  63  302.1364
  64  202.9702
  65  199.0701
  66  306.2145
  67  380.5121
  68  281.9634
  69  253.2906
  70  287.3683
  71  300.217
  72  253.6261
  73  371.5929
  74  279.1965
  75  231.158
  76  211.2999
  77  255.3815
  78  334.3777
  79  286.4661
  80  274.3719
  81  322.8366
  82  387.555
  83  421.2266
  84  364.6346
  85  262.3114
  86  175.3854
  87  269.1419
  88  275.3735
  89  246.4029
  90  227.5401
  91  238.3302
  92  273.6548
  93  257.4966
  94  360.975
  95  259.8582
  96  285.1815
  97  348.4066
  98  400.8322
  99  354.8696
 100  338.1953
 101  315.5159
 102  196.3871
 103  224.1403
 104  246.2921
 105  252.5634
 106  303.8163
 107  313.2034
 108  382.1225
 109  398.557
 110  461.5632
 111  422.3247
 112  387.1151
 113  305.0413
 114  359.5777
 115  342.3684
 116  320.0112
 117  421.1596
 118  413.8318
 119  385.0999
 120  309.8243
 121  260.7664
 122  285.7663
 123  265.0163
 124  237.0223
 125  258.489
 126  274.5899
 127  258.9086
 128  486.0153
 129  399.0238
 130  361.5623
 131  265.7301
 132  322.1891
 133  463.763
 134  429.5741
 135  356.0215
 136  391.1575
 137  388.6797
 138  498.3971
 139  389.3363
 140  412.9622
 141  422.1211
 142  330.0366
 143  360.5921
 144  440.1571
 145  360.2615
 146  397.0579
 147  554.3278
 148  518.0235
 149  294.3412
 150  326.4719
 151  378.7062
 152  364.452
 153  485.2844
 154  500.8366
 155  402.6375
 156  295.2351
 157  316.4642
 158  333.2339
 159  391.75
 160  411.8634
 161  456.9882
 162  421.3036
 163  334.8127
 164  435.144
 165  372.9478
 166  353.6694
 167  403.2792
 168  408.3734
 169  321.3701
 170  331.4206
 171  428.7859
 172  507.2638
 173  496.0985
 174  476.4888
 175  408.9722
 176  376.5629
 177  406.4251
 178  321.8134
 179  427.7506
 180  439.0233
 181  356.8316
 182  353.0215
 183  355.1599
 184  319.6075
 185  320.3327
 186  337.6573
 187  352.358
 188  325.3264
 189  230.8156
 190  209.8651
 191  259.4145
 192  392.5107
 193  424.5291
 194  380.6094
 195  410.5022
 196  418.6939
 197  400.1513
 198  307.3036
 199  287.8047
 200  239.5892
 201  274.2087
 202  330.7932
 203  424.8289
 204  422.1368
 205  344.8396
 206  361.051
 207  349.081
 208  318.2066
 209  444.6064
 210  458.9925
 211  334.2028
 212  183.0779
 213  264.4921
 214  415.07
 215  353.3877
 216  315.6161
 217  381.7394
 218  296.3653
 219  294.9995
 220  454.9218
 221  457.3848
 222  382.2174
 223  372.9635
 224  350.5911
 225  320.3994
 226  275.4066
 227  317.9959
 228  360.0757
 229  474.0537
 230  410.3787
 231  274.2933
 232  320.4603
 233  277.9218
 234  257.8645
 235  321.8301
 236  347.474
 237  272.6915
 238  400.196
 239  446.0092
 240  262.6385
 241  257.9112
 242  295.9026
 243  330.597
 244  250.5171
 245  312.9584
 246  345.5901
 247  331.4572
 248  227.3615
 249  254.7182
 250  329.689
 251  332.5157
 252  266.4932
 253  413.6157
 254  432.3363
 255  256.5738
 256  219.3087
 257  345.9882
 258  334.3371
 259  262.6418
 260  361.8284
 261  404.5111
 262  383.8769
 263  393.3378
 264  344.2214
 265  372.1025
 266  369.0477
 267  374.2568
 268  306.4139
 269  234.3425
 270  236.4301
 271  308.6153
 272  256.9206
 273  161.4186
 274  136.5206
 275  221.1734
 276  261.3925
 277  180.5206
 278  211.4769
 279  420.8404
 280  395.9723
 281  266.6252
 282  251.8161
 283  385.0002
 284  299.8176
 285  337.7048
 286  386.2444
 287  389.4798
 288  335.1323
 289  440.8415
 290  357.13
 291  279.9154
 292  278.0069
 293  366.4501
 294  371.3661
 295  375.5642
 296  369.3819
 297  360.1297
 298  335.0906
 299  269.2883
 300  242.496
 301  327.3977
 302  287.2277
 303  308.5341
 304  321.7679
 305  365.1693
 306  314.4744
 307  324.0906
 308  366.4007
 309  365.2037
 310  389.2305
 311  403.6144
 312  381.2959
 313  490.017
 314  390.9085
 315  310.8198
 316  241.3547
 317  274.5663
 318  304.1857
 319  405.2444
 320  389.7556
 321  368.971
 322  395.0641
 323  399.313
 324  447.3582
 325  352.2518
 326  328.6825
 327  306.6625
 328  361.7996
 329  451.3805
 330  490.9481
 331  478.5428
 332  425.1559
 333  387.4719
 334  334.0899
 335  324.2249
 336  302.4513
 337  303.2627
 338  203.7874
 339  307.9919
 340  363.1797
 341  280.6172
 342  143.3646
 343  202.9479
 344  357.0669
 345  321.4076
 346  316.569
 347  321.305
 348  382.8753
 349  303.3584
 350  268.2015
 351  266.9969
 352  312.9595
 353  314.2478
 354  340.717
 355  279.8864
 356  271.7206
 357  339.977
 358  265.6324
 359  321.8319
 360  299.4171
 361  346.2718
 362  321.8891
 363  241.6402
 364  252.9906
 365  291.4787
 366  353.8221
 367  346.3673
 368  333.8026
 369  435.9716
 370  508.1349
 371  314.9796
 372  326.3166
 373  295.4253
 374  348.6659
 375  380.8053
 376  438.6491
 377  525.7761
 378  430.697
 379  325.5907
 380  345.4313
 381  434.2417
 382  283.8894
 383  345.2948
 384  322.678
 385  394.7944
 386  339.6176
 387  412.3769
 388  411.9057
 389  307.5346
 390  359.9377
 391  410.981
 392  407.0123
 393  358.4177
 394  268.9727
 395  357.4156
 396  394.41
 397  281.633
 398  352.5079
 399  284.6018
 400  371.488
 401  369.0699
 402  390.1229
 403  368.4193
 404  358.8714
 405  402.7602
 406  472.0423
 407  393.3112
 408  422.6589
 409  304.9323
 410  358.8846
 411  472.9318
 412  310.3683
 413  314.4655
 414  298.7422
 415  329.9421
 416  401.235
 417  418.6234
 418  301.7499
 419  350.938
 420  297.7882
 421  334.9776
 422  308.0583
 423  240.9018
 424  215.5811
 425  293.0197
 426  356.66
 427  325.957
 428  427.6546
 429  344.9833
 430  387.5212
 431  456.9678
 432  269.9629
 433  331.7572
 434  290.6372
 435  404.5493
 436  376.4372
 437  356.4831
 438  364.1742
 439  305.5572
 440  347.5921
 441  363.4865
 442  346.9843
 443  328.8179
 444  295.5816
 445  425.3362
 446  397.5526
 447  446.1083
 448  317.3094
 449  380.462
 450  426.3373
 451  418.377
 452  418.7323
 453  420.6922
 454  486.7934
 455  370.7654
 456  351.2989
 457  546.7252
 458  498.0139
 459  349.285
 460  448.2476
 461  498.9496
 462  493.0215
 463  384.0317
 464  258.1814
 465  218.7355
 466  284.1079
 467  340.7465
 468  368.9939
 469  438.1889
 470  447.1976
 471  380.0161
 472  403.2437
 473  422.6413
 474  512.3282
 475  494.8065
 476  514.2029
 477  466.6637
 478  319.7562
 479  317.1575
 480  278.0384
 481  367.8687
 482  371.0764
 483  322.1346
 484  398.3262
 485  389.9879
 486  241.92
 487  214.1917
 488  354.811
 489  305.6121
 490  279.5882
 491  424.9629
 492  421.1406
 493  464.7986
 494  435.588
 495  325.4498
 496  301.0105
 497  327.0872
 498  356.136
 499  355.4049
 500  420.6677
 501  378.7809
 502  388.4767
 503  270.3621
 504  253.3475
 505  301.4339
 506  367.7716
 507  403.6637
 508  406.8743
 509  512.7585
 510  754.0297
 511  1016.9
