# Input file       =  1211528298.098192_cleaned.dat
# Candidate        =  PSR_0332+5434
# Telescope        =  AR
# Epoch_topo       =  58266.318484932781
# Epoch_bary       =  N/A
# T_sample         =  0.002
# Data Folded      =  7340032
# Data Avg         =  0.190917391087818
# Data StdDev      =  4.24363314184896 
# Profile Bins     =  256
# Profile Avg      =  5475.01849172585 
# Profile StdDev   =  718.566268718339 
# Reduced chi-sqr  =  1.003
# Prob(Noise)      <  0.477   (~0.1 sigma)
# P_topo (ms)      =  714.520534385403  +/- 0.000463
# P'_topo (s/s)    =  -0                +/- 2.44e-10
# P''_topo (s/s^2) =  0                 +/- 1.08e-13
# P_bary (ms)      =  N/A
# P'_bary (s/s)    =  N/A
# P''_bary (s/s^2) =  N/A
# P_orb (s)        =  N/A
# asin(i)/c (s)    =  N/A
# eccentricity     =  N/A
# w (rad)          =  N/A
# T_peri           =  N/A
######################################################
   0  5005.285
   1  5068.745
   2  5442.507
   3  5531.549
   4  5226.859
   5  5568.724
   6  5761.448
   7  5667.933
   8  5828.632
   9  5632.317
  10  5158.632
  11  5437.707
  12  5808.586
  13  6382.157
  14  6204.548
  15  6619.252
  16  6199.141
  17  6027.745
  18  6149.732
  19  5841.488
  20  5927.828
  21  6017.375
  22  5783.375
  23  5905.821
  24  5981.875
  25  6055.345
  26  6414.907
  27  5444.763
  28  6381.077
  29  5816.344
  30  5218.507
  31  5070.632
  32  6538.688
  33  6183.554
  34  5932.156
  35  6144.044
  36  5739.498
  37  5614.448
  38  5878.557
  39  5566.616
  40  5262.865
  41  4928.052
  42  4795.811
  43  5070.443
  44  4360.81
  45  4347.634
  46  4981.527
  47  4827.033
  48  5202.081
  49  5107.134
  50  5543.354
  51  5921.056
  52  6249.875
  53  6141.878
  54  6322.021
  55  5958.854
  56  6038.941
  57  6689.975
  58  5947.162
  59  5701.122
  60  5917.488
  61  6080.4
  62  5798.363
  63  6906.941
  64  5964.907
  65  5525.142
  66  4159.914
  67  5789.491
  68  5335.639
  69  6230.559
  70  6480.691
  71  5658.661
  72  5211.273
  73  6177.335
  74  6096.168
  75  6275.066
  76  6248.459
  77  6628.876
  78  6039.888
  79  5889.578
  80  5831.771
  81  5788.134
  82  5358.457
  83  5026.803
  84  5596.348
  85  5112.25
  86  4754.921
  87  4674.7
  88  5339.2
  89  5212.123
  90  5255.67
  91  4279.004
  92  4905.529
  93  4997.641
  94  5515.69
  95  5080.639
  96  5398.557
  97  5528.487
  98  5888.399
  99  5619.941
 100  5747.314
 101  5720.341
 102  6019.208
 103  5428.583
 104  5528.223
 105  6334.089
 106  6798.935
 107  5967.903
 108  5824.235
 109  5351.275
 110  5953.122
 111  5699.791
 112  5302.672
 113  5289.842
 114  6417.086
 115  5346.715
 116  5592.474
 117  5444.239
 118  5030.625
 119  5064.48
 120  5466.761
 121  4717.7
 122  5091.44
 123  5173.585
 124  5391.565
 125  5221.607
 126  5426.227
 127  5471.741
 128  5555.805
 129  5330.819
 130  4944.646
 131  5161.942
 132  6290.747
 133  5336.038
 134  4339.563
 135  4718.22
 136  4883.12
 137  5357.296
 138  5001.42
 139  5078.41
 140  5955.457
 141  5424.996
 142  5637.983
 143  4869.085
 144  5778.994
 145  6131.69
 146  5938.309
 147  6223.731
 148  6948.104
 149  8564.33
 150  7003.862
 151  5156.857
 152  5054.581
 153  4330.959
 154  4523.722
 155  4863.255
 156  5863.542
 157  5440.705
 158  5118.571
 159  5168.309
 160  5447.692
 161  4641.75
 162  4680.262
 163  4565.788
 164  4564.677
 165  5281.937
 166  5919.848
 167  5901.799
 168  5550.452
 169  5375.932
 170  5888.11
 171  4738.695
 172  4704.28
 173  4940.8
 174  5377.137
 175  5472.712
 176  5045.535
 177  5007.829
 178  4593.478
 179  4699.479
 180  5232.827
 181  5181.684
 182  4959.732
 183  5542.384
 184  5539.586
 185  5722.492
 186  5737.389
 187  4981.568
 188  5945.056
 189  5439.65
 190  4926.547
 191  4820.36
 192  4785.383
 193  5128.794
 194  5417.536
 195  4833.221
 196  4423.025
 197  5096.689
 198  5105.653
 199  5070.572
 200  4519.812
 201  5059.61
 202  4709.285
 203  3804.038
 204  4137.002
 205  4863.975
 206  5390.777
 207  5533.471
 208  4907.164
 209  5230.946
 210  5515.159
 211  5551.859
 212  4753.271
 213  5033.463
 214  5112.83
 215  5295.361
 216  5363.489
 217  4500.091
 218  4601.673
 219  4698.155
 220  4439.083
 221  4860.326
 222  4920.125
 223  5541.301
 224  5644.519
 225  5541.223
 226  5979.511
 227  6000.444
 228  6518.58
 229  6801.23
 230  6276.468
 231  6781.518
 232  6790.309
 233  5708.523
 234  5978.088
 235  6659.992
 236  6470.743
 237  5812.691
 238  5675.623
 239  4973.197
 240  5275.586
 241  4812.329
 242  4837.643
 243  5031.449
 244  5026.126
 245  5354.014
 246  5404.54
 247  5181.96
 248  5649.634
 249  5316.447
 250  4810.483
 251  5338.225
 252  5379.629
 253  4670.685
 254  5206.877
 255  5093.868
