# Input file       =  1211255245.100422_cleaned.dat
# Candidate        =  PSR_0332+5434
# Telescope        =  AR
# Epoch_topo       =  58263.158149310439
# Epoch_bary       =  N/A
# T_sample         =  0.002
# Data Folded      =  7143424
# Data Avg         =  0.262042721085155
# Data StdDev      =  7.11583550706083 
# Profile Bins     =  512
# Profile Avg      =  3654.71526729659 
# Profile StdDev   =  840.512417499835 
# Reduced chi-sqr  =  0.925
# Prob(Noise)      <  0.886   (~0.0 sigma)
# P_topo (ms)      =  714.523614123343  +/- 6.02e-05
# P'_topo (s/s)    =  -0                +/- 3.27e-11
# P''_topo (s/s^2) =  0                 +/- 1.48e-14
# P_bary (ms)      =  N/A
# P'_bary (s/s)    =  N/A
# P''_bary (s/s^2) =  N/A
# P_orb (s)        =  N/A
# asin(i)/c (s)    =  N/A
# eccentricity     =  N/A
# w (rad)          =  N/A
# T_peri           =  N/A
######################################################
   0  3533.619
   1  3831.745
   2  3758.568
   3  3686.051
   4  3278.646
   5  3608.677
   6  3825.686
   7  3326.867
   8  3952.014
   9  3743.436
  10  3827.771
  11  3806.578
  12  3347.594
  13  3282.485
  14  3132.435
  15  3585.971
  16  3650.263
  17  3353.613
  18  3436.11
  19  3210.378
  20  3130.505
  21  2858.287
  22  2890.961
  23  3729.33
  24  4194.457
  25  4586.318
  26  4198.586
  27  4240.583
  28  3380.927
  29  3257.083
  30  3160.213
  31  2613.216
  32  2577.041
  33  2254.446
  34  2244.198
  35  3765.494
  36  4045.24
  37  3278.775
  38  2642.859
  39  2656.832
  40  2918.132
  41  4075.029
  42  4318.229
  43  3965.084
  44  3393.917
  45  2981.13
  46  3807.1
  47  3998.19
  48  3838.478
  49  3468.531
  50  3869.192
  51  4298.351
  52  3663.899
  53  3290.702
  54  3640.956
  55  3641.737
  56  2997.877
  57  3530.422
  58  4489.691
  59  4654.499
  60  4072.529
  61  3859.016
  62  3957.509
  63  3902.824
  64  3677.387
  65  3682.106
  66  3659.777
  67  3997.53
  68  3564.788
  69  3144.509
  70  3512.54
  71  3191.838
  72  3566.068
  73  3512.261
  74  3165.837
  75  4057.27
  76  4496.582
  77  4125.953
  78  4248.287
  79  3102.511
  80  3150.947
  81  3237.089
  82  4135.069
  83  4135.617
  84  3940.223
  85  3457.112
  86  2790.928
  87  3026.971
  88  3293.794
  89  3288.933
  90  3171.389
  91  3630.035
  92  3397.925
  93  3766.486
  94  2979.831
  95  2418.365
  96  2803.184
  97  2373.646
  98  2407.995
  99  3002.88
 100  3427.699
 101  3497.609
 102  2866.963
 103  2767.058
 104  2446.312
 105  2675.052
 106  2622.063
 107  2887.914
 108  2877.424
 109  2360.078
 110  2967.583
 111  3075.275
 112  3725.26
 113  3621.36
 114  3273.198
 115  2817.81
 116  2512.592
 117  2315.483
 118  2839.307
 119  3130.307
 120  3230.078
 121  4125.564
 122  3362.439
 123  2807.391
 124  3323.542
 125  4063.641
 126  3710.039
 127  4232.073
 128  3757.415
 129  3306.169
 130  2960.003
 131  2757.765
 132  3137.947
 133  3728.027
 134  3412.802
 135  3454.477
 136  3392.77
 137  3634.99
 138  3390.597
 139  2959.48
 140  3421.51
 141  4616.625
 142  4590.271
 143  3408.532
 144  3581.827
 145  3847.04
 146  3432.18
 147  3622.959
 148  3416.094
 149  3490.83
 150  4863.245
 151  4018.341
 152  3402.416
 153  2899.104
 154  2923.22
 155  3412.438
 156  3690.799
 157  4657.174
 158  4322.199
 159  4221.726
 160  3618.196
 161  4224.575
 162  3710.355
 163  3884.802
 164  3660.268
 165  3489.232
 166  3400.004
 167  4206.469
 168  3910.819
 169  4183.456
 170  4799.911
 171  4430.331
 172  4734.392
 173  5279.333
 174  5370.722
 175  4554.319
 176  4789.799
 177  4069.908
 178  4841.327
 179  4970.861
 180  3760.194
 181  3296.087
 182  3920.523
 183  4404.714
 184  3717.422
 185  3633.632
 186  4063.719
 187  3505.198
 188  3506.602
 189  3913.281
 190  4454.884
 191  4585.666
 192  4457.773
 193  4088.191
 194  3883.697
 195  4634.067
 196  3766.146
 197  3831.46
 198  3482.135
 199  3240.369
 200  3358.022
 201  3664.115
 202  3464.443
 203  3500.328
 204  3467.011
 205  2955.295
 206  3809.123
 207  5051.722
 208  4669.653
 209  4735.862
 210  4028.071
 211  3696.35
 212  4242.323
 213  3454.896
 214  3993.383
 215  4570.972
 216  4375
 217  4191.829
 218  4507.447
 219  3568.702
 220  2931.077
 221  3122.705
 222  3069.058
 223  3512.656
 224  3809.264
 225  3558.88
 226  3365.482
 227  3473.458
 228  3840.829
 229  3391.682
 230  3426.126
 231  3989.845
 232  4552.804
 233  4692.376
 234  4031.187
 235  2907.646
 236  2998.537
 237  3662.313
 238  3591.674
 239  4795.73
 240  4875.33
 241  3667.075
 242  3907.045
 243  3133.342
 244  3856.561
 245  3850.722
 246  3905.349
 247  3089.899
 248  3904.697
 249  3847.828
 250  4040.154
 251  4100.622
 252  3748.323
 253  3562.856
 254  3146.316
 255  3733.946
 256  4672.769
 257  4903.723
 258  5328.628
 259  3972.48
 260  2897.724
 261  3246.597
 262  3177.268
 263  3204.394
 264  3924.916
 265  3669.74
 266  3444.354
 267  3686.094
 268  3080.667
 269  3379.525
 270  3346.091
 271  2692.037
 272  2974.513
 273  4160.813
 274  4250.561
 275  4357.942
 276  3829.25
 277  3763.826
 278  4018.616
 279  3346.847
 280  3449.582
 281  3769.089
 282  4096.159
 283  3902.174
 284  3731.357
 285  2925.189
 286  3295.721
 287  3195.809
 288  3823.782
 289  3690.035
 290  4093.42
 291  4472.166
 292  3898.589
 293  3612.015
 294  3298.669
 295  3280.304
 296  3249.229
 297  4570.14
 298  5656.632
 299  5966.228
 300  5254.677
 301  4629.001
 302  3758.192
 303  3571.586
 304  3910.035
 305  5390.968
 306  5039.344
 307  4002.192
 308  3366.299
 309  4104.627
 310  4384.627
 311  4481.57
 312  4117.628
 313  3048.214
 314  3541.867
 315  3904.88
 316  3866.126
 317  3668.521
 318  3434.888
 319  3076.435
 320  2915.298
 321  3279.859
 322  4000.066
 323  4609.934
 324  5274.385
 325  5057.912
 326  4471.85
 327  4164.043
 328  3854.374
 329  3906.266
 330  4456.768
 331  4236.041
 332  3914.064
 333  3315.269
 334  3418.085
 335  3582.361
 336  3728.824
 337  3043.775
 338  3527.858
 339  3902.221
 340  4113.64
 341  3610.451
 342  3406.458
 343  3607.678
 344  3293.366
 345  3445.49
 346  3100.326
 347  3617.688
 348  3721.072
 349  4041.933
 350  3229.214
 351  3586.177
 352  3657.271
 353  3851.166
 354  3760.256
 355  3754.055
 356  4063.037
 357  3871.05
 358  3658.014
 359  3589.277
 360  3623.073
 361  3123.271
 362  2850.908
 363  3374.763
 364  3598.38
 365  3907.102
 366  3778.921
 367  2909.633
 368  2508.075
 369  3294.154
 370  3823.873
 371  3659.708
 372  4505.898
 373  3883.915
 374  3159.19
 375  2871.815
 376  3504.789
 377  3597.068
 378  3838.365
 379  3216.863
 380  3143.842
 381  3276.52
 382  3808.948
 383  3541.613
 384  3516.748
 385  3251.96
 386  2839.316
 387  3161.531
 388  3853.298
 389  4711.935
 390  4054.863
 391  2926.052
 392  2708.694
 393  2981.564
 394  3746.134
 395  3674.114
 396  3651.015
 397  4179.39
 398  3709.967
 399  3297.195
 400  3285.219
 401  3799.956
 402  3977.744
 403  3584.629
 404  3416.395
 405  4253.299
 406  4197.576
 407  4164.512
 408  3920.226
 409  3204.43
 410  3261.439
 411  2684.435
 412  3444.245
 413  4078.606
 414  4381.525
 415  3992.957
 416  3148.176
 417  3003.259
 418  3629.061
 419  4110.578
 420  4022.915
 421  4467.828
 422  4004.654
 423  4076.833
 424  4616.428
 425  4705.637
 426  4329.498
 427  3770.49
 428  2810.793
 429  3364.529
 430  4352.441
 431  4796.637
 432  4109.554
 433  3761.161
 434  3063.378
 435  3173.628
 436  3718.723
 437  3740.658
 438  4543.104
 439  4351.114
 440  3492.401
 441  3121.955
 442  4016.054
 443  4635.166
 444  4476.804
 445  3902.316
 446  3550.538
 447  3522.399
 448  3497.745
 449  3629.913
 450  3537.73
 451  3282.955
 452  2718.538
 453  2675.155
 454  3658.075
 455  4317.124
 456  4156.27
 457  3267.598
 458  3466.965
 459  3421.847
 460  2892.473
 461  3229.944
 462  3469.959
 463  3212.221
 464  3743.154
 465  3294.574
 466  2787.005
 467  2503.807
 468  2519.514
 469  2541.452
 470  2993.887
 471  3175.198
 472  3903.894
 473  3799.123
 474  3758.109
 475  3420.656
 476  3158.864
 477  2867.97
 478  2878.584
 479  3405.334
 480  3766.269
 481  3874.327
 482  2911.348
 483  3114.414
 484  3367.637
 485  3385.633
 486  3594.98
 487  3931.176
 488  3812.983
 489  3439.709
 490  2991.819
 491  3638.41
 492  3770.764
 493  3361.64
 494  2868.301
 495  2773.317
 496  3417.556
 497  3664.428
 498  3678.902
 499  3500.23
 500  3736.421
 501  2902.794
 502  3212.153
 503  3665.469
 504  4058.008
 505  4502.443
 506  3911.789
 507  3496.544
 508  3971.873
 509  3899.433
 510  3254.161
 511  3363.653
