# Input file       =  1211715512.106801_cleaned.dat
# Candidate        =  PSR_0332+5434
# Telescope        =  AR
# Epoch_topo       =  58268.485313736121
# Epoch_bary       =  N/A
# T_sample         =  0.002
# Data Folded      =  7340032
# Data Avg         =  0.0603183667803283
# Data StdDev      =  2.90746318778432 
# Profile Bins     =  256
# Profile Avg      =  1729.4658510643  
# Profile StdDev   =  492.315170620953 
# Reduced chi-sqr  =  1.305
# Prob(Noise)      <  0.00076   (~3.2 sigma)
# P_topo (ms)      =  714.518752439912  +/- 0.00037
# P'_topo (s/s)    =  -0                +/- 1.95e-10
# P''_topo (s/s^2) =  0                 +/- 8.62e-14
# P_bary (ms)      =  N/A
# P'_bary (s/s)    =  N/A
# P''_bary (s/s^2) =  N/A
# P_orb (s)        =  N/A
# asin(i)/c (s)    =  N/A
# eccentricity     =  N/A
# w (rad)          =  N/A
# T_peri           =  N/A
######################################################
   0  1408.838
   1  1690.036
   2  1931.007
   3  1510.687
   4  1395.153
   5  1493.262
   6  1937.08
   7  1361.329
   8  2373.583
   9  1648.731
  10  1612.074
  11  1961.789
  12  1416.699
  13  1721.1
  14  1678.099
  15  1303.231
  16  1145.644
  17  949.4481
  18  1836.124
  19  2703.68
  20  2491.378
  21  1758.228
  22  1720.497
  23  2258.355
  24  2397.346
  25  2045.628
  26  2022.594
  27  2481.079
  28  1796.367
  29  2378.989
  30  2404.768
  31  2014.277
  32  1622.293
  33  2193.892
  34  2025.074
  35  1758.728
  36  2113.926
  37  1889.858
  38  1219.327
  39  1448.053
  40  1102.54
  41  1362.878
  42  1572.386
  43  969.4482
  44  1250.291
  45  1544.658
  46  2095.261
  47  1346.677
  48  1568.401
  49  1948.638
  50  1226.152
  51  1395.934
  52  1130.286
  53  1685.21
  54  1935.208
  55  1492.914
  56  1678.808
  57  1847.111
  58  1597.953
  59  1329.608
  60  1969.588
  61  2088.416
  62  2097.907
  63  1747.18
  64  2040.199
  65  1305.734
  66  1191.391
  67  1327.708
  68  1693.964
  69  1907.455
  70  2349.012
  71  1700.976
  72  1531.557
  73  1689.633
  74  2289.093
  75  2070.718
  76  1936.34
  77  2033.797
  78  1968.39
  79  1376.689
  80  1320.643
  81  1674.095
  82  1874.518
  83  1861.838
  84  1769.241
  85  1684.447
  86  1663.91
  87  1923.074
  88  1256.967
  89  2554.876
  90  2318.089
  91  1238.914
  92  1194.757
  93  1761.577
  94  1595.828
  95  1338.327
  96  1799.731
  97  1234.893
  98  1928.563
  99  2122.804
 100  2056.918
 101  2336.988
 102  1975.889
 103  2210.735
 104  1611.527
 105  2066.194
 106  2085.573
 107  2329.434
 108  1983.723
 109  1933.599
 110  1571.544
 111  2271.362
 112  2038.437
 113  1639.675
 114  2084.409
 115  2369.147
 116  2335.045
 117  2046.532
 118  2167.413
 119  1905.99
 120  2191.224
 121  1506.512
 122  1555.947
 123  2170.557
 124  2058.837
 125  1163.726
 126  2423.76
 127  2005.802
 128  1648.569
 129  1893.427
 130  1509.934
 131  2245.707
 132  1657.048
 133  1858.871
 134  1793.25
 135  1652.064
 136  1574.929
 137  1840.405
 138  1750.72
 139  2002.451
 140  1951.481
 141  2015.246
 142  1943.277
 143  969.7115
 144  1618.161
 145  1192.944
 146  1299.681
 147  2763.048
 148  3452.935
 149  4502.044
 150  4626.673
 151  2967.547
 152  1421.077
 153  1530.747
 154  1652.523
 155  1526.65
 156  930.2828
 157  1478.48
 158  1036.856
 159  1581.685
 160  1143.584
 161  1599.293
 162  1879.482
 163  1620.722
 164  1084.988
 165  1507.867
 166  1463.614
 167  1440.841
 168  1643.932
 169  739.6939
 170  1120.608
 171  1387.737
 172  1770.962
 173  1958.935
 174  1261.182
 175  1384.94
 176  1651.883
 177  1443.917
 178  2069.21
 179  2860.851
 180  2385.007
 181  2248.413
 182  2161.837
 183  1751.855
 184  1806.718
 185  1751.315
 186  992.7285
 187  2245.861
 188  1661.994
 189  1322.405
 190  2034.329
 191  1999.818
 192  1001.579
 193  1658.084
 194  1379.645
 195  1969.282
 196  1357.134
 197  1059.335
 198  1190.641
 199  1359.238
 200  1248.346
 201  1247.134
 202  1099.839
 203  1282.522
 204  1367.659
 205  1393.587
 206  1178.691
 207  1110.499
 208  1486.81
 209  1819.202
 210  985.3514
 211  1197.952
 212  1436.556
 213  1769.708
 214  1908.012
 215  1378.725
 216  1834.738
 217  2157.111
 218  1807.848
 219  1784.531
 220  1686.464
 221  2276.599
 222  1749.494
 223  1739.1
 224  1237.59
 225  1887.787
 226  1789.505
 227  1437.781
 228  2084.791
 229  1826.517
 230  1222.789
 231  894.0938
 232  1211.179
 233  1549.453
 234  1963.559
 235  1536.098
 236  1971.67
 237  1022.969
 238  2226.472
 239  1979.178
 240  1414.588
 241  1631.777
 242  1384.513
 243  1660.377
 244  1742.289
 245  1949.116
 246  1647.587
 247  1899.273
 248  1839.73
 249  1091.957
 250  1174.83
 251  1269.791
 252  1288.867
 253  1109.677
 254  1136.853
 255  1726.282
