# Input file       =  1211269825.111266-PSRB0329-2ms-sampling-dd.dat
# Candidate        =  PSR_0332+5434
# Telescope        =  AR
# Epoch_topo       =  58263.326899435946
# Epoch_bary       =  N/A
# T_sample         =  0.002
# Data Folded      =  7340032
# Data Avg         =  3.43182970905828e-10
# Data StdDev      =  9.98438016590001 
# Profile Bins     =  512
# Profile Avg      =  0.242772242645343
# Profile StdDev   =  1195.46015360317 
# Reduced chi-sqr  =  0.764
# Prob(Noise)      <  1   (~0.0 sigma)
# P_topo (ms)      =  714.523462645219  +/- 9.88e-05
# P'_topo (s/s)    =  -0                +/- 5.21e-11
# P''_topo (s/s^2) =  0                 +/- 2.3e-14
# P_bary (ms)      =  N/A
# P'_bary (s/s)    =  N/A
# P''_bary (s/s^2) =  N/A
# P_orb (s)        =  N/A
# asin(i)/c (s)    =  N/A
# eccentricity     =  N/A
# w (rad)          =  N/A
# T_peri           =  N/A
######################################################
   0  -1255.041
   1  -370.7731
   2  -160.1604
   3  -379.9353
   4  -22.80349
   5  16.35407
   6  -687.3002
   7  -870.0416
   8  -1003.049
   9  -1322.113
  10  -660.9697
  11  -546.5756
  12  -266.2135
  13  -62.52378
  14  -24.59128
  15  -800.4617
  16  -1065.286
  17  -915.651
  18  -677.6337
  19  -533.3503
  20  7.999938
  21  -40.1154
  22  -490.1831
  23  -615.3045
  24  -689.5527
  25  -551.2709
  26  -346.6235
  27  -500.7472
  28  -613.2113
  29  286.4872
  30  -6.36597
  31  363.9056
  32  -231.0931
  33  -203.4765
  34  -247.7768
  35  -444.972
  36  -229.5862
  37  697.0565
  38  835.0258
  39  657.0833
  40  401.278
  41  7.022801
  42  -68.68933
  43  -410.1291
  44  -115.5451
  45  -635.4025
  46  150.8264
  47  243.5962
  48  743.4559
  49  737.9761
  50  834.4351
  51  -298.8539
  52  -838.4944
  53  -552.0905
  54  253.5823
  55  290.2827
  56  -291.1795
  57  -448.9682
  58  -458.6405
  59  -685.8518
  60  -1133.101
  61  -939.3502
  62  -1917.881
  63  -1153.136
  64  -679.0284
  65  -634.3438
  66  -429.9674
  67  -316.7374
  68  -1142.763
  69  -965.5579
  70  -476.5079
  71  -407.2736
  72  -79.25472
  73  478.7698
  74  123.8848
  75  27.38697
  76  461.9721
  77  45.64945
  78  234.1565
  79  -114.2152
  80  -203.6629
  81  -478.5275
  82  -241.0829
  83  143.8191
  84  -226.8622
  85  -99.27906
  86  -756.5364
  87  -623.1068
  88  380.3864
  89  1116.517
  90  475.0607
  91  -126.5712
  92  -959.2922
  93  -784.1561
  94  243.0753
  95  1091.7
  96  1248.773
  97  -316.6365
  98  -769.7256
  99  -768.4095
 100  -123.2344
 101  195.0979
 102  109.5421
 103  -724.9188
 104  -1215.92
 105  -895.4601
 106  595.5513
 107  1146.19
 108  1011.704
 109  657.1416
 110  -390.3267
 111  -804.1154
 112  246.6348
 113  1017.034
 114  577.5596
 115  -146.1372
 116  -30.45241
 117  832.9492
 118  1960.5
 119  2085.33
 120  2004.871
 121  868.4995
 122  221.5205
 123  474.4
 124  889.2277
 125  806.6454
 126  776.0015
 127  528.9868
 128  -175.1788
 129  16.26715
 130  234.0145
 131  255.9073
 132  764.6384
 133  107.5587
 134  -660.5452
 135  -697.3309
 136  -252.3171
 137  131.2168
 138  103.1858
 139  -9.785196
 140  -24.29438
 141  -114.6697
 142  -395.4612
 143  155.0073
 144  797.3681
 145  499.0978
 146  162.1178
 147  144.4097
 148  -445.9029
 149  -1179.334
 150  -1062.442
 151  -971.4272
 152  -599.2491
 153  -407.7789
 154  -451.1492
 155  -935.1346
 156  -1087.853
 157  -1576.665
 158  -1523.012
 159  -1474.195
 160  -1603.639
 161  -1109.471
 162  -639.3285
 163  -766.8556
 164  -888.0266
 165  -963.7814
 166  -923.99
 167  -1157.103
 168  -541.335
 169  208.2258
 170  -391.8409
 171  -1076.146
 172  -828.3367
 173  -680.2189
 174  23.07387
 175  473.0148
 176  713.8079
 177  490.9152
 178  23.88504
 179  -446.4747
 180  -678.5921
 181  -326.4316
 182  315.9099
 183  674.4373
 184  310.8907
 185  277.4848
 186  -168.7671
 187  -52.90837
 188  27.9725
 189  -195.2177
 190  17.39222
 191  563.8909
 192  701.0478
 193  1113.257
 194  943.3115
 195  81.55399
 196  -716.6595
 197  -189.723
 198  1216.156
 199  2169.703
 200  1892.903
 201  2080.031
 202  1303.608
 203  39.89511
 204  22.02721
 205  392.4523
 206  746.0449
 207  262.8918
 208  449.7771
 209  348.65
 210  770.7246
 211  1509.805
 212  1141.757
 213  506.3769
 214  -246.1234
 215  -203.6372
 216  441.1074
 217  1452.593
 218  2103.733
 219  1502.691
 220  998.1546
 221  303.8601
 222  -186.4269
 223  -470.6907
 224  -195.4846
 225  1223.966
 226  560.3532
 227  6.209068
 228  715.0255
 229  1059.317
 230  503.3291
 231  312.661
 232  284.4663
 233  -346.0055
 234  159.2399
 235  1044.128
 236  1192.421
 237  1466.437
 238  1630.519
 239  1045.125
 240  714.6841
 241  1118.132
 242  1615.751
 243  1266.546
 244  1276.355
 245  860.5619
 246  749.9733
 247  961.8597
 248  1926.01
 249  1584.695
 250  792.6498
 251  -73.61075
 252  -364.2269
 253  17.84257
 254  140.8473
 255  724.8179
 256  1227.613
 257  1967.506
 258  1767.447
 259  2078.292
 260  2014.471
 261  1041.37
 262  473.3986
 263  -441.1322
 264  367.7339
 265  1283.161
 266  2038.129
 267  1366.951
 268  326.8181
 269  40.78996
 270  -753.0801
 271  -457.6102
 272  206.8879
 273  449.9298
 274  107.8395
 275  -389.5465
 276  -1082.181
 277  -145.5792
 278  663.1291
 279  1218.916
 280  439.2881
 281  -262.8267
 282  -766.1012
 283  -805.0763
 284  -296.2208
 285  217.4856
 286  96.94157
 287  -152.4538
 288  -252.323
 289  46.20988
 290  901.2562
 291  1106.898
 292  674.4048
 293  113.2587
 294  -79.67445
 295  829.7928
 296  1621.058
 297  1897.04
 298  1178.58
 299  -88.75094
 300  -64.13255
 301  394.7282
 302  972.3366
 303  1347.029
 304  977.7979
 305  425.4348
 306  153.2793
 307  99.53497
 308  46.95496
 309  252.3318
 310  -291.2673
 311  -354.9583
 312  -984.0911
 313  -695.1704
 314  -659.2347
 315  -121.6554
 316  17.3523
 317  -729.3356
 318  -598.1965
 319  -93.1979
 320  174.5405
 321  884.3817
 322  1323.277
 323  562.5095
 324  -332.6363
 325  -788.4986
 326  -732.5635
 327  -140.386
 328  145.1263
 329  303.9411
 330  -16.98226
 331  -54.06767
 332  -171.3738
 333  -278.5565
 334  -952.9441
 335  -1015.089
 336  -810.2675
 337  -1070.273
 338  -323.8683
 339  374.8836
 340  861.5649
 341  309.5327
 342  310.1227
 343  -463.8962
 344  -352.7415
 345  -235.7242
 346  206.6899
 347  -167.1069
 348  103.1214
 349  -660.3832
 350  -154.726
 351  -457.2104
 352  -704.045
 353  -135.9936
 354  -651.4309
 355  -1770.307
 356  -556.9596
 357  -227.0518
 358  -313.7087
 359  496.3395
 360  462.8272
 361  -868.6218
 362  -935.7056
 363  -513.3904
 364  -552.496
 365  -89.14794
 366  92.53838
 367  261.4099
 368  -60.667
 369  -40.96684
 370  -753.4539
 371  -738.2489
 372  -1066.008
 373  -850.84
 374  -555.3197
 375  -241.6632
 376  -610.0245
 377  -190.1259
 378  -448.4587
 379  -346.1881
 380  -695.9172
 381  -789.8323
 382  -876.0978
 383  -393.3989
 384  -248.7285
 385  -735.3549
 386  -831.7568
 387  -651.8829
 388  -224.4551
 389  -335.2943
 390  -349.7443
 391  -686.6082
 392  -296.4477
 393  115.3956
 394  1000.459
 395  1026.361
 396  120.1357
 397  -11.15278
 398  -305.4128
 399  -988.951
 400  -19.76719
 401  790.2373
 402  788.7828
 403  989.8047
 404  -248.7235
 405  -483.9504
 406  -243.0317
 407  -733.3151
 408  -145.9603
 409  402.3012
 410  -323.2143
 411  -97.44939
 412  214.1381
 413  57.37679
 414  -697.5354
 415  -1327.568
 416  113.6189
 417  1044.657
 418  1626.742
 419  2194.009
 420  560.6472
 421  -1324.583
 422  -485.5625
 423  -898.1048
 424  127.2523
 425  24.33842
 426  -272.0734
 427  -34.27201
 428  -362.523
 429  -617.7148
 430  -69.1785
 431  -343.2578
 432  -820.417
 433  -1594.609
 434  -1313.829
 435  -333.9269
 436  262.218
 437  -16.60256
 438  -1090.59
 439  -697.1937
 440  -276.769
 441  -44.75828
 442  -480.1051
 443  -868.7714
 444  -1261.163
 445  -1146.308
 446  -480.5316
 447  718.2192
 448  890.0869
 449  520.3553
 450  292.0598
 451  -434.3717
 452  -186.6314
 453  -263.0714
 454  -35.80142
 455  -224.6552
 456  -263.9918
 457  -474.9335
 458  632.046
 459  -134.8107
 460  270.5314
 461  -167.7285
 462  -1455.061
 463  -1261.563
 464  596.1409
 465  1545.974
 466  839.9374
 467  -161.4113
 468  -549.0345
 469  -273.2821
 470  582.0705
 471  735.0009
 472  -284.0617
 473  -731.839
 474  -936.8591
 475  -328.0133
 476  -14.36641
 477  284.6315
 478  281.6925
 479  -248.3871
 480  -595.6545
 481  -979.6395
 482  -825.1705
 483  -147.8689
 484  -273.8241
 485  -471.0179
 486  1184.222
 487  1262.742
 488  987.3052
 489  644.7387
 490  0.1422103
 491  -983.4592
 492  -860.0018
 493  -711.4498
 494  -158.7718
 495  -58.14349
 496  -144.7669
 497  -927.7114
 498  -949.1496
 499  -687.2394
 500  -554.001
 501  -413.9777
 502  -675.7921
 503  -7.432646
 504  397.9057
 505  606.084
 506  489.3625
 507  1099.411
 508  707.4308
 509  191.1861
 510  -23.37321
 511  -354.7279
