# Input file       =  1211887824.112411_cleaned.dat
# Candidate        =  PSR_0332+5434
# Telescope        =  AR
# Epoch_topo       =  58270.479665652907
# Epoch_bary       =  N/A
# T_sample         =  0.002
# Data Folded      =  7340032
# Data Avg         =  0.0184672599685395
# Data StdDev      =  2.83270424469642 
# Profile Bins     =  512
# Profile Avg      =  264.655025942221 
# Profile StdDev   =  339.168280374857 
# Reduced chi-sqr  =  1.374
# Prob(Noise)      <  3.73e-08   (~5.4 sigma)
# P_topo (ms)      =  714.516809279766  +/- 0.000432
# P'_topo (s/s)    =  -0                +/- 2.28e-10
# P''_topo (s/s^2) =  0                 +/- 1.01e-13
# P_bary (ms)      =  N/A
# P'_bary (s/s)    =  N/A
# P''_bary (s/s^2) =  N/A
# P_orb (s)        =  N/A
# asin(i)/c (s)    =  N/A
# eccentricity     =  N/A
# w (rad)          =  N/A
# T_peri           =  N/A
######################################################
   0  626.0292
   1  401.6136
   2  374.5961
   3  360.845
   4  282.8362
   5  33.3724
   6  148.3663
   7  504.0649
   8  220.133
   9  355.7664
  10  661.3272
  11  385.9225
  12  212.1305
  13  131.7991
  14  -59.19712
  15  -32.0639
  16  240.5067
  17  115.133
  18  -2.534818
  19  95.22256
  20  116.0052
  21  131.1381
  22  -102.0631
  23  -367.0676
  24  -624.9282
  25  -144.026
  26  129.5136
  27  -248.5616
  28  -507.7506
  29  -247.074
  30  -173.9019
  31  -137.648
  32  -191.7776
  33  42.26688
  34  310.0356
  35  212.355
  36  109.7628
  37  163.5988
  38  201.6671
  39  -54.81608
  40  19.93366
  41  -106.7955
  42  27.53557
  43  17.77901
  44  402.553
  45  433.9896
  46  118.3622
  47  186.6396
  48  74.79263
  49  127.1182
  50  -20.89398
  51  -38.86124
  52  1.254043
  53  -103.5146
  54  223.5063
  55  474.6918
  56  533.9752
  57  464.7517
  58  290.6524
  59  258.1099
  60  -47.4053
  61  261.7485
  62  34.7529
  63  357.5497
  64  143.3214
  65  -123.0054
  66  182.973
  67  284.2681
  68  182.0482
  69  266.709
  70  -157.6181
  71  -285.6554
  72  173.2658
  73  472.6847
  74  383.9771
  75  -280.7777
  76  -137.9334
  77  592.7995
  78  543.4053
  79  79.80653
  80  207.6016
  81  303.6773
  82  546.2849
  83  363.4243
  84  25.19647
  85  180.0449
  86  239.5555
  87  26.32053
  88  -18.89255
  89  137.7646
  90  268.0026
  91  120.1029
  92  223.3038
  93  34.19712
  94  150.7937
  95  97.72115
  96  -44.39423
  97  -172.1207
  98  -220.2084
  99  -105.84
 100  69.66254
 101  -53.48265
 102  -361.141
 103  -304.0869
 104  -134.2396
 105  58.13817
 106  53.4819
 107  255.0326
 108  112.9659
 109  -382.5201
 110  -132.702
 111  139.5469
 112  39.77357
 113  40.21785
 114  -85.44349
 115  225.1275
 116  242.0377
 117  195.7265
 118  187.7814
 119  692.1794
 120  919.7272
 121  618.6612
 122  589.3331
 123  307.9324
 124  536.7471
 125  443.3755
 126  699.7283
 127  179.9318
 128  572.2426
 129  591.0138
 130  407.5345
 131  502.955
 132  917.6115
 133  648.0132
 134  75.94659
 135  132.2498
 136  375.1649
 137  500.9199
 138  529.5176
 139  673.7464
 140  542.838
 141  667.7749
 142  63.21725
 143  -48.49379
 144  494.2448
 145  540.5315
 146  359.9384
 147  -401.4228
 148  55.97115
 149  310.9123
 150  387.395
 151  261.9139
 152  -160.1602
 153  61.27911
 154  241.8081
 155  295.5297
 156  55.52776
 157  -267.6777
 158  257.8841
 159  292.6381
 160  423.1088
 161  586.0387
 162  500.7584
 163  277.7525
 164  217.5883
 165  142.4479
 166  273.5452
 167  163.1851
 168  238.5651
 169  445.037
 170  -3.306046
 171  189.5877
 172  342.9307
 173  575.3133
 174  332.8857
 175  124.5447
 176  136.8587
 177  270.491
 178  192.1828
 179  167.8851
 180  9.571575
 181  144.6908
 182  -157.3991
 183  -21.25355
 184  268.2606
 185  305.1995
 186  397.7657
 187  86.35618
 188  323.3191
 189  308.4188
 190  504.7654
 191  408.7831
 192  228.8615
 193  30.29967
 194  70.16544
 195  55.7953
 196  94.45547
 197  196.9066
 198  193.0681
 199  428.6921
 200  128.0338
 201  200.4802
 202  351.4634
 203  138.0486
 204  236.0263
 205  270.6222
 206  528.2186
 207  715.8035
 208  275.6713
 209  442.4487
 210  655.0895
 211  405.6299
 212  176.3123
 213  566.9384
 214  583.522
 215  389.0487
 216  557.2589
 217  564.8447
 218  407.2945
 219  243.9348
 220  243.0504
 221  137.8075
 222  164.048
 223  190.285
 224  204.7662
 225  265.6606
 226  425.6178
 227  394.812
 228  233.6502
 229  198.3838
 230  109.7861
 231  164.5132
 232  337.6454
 233  53.85929
 234  -26.67768
 235  66.61532
 236  303.3073
 237  77.20955
 238  -90.37722
 239  -69.09081
 240  86.71599
 241  -3.245699
 242  44.17253
 243  367.1928
 244  -133.2104
 245  -197.7939
 246  265.0615
 247  214.5722
 248  444.8775
 249  517.9
 250  491.1879
 251  370.3357
 252  79.89005
 253  360.8139
 254  234.3274
 255  443.3109
 256  547.4795
 257  556.6807
 258  192.463
 259  91.65868
 260  128.8873
 261  685.3243
 262  337.8426
 263  316.9312
 264  293.0311
 265  86.06038
 266  250.7181
 267  631.9732
 268  846.5189
 269  400.9094
 270  -87.94651
 271  -53.12462
 272  172.7306
 273  98.23168
 274  -15.01768
 275  -15.7006
 276  223.187
 277  82.82816
 278  260.0719
 279  326.9776
 280  143.4601
 281  36.04282
 282  442.7441
 283  606.8224
 284  572.556
 285  234.5466
 286  367.6202
 287  527.5201
 288  372.0891
 289  548.8169
 290  715.5621
 291  598.9532
 292  741.6917
 293  412.876
 294  499.6211
 295  580.7186
 296  577.8597
 297  440.2238
 298  413.6459
 299  313.0437
 300  225.5691
 301  274.1928
 302  302.0869
 303  481.8419
 304  269.3483
 305  -13.7639
 306  50.84057
 307  265.6442
 308  651.6056
 309  593.3141
 310  586.8901
 311  752.2136
 312  535.7055
 313  392.0328
 314  388.217
 315  51.03813
 316  187.3783
 317  231.6945
 318  530.8264
 319  316.3382
 320  327.4202
 321  464.4152
 322  633.993
 323  766.6504
 324  952.4668
 325  916.9818
 326  930.2103
 327  637.5656
 328  1145.968
 329  1545.008
 330  2113.303
 331  1963.674
 332  1847.956
 333  1172.61
 334  759.2784
 335  643.5609
 336  695.1104
 337  454.5414
 338  607.3546
 339  814.5204
 340  607.2121
 341  258.4902
 342  185.1771
 343  389.8032
 344  668.4072
 345  216.7092
 346  219.4375
 347  60.10138
 348  156.2498
 349  218.9743
 350  194.6883
 351  294.9454
 352  336.5188
 353  196.8211
 354  170.012
 355  142.3434
 356  144.9399
 357  197.7444
 358  327.1943
 359  176.077
 360  -30.64019
 361  156.1344
 362  58.13278
 363  303.1473
 364  -86.94289
 365  -332.4235
 366  121.2667
 367  338.6286
 368  329.235
 369  441.2156
 370  161.0925
 371  260.4404
 372  119.8046
 373  168.2324
 374  217.4225
 375  -148.1613
 376  153.5676
 377  197.9507
 378  -17.36632
 379  -54.9591
 380  489.7776
 381  412.6397
 382  93.83324
 383  16.24876
 384  191.3311
 385  297.6354
 386  179.131
 387  236.8233
 388  123.4449
 389  51.60316
 390  349.2481
 391  153.0781
 392  -40.37022
 393  15.6412
 394  172.8265
 395  342.2592
 396  437.0646
 397  170.0119
 398  69.18719
 399  143.0141
 400  247.4378
 401  238.8821
 402  101.13
 403  -13.8798
 404  0.3411043
 405  358.1983
 406  173.7199
 407  -66.93458
 408  60.82853
 409  479.704
 410  317.0601
 411  108.0906
 412  28.51971
 413  303.8243
 414  452.2648
 415  358.887
 416  429.963
 417  584.3989
 418  359.983
 419  443.8705
 420  863.3002
 421  940.1993
 422  472.3463
 423  210.402
 424  476.4635
 425  674.5464
 426  237.0757
 427  349.0639
 428  555.9333
 429  431.0132
 430  429.489
 431  456.4949
 432  234.9113
 433  410.5612
 434  73.00536
 435  148.2457
 436  -92.96736
 437  101.6809
 438  153.6486
 439  193.0069
 440  378.2914
 441  514.3157
 442  199.9051
 443  139.308
 444  111.9752
 445  42.99167
 446  225.3955
 447  370.2195
 448  177.7924
 449  227.3237
 450  411.8893
 451  306.0475
 452  197.4476
 453  316.1923
 454  486.6728
 455  401.5252
 456  298.0944
 457  436.6917
 458  325.2743
 459  265.006
 460  89.33517
 461  123.3255
 462  -256.9124
 463  405.6844
 464  503.3233
 465  147.4683
 466  230.2237
 467  260.0744
 468  700.582
 469  721.6161
 470  754.1652
 471  768.1862
 472  6.143054
 473  150.7425
 474  126.7546
 475  185.4808
 476  290.9379
 477  238.6328
 478  232.9902
 479  233.7498
 480  212.7176
 481  233.927
 482  245.0916
 483  290.6415
 484  7.327025
 485  -21.01533
 486  29.03016
 487  16.12767
 488  -56.29321
 489  -271.8199
 490  102.099
 491  268.9828
 492  361.1969
 493  102.1996
 494  294.7592
 495  308.8174
 496  78.20492
 497  111.7259
 498  147.4684
 499  166.2065
 500  199.5282
 501  363.2904
 502  242.1078
 503  163.391
 504  165.5926
 505  375.7228
 506  255.0923
 507  299.9558
 508  376.6558
 509  391.2036
 510  441.3788
 511  458.2233
