# Input file       =  1211255245.100422-PSRB0329-2ms-sampling-dd.dat
# Candidate        =  PSR_0332+5434
# Telescope        =  AR
# Epoch_topo       =  58263.158149310439
# Epoch_bary       =  N/A
# T_sample         =  0.002
# Data Folded      =  7143424
# Data Avg         =  7.18454921881886e-10
# Data StdDev      =  11.2705550639889 
# Profile Bins     =  512
# Profile Avg      =  5.00351063304971 
# Profile StdDev   =  1331.26201048331 
# Reduced chi-sqr  =  0.774
# Prob(Noise)      <  1   (~0.0 sigma)
# P_topo (ms)      =  714.523614228109  +/- 5.64e-05
# P'_topo (s/s)    =  -0                +/- 3.06e-11
# P''_topo (s/s^2) =  0                 +/- 1.39e-14
# P_bary (ms)      =  N/A
# P'_bary (s/s)    =  N/A
# P''_bary (s/s^2) =  N/A
# P_orb (s)        =  N/A
# asin(i)/c (s)    =  N/A
# eccentricity     =  N/A
# w (rad)          =  N/A
# T_peri           =  N/A
######################################################
   0  165.8392
   1  15.92939
   2  -363.76
   3  -416.4529
   4  -395.1669
   5  65.86046
   6  383.9332
   7  782.1829
   8  -43.53691
   9  669.9181
  10  1085.452
  11  779.9064
  12  1786.04
  13  456.8546
  14  -789.0593
  15  -1321.676
  16  -464.9462
  17  -404.8333
  18  58.83426
  19  -627.4788
  20  -1856.756
  21  -1390.894
  22  -1027.454
  23  -882.449
  24  -1274.705
  25  -1000.027
  26  -1302.149
  27  -597.5688
  28  -397.7248
  29  -1052.658
  30  -158.6765
  31  -661.9274
  32  -1468.032
  33  -1431.698
  34  -647.873
  35  -483.9402
  36  -271.7699
  37  -754.7746
  38  -1704.286
  39  -1930.411
  40  -1682.755
  41  -1073.264
  42  8.596384
  43  -104.7877
  44  -714.4418
  45  -296.6177
  46  425.0202
  47  -101.4489
  48  275.6338
  49  859.4807
  50  -30.50764
  51  -837.9501
  52  -278.1178
  53  234.151
  54  434.4225
  55  1131.582
  56  496.7445
  57  -725.5457
  58  -1014.125
  59  -89.58317
  60  459.1865
  61  984.6691
  62  104.6638
  63  -434.3008
  64  -950.2012
  65  -788.6493
  66  -240.4897
  67  511.4353
  68  228.8649
  69  -317.9061
  70  -363.3303
  71  -415.9204
  72  192.2327
  73  734.423
  74  871.531
  75  701.1318
  76  584.0721
  77  1165.61
  78  1154.692
  79  1988.679
  80  1343.591
  81  -136.2404
  82  217.7962
  83  446.4699
  84  1715.874
  85  1419.405
  86  327.0297
  87  -945.8693
  88  -1167.982
  89  -1077.952
  90  -164.8493
  91  1111.56
  92  873.6959
  93  423.6995
  94  -687.0903
  95  4.723586
  96  -43.56551
  97  84.64959
  98  -826.1221
  99  -701.7722
 100  -654.7764
 101  905.6417
 102  1187.988
 103  1485.011
 104  1396.58
 105  238.1512
 106  714.6207
 107  1995.437
 108  2812
 109  2278.888
 110  1449.839
 111  -223.7718
 112  -419.6636
 113  837.2418
 114  1713.563
 115  736.975
 116  358.3195
 117  -1007.327
 118  -1067.207
 119  82.91505
 120  1352.634
 121  1113.016
 122  -108.0917
 123  -1188.529
 124  -241.3027
 125  202.0831
 126  1124.017
 127  918.466
 128  39.92635
 129  -102.8072
 130  -761.9742
 131  -48.02198
 132  489.4779
 133  460.8737
 134  -486.1767
 135  -414.7644
 136  -915.3832
 137  61.08678
 138  557.4186
 139  763.4067
 140  618.7466
 141  1405.929
 142  1357.513
 143  2409.222
 144  2018.338
 145  1388.029
 146  1357.681
 147  96.32479
 148  227.2151
 149  1947.805
 150  2202.994
 151  718.5051
 152  -169.9558
 153  -950.5144
 154  -668.4264
 155  308.5989
 156  680.1937
 157  505.1324
 158  592.096
 159  -1460.264
 160  -845.3713
 161  -351.7564
 162  -110.6083
 163  -255.2997
 164  -542.5127
 165  -350.1244
 166  443.6437
 167  966.2369
 168  632.4402
 169  -514.2625
 170  -1167.575
 171  -455.0214
 172  -153.1928
 173  1740.41
 174  2853.451
 175  1414.034
 176  -236.9469
 177  -1253.167
 178  -610.1564
 179  212.5808
 180  718.9761
 181  -340.0475
 182  -258.0654
 183  -886.8922
 184  -627.5251
 185  548.5294
 186  546.8281
 187  -717.1051
 188  -1162.442
 189  -1402.434
 190  325.0557
 191  1404.072
 192  1921.96
 193  817.3777
 194  -613.8182
 195  -1360.439
 196  -290.9413
 197  214.6474
 198  1091.378
 199  307.1966
 200  -697.007
 201  -1053.297
 202  -388.3303
 203  311.9682
 204  374.081
 205  -564.017
 206  -1606.768
 207  -238.35
 208  348.9202
 209  1140.719
 210  1484.789
 211  1005.114
 212  -338.1991
 213  -1552.352
 214  -1677.516
 215  -399.4675
 216  -256.907
 217  178.6017
 218  -72.33475
 219  -1140.124
 220  -650.3914
 221  -1003.113
 222  -874.1324
 223  -723.6888
 224  -524.8045
 225  -405.9436
 226  316.8302
 227  427.1559
 228  -501.253
 229  -522.2964
 230  -549.7519
 231  -5.595246
 232  1145.774
 233  1020.733
 234  1224.796
 235  649.9696
 236  736.1
 237  420.968
 238  154.069
 239  1337.389
 240  1310.454
 241  172.1186
 242  -586.86
 243  -61.13862
 244  49.75109
 245  261.2721
 246  176.7495
 247  -881.8624
 248  -1121.446
 249  -1102.606
 250  -620.6049
 251  -703.611
 252  -266.5843
 253  -600.4699
 254  -1297.365
 255  -1689.161
 256  -711.0889
 257  -497.5825
 258  784.0373
 259  942.8109
 260  -346.6447
 261  -663.5721
 262  -651.6979
 263  -914.6809
 264  -297.832
 265  -1.373279
 266  -415.6545
 267  -663.6245
 268  -622.2561
 269  -304.2787
 270  46.06253
 271  -420.4846
 272  -210.8091
 273  220.6819
 274  -112.4543
 275  -482.8495
 276  -856.9839
 277  -69.45974
 278  -577.7949
 279  -602.6707
 280  -1222.646
 281  -991.5059
 282  -973.1503
 283  -460.1856
 284  -1200.176
 285  -706.759
 286  -388.8928
 287  -589.3879
 288  -603.9073
 289  -741.4062
 290  -810.3436
 291  -534.8976
 292  282.7126
 293  -242.1604
 294  -37.92941
 295  -726.3853
 296  -1166.407
 297  -526.2876
 298  -552.9641
 299  -211.3687
 300  -296.2318
 301  -1038.028
 302  -1182.801
 303  -330.9593
 304  -83.50111
 305  -149.1357
 306  -135.8631
 307  -172.1673
 308  -979.89
 309  -453.9491
 310  253.3705
 311  -17.44016
 312  -430.7607
 313  -918.1887
 314  -1310.63
 315  -491.5276
 316  -146.4424
 317  -432.6474
 318  113.8369
 319  -829.7627
 320  -1372.155
 321  -989.3908
 322  371.5202
 323  911.1765
 324  355.0117
 325  -1318.897
 326  -1371.572
 327  -425.1202
 328  933.4797
 329  978.8049
 330  1125.568
 331  645.229
 332  261.5495
 333  252.2775
 334  823.7465
 335  1387.498
 336  1431.155
 337  1191.456
 338  -457.0567
 339  279.3684
 340  848.0721
 341  1264.576
 342  538.4193
 343  -25.91724
 344  -975.4153
 345  -902.1387
 346  -28.21545
 347  191.9284
 348  956.7162
 349  -27.10283
 350  -1039.074
 351  -987.0944
 352  272.6722
 353  874.8399
 354  1463.055
 355  695.364
 356  625.8699
 357  193.24
 358  684.8482
 359  849.2387
 360  641.8337
 361  -5.262894
 362  -342.7362
 363  26.06865
 364  942.561
 365  1294.28
 366  510.0455
 367  -66.23714
 368  -1054.144
 369  -921.7336
 370  -421.2402
 371  -277.4126
 372  -30.45454
 373  -198.1942
 374  -1672.561
 375  -1609.051
 376  -214.3065
 377  467.3255
 378  338.5723
 379  -386.5349
 380  -1292.853
 381  -1809.213
 382  -544.949
 383  -109.7233
 384  619.6702
 385  289.0308
 386  -1701.434
 387  -2081.523
 388  -989.1494
 389  206.6955
 390  368.1996
 391  -485.62
 392  -1135.22
 393  -1106.144
 394  -1489.993
 395  -699.5328
 396  -209.4295
 397  -229.5502
 398  -142.0434
 399  -59.77449
 400  -919.3199
 401  -279.8857
 402  -601.7567
 403  -223.2745
 404  -1184.553
 405  -606.812
 406  906.6863
 407  1297.667
 408  1184.3
 409  112.1698
 410  -572.9629
 411  -714.8233
 412  -27.21981
 413  216.0834
 414  998.3792
 415  991.1338
 416  -770.0898
 417  -1115.904
 418  -503.3412
 419  182.9819
 420  -16.22524
 421  -311.2413
 422  -614.9166
 423  -549.2053
 424  -291.1786
 425  69.22572
 426  350.8315
 427  -496.8519
 428  -619.7808
 429  -1007.188
 430  -378.6705
 431  694.9223
 432  891.9214
 433  536.2213
 434  580.1551
 435  -361.5462
 436  -211.9865
 437  89.76295
 438  278.4756
 439  1015.883
 440  714.1548
 441  209.3708
 442  1087.531
 443  573.358
 444  -237.8
 445  -136.0563
 446  -564.3878
 447  -389.1266
 448  13.4102
 449  1051.055
 450  932.7422
 451  531.1049
 452  829.8473
 453  359.6162
 454  1065.774
 455  652.3751
 456  648.5223
 457  560.1536
 458  252.2276
 459  1098.152
 460  1238.201
 461  1317.712
 462  546.3558
 463  -140.6294
 464  375.6005
 465  52.63951
 466  42.37192
 467  -73.72955
 468  412.5414
 469  589.5822
 470  790.5346
 471  760.676
 472  166.9514
 473  -41.47169
 474  -242.1248
 475  356.4641
 476  511.8851
 477  182.9303
 478  -425.0159
 479  -672.5751
 480  -771.7883
 481  417.2172
 482  1345.003
 483  778.8183
 484  -332.9649
 485  -84.23024
 486  288.9667
 487  1641.624
 488  2876.495
 489  1855.987
 490  283.5392
 491  -708.9613
 492  -45.80158
 493  87.15704
 494  524.607
 495  639.9419
 496  732.0363
 497  1185.109
 498  403.2761
 499  -307.8907
 500  604.7228
 501  263.1573
 502  -360.8178
 503  269.9249
 504  1214.652
 505  1464.114
 506  1224.23
 507  299.4121
 508  -660.7003
 509  -871.6323
 510  -396.1599
 511  -232.0912
