# Input file       =  1211801664.116601_cleaned.dat
# Candidate        =  PSR_0332+5434
# Telescope        =  AR
# Epoch_topo       =  58269.482443479181
# Epoch_bary       =  N/A
# T_sample         =  0.002
# Data Folded      =  7340032
# Data Avg         =  0.0161189153321566
# Data StdDev      =  1.00002847709324 
# Profile Bins     =  512
# Profile Avg      =  231.055356553956 
# Profile StdDev   =  119.736446025606 
# Reduced chi-sqr  =  1.444
# Prob(Noise)      <  1.67e-10   (~6.3 sigma)
# P_topo (ms)      =  714.517779548343  +/- 0.000244
# P'_topo (s/s)    =  -0                +/- 1.29e-10
# P''_topo (s/s^2) =  0                 +/- 5.68e-14
# P_bary (ms)      =  N/A
# P'_bary (s/s)    =  N/A
# P''_bary (s/s^2) =  N/A
# P_orb (s)        =  N/A
# asin(i)/c (s)    =  N/A
# eccentricity     =  N/A
# w (rad)          =  N/A
# T_peri           =  N/A
######################################################
   0  945.8749
   1  774.643
   2  733.7575
   3  427.6102
   4  218.7483
   5  283.2076
   6  219.0824
   7  282.8578
   8  331.2061
   9  263.3872
  10  230.1269
  11  145.8264
  12  320.7803
  13  327.7757
  14  285.9719
  15  413.9282
  16  466.4265
  17  391.2461
  18  328.372
  19  326.0529
  20  270.8725
  21  71.26466
  22  213.8381
  23  289.1466
  24  276.8813
  25  234.6396
  26  102.0772
  27  70.0984
  28  193.0385
  29  315.3895
  30  211.7898
  31  109.1324
  32  270.2167
  33  331.6414
  34  228.2675
  35  211.9585
  36  218.4492
  37  282.6768
  38  287.5582
  39  188.334
  40  4.749255
  41  91.5922
  42  308.3075
  43  236.6819
  44  194.9657
  45  139.3117
  46  173.309
  47  224.1364
  48  229.328
  49  259.3809
  50  252.2998
  51  247.9855
  52  99.77074
  53  132.8062
  54  230.3694
  55  277.7012
  56  247.0773
  57  211.2179
  58  290.7547
  59  258.1479
  60  309.4909
  61  321.9993
  62  185.2568
  63  110.0335
  64  157.8624
  65  206.7781
  66  179.7189
  67  206.3075
  68  336.9213
  69  228.2314
  70  254.1029
  71  430.9744
  72  321.159
  73  193.1826
  74  173.5502
  75  186.7046
  76  215.8022
  77  119.8801
  78  138.5234
  79  243.3512
  80  286.3384
  81  303.5222
  82  305.4641
  83  316.7302
  84  303.1715
  85  143.905
  86  160.8727
  87  253.09
  88  176.3056
  89  142.3185
  90  95.91351
  91  90.08932
  92  172.5544
  93  270.23
  94  231.8726
  95  235.067
  96  225.0009
  97  142.6555
  98  223.7564
  99  166.03
 100  166.2211
 101  234.4622
 102  185.867
 103  178.0039
 104  173.3546
 105  253.7247
 106  276.6176
 107  196.0273
 108  151.3748
 109  183.7326
 110  112.9823
 111  128.5682
 112  148.4101
 113  200.3999
 114  221.7101
 115  231.2745
 116  311.6028
 117  163.1503
 118  177.1353
 119  159.1889
 120  165.9818
 121  232.9056
 122  291.5958
 123  240.1377
 124  295.07
 125  278.5577
 126  213.1854
 127  354.1902
 128  250.6312
 129  104.706
 130  212.6685
 131  147.4925
 132  202.4088
 133  250.7874
 134  297.0389
 135  224.4578
 136  42.82052
 137  95.70586
 138  202.6287
 139  78.30447
 140  143.4412
 141  255.07
 142  282.4794
 143  307.2691
 144  249.6625
 145  196.0172
 146  299.0457
 147  304.1523
 148  263.9228
 149  206.9786
 150  120.1304
 151  70.78439
 152  260.8438
 153  314.6416
 154  113.8343
 155  88.70229
 156  146.4266
 157  208.4535
 158  182.0933
 159  97.60382
 160  131.1953
 161  198.8735
 162  264.0565
 163  182.9069
 164  154.8441
 165  105.5215
 166  86.29507
 167  141.6948
 168  210.0814
 169  95.31849
 170  153.0698
 171  167.977
 172  234.8369
 173  93.2256
 174  61.0904
 175  279.626
 176  287.0247
 177  190.8537
 178  116.4171
 179  250.8076
 180  185.0889
 181  161.8499
 182  286.3874
 183  257.0136
 184  212.2261
 185  221.6903
 186  238.7025
 187  265.4848
 188  309.9749
 189  192.2848
 190  2.891747
 191  -10.69615
 192  70.85107
 193  117.1447
 194  191.4001
 195  145.3085
 196  122.2033
 197  152.6466
 198  95.13763
 199  161.6876
 200  203.1429
 201  138.9027
 202  214.3166
 203  383.4825
 204  357.7098
 205  194.6412
 206  261.8381
 207  90.06252
 208  174.0373
 209  217.4332
 210  207.1213
 211  320.9167
 212  352.4062
 213  331.0352
 214  221.0945
 215  297.319
 216  272.1454
 217  223.6253
 218  143.3696
 219  160.4061
 220  191.4888
 221  307.1949
 222  366.7165
 223  358.3827
 224  281.6029
 225  227.4147
 226  348.4165
 227  356.5721
 228  266.6905
 229  165.7105
 230  280.6651
 231  286.906
 232  56.03411
 233  208.0736
 234  379.6952
 235  430.2572
 236  251.6488
 237  317.0683
 238  295.7658
 239  271.6841
 240  250.0254
 241  201.8087
 242  207.6951
 243  258.1411
 244  336.795
 245  295.6199
 246  187.9088
 247  280.5797
 248  325.4782
 249  207.6571
 250  98.78351
 251  225.6443
 252  263.7293
 253  193.3232
 254  261.77
 255  276.3338
 256  235.405
 257  256.6815
 258  222.3023
 259  333.1183
 260  332.9833
 261  323.3688
 262  210.6721
 263  129.7125
 264  262.1284
 265  159.772
 266  -8.650889
 267  41.81903
 268  189.9524
 269  251.8046
 270  187.8997
 271  141.18
 272  185.6293
 273  291.2705
 274  265.992
 275  268.2362
 276  151.239
 277  185.1779
 278  172.8541
 279  131.6647
 280  231.3774
 281  190.2661
 282  255.1193
 283  268.5115
 284  209.5373
 285  241.0818
 286  296.2499
 287  75.22896
 288  127.5779
 289  -5.890392
 290  85.01807
 291  223.668
 292  349.4728
 293  200.1474
 294  118.0423
 295  146.4156
 296  244.8136
 297  139.252
 298  172.6945
 299  199.9316
 300  166.4767
 301  65.69225
 302  25.39338
 303  152.4952
 304  176.3766
 305  258.3345
 306  308.406
 307  358.2421
 308  267.5561
 309  140.3868
 310  231.3771
 311  270.1044
 312  301.772
 313  302.2466
 314  231.2036
 315  181.1153
 316  226.5319
 317  189.3099
 318  149.3167
 319  199.5072
 320  214.3671
 321  113.8776
 322  169.0221
 323  218.2729
 324  284.5762
 325  370.2949
 326  187.019
 327  112.1368
 328  53.22717
 329  125.2656
 330  88.36652
 331  210.7186
 332  268.5168
 333  216.0634
 334  237.0912
 335  250.8516
 336  158.5984
 337  195.5674
 338  337.5933
 339  399.5227
 340  150.273
 341  249.4502
 342  292.2217
 343  135.213
 344  111.9885
 345  237.941
 346  414.074
 347  426.2138
 348  218.3018
 349  181.194
 350  133.7732
 351  240.6797
 352  202.907
 353  254.6334
 354  232.3784
 355  202.1257
 356  263.2306
 357  208.0108
 358  252.2073
 359  317.5505
 360  272.8033
 361  165.5159
 362  205.5954
 363  310.2393
 364  231.0664
 365  213.0659
 366  248.5681
 367  281.317
 368  205.1109
 369  325.8564
 370  283.2676
 371  93.50145
 372  104.8011
 373  144.0179
 374  149.7376
 375  169.2878
 376  208.9851
 377  183.6401
 378  75.4584
 379  246.8709
 380  172.1432
 381  189.4226
 382  201.5197
 383  223.5462
 384  235.3249
 385  203.6566
 386  207.0368
 387  265.9967
 388  363.1407
 389  260.2471
 390  174.8117
 391  246.4594
 392  262.7973
 393  228.0384
 394  228.4746
 395  174.6729
 396  162.9142
 397  258.2491
 398  331.3823
 399  273.3732
 400  358.1548
 401  430.4086
 402  277.4572
 403  212.3158
 404  184.7832
 405  201.3049
 406  275.9075
 407  300.2338
 408  481.6396
 409  377.8632
 410  258.6557
 411  250.1106
 412  379.1559
 413  287.5849
 414  268.077
 415  325.9413
 416  96.48389
 417  199.3602
 418  272.7344
 419  238.8377
 420  240.4021
 421  247.2525
 422  242.4798
 423  209.7088
 424  102.5909
 425  115.9923
 426  104.2212
 427  150.6088
 428  225.912
 429  230.6781
 430  282.1165
 431  146.7472
 432  211.2559
 433  340.2579
 434  345.3667
 435  241.4421
 436  117.6525
 437  288.1897
 438  318.5055
 439  117.4151
 440  275.4761
 441  403.6428
 442  297.3792
 443  257.048
 444  247.1023
 445  186.5087
 446  192.7038
 447  264.2483
 448  168.8404
 449  95.61138
 450  126.1339
 451  183.0418
 452  269.2947
 453  339.245
 454  227.9766
 455  240.7223
 456  421.1999
 457  363.2086
 458  273.1059
 459  214.8835
 460  134.3284
 461  211.3171
 462  361.5001
 463  295.7311
 464  265.4312
 465  283.1992
 466  230.3713
 467  233.1556
 468  273.8562
 469  251.9373
 470  209.1631
 471  298.2
 472  257.3829
 473  257.1009
 474  215.2532
 475  286.4942
 476  195.4093
 477  293.3322
 478  346.7057
 479  303.2758
 480  351.188
 481  309.2306
 482  219.8873
 483  238.9339
 484  332.2676
 485  172.269
 486  149.4757
 487  271.9868
 488  266.7211
 489  253.5402
 490  171.4436
 491  115.4732
 492  188.3488
 493  255.2757
 494  251.8312
 495  202.4014
 496  174.5909
 497  96.79292
 498  225.0586
 499  172.9822
 500  158.8004
 501  277.4703
 502  200.6364
 503  224.6951
 504  270.8339
 505  220.6312
 506  230.4908
 507  373.4225
 508  503.6727
 509  592.9031
 510  877.3681
 511  948.9097
