# Input file       =  1211255245.100422_cleaned.dat
# Candidate        =  PSR_0332+5434
# Telescope        =  AR
# Epoch_topo       =  58263.158149310439
# Epoch_bary       =  N/A
# T_sample         =  0.002
# Data Folded      =  7143424
# Data Avg         =  0.262042721085155
# Data StdDev      =  7.11583550706083 
# Profile Bins     =  512
# Profile Avg      =  3654.71526767986 
# Profile StdDev   =  840.512417499835 
# Reduced chi-sqr  =  0.926
# Prob(Noise)      <  0.885   (~0.0 sigma)
# P_topo (ms)      =  714.523614345895  +/- 6.04e-05
# P'_topo (s/s)    =  -0                +/- 3.28e-11
# P''_topo (s/s^2) =  0                 +/- 1.49e-14
# P_bary (ms)      =  N/A
# P'_bary (s/s)    =  N/A
# P''_bary (s/s^2) =  N/A
# P_orb (s)        =  N/A
# asin(i)/c (s)    =  N/A
# eccentricity     =  N/A
# w (rad)          =  N/A
# T_peri           =  N/A
######################################################
   0  3629.935
   1  3981.647
   2  3661.596
   3  3226.684
   4  3424.077
   5  3268.962
   6  3419.011
   7  3677.226
   8  3082.88
   9  3908.435
  10  4497.067
  11  4146.946
  12  4339.157
  13  3211.987
  14  3156.098
  15  3119.823
  16  4083.377
  17  4094.563
  18  4029.616
  19  3543.387
  20  2882.269
  21  2878.616
  22  3309.297
  23  3331.749
  24  3123.814
  25  3608.777
  26  3391.203
  27  3775.689
  28  3155.075
  29  2406.931
  30  2784.056
  31  2375.989
  32  2348.286
  33  2953.42
  34  3357.81
  35  3603.276
  36  2881.239
  37  2897.005
  38  2366.504
  39  2730.606
  40  2539.66
  41  2886.761
  42  2900.614
  43  2394.478
  44  2877.597
  45  3017.232
  46  3654.907
  47  3672.351
  48  3354.472
  49  2861.599
  50  2561.233
  51  2283.378
  52  2775.868
  53  3133.512
  54  3164.641
  55  4058.233
  56  3529.991
  57  2811.211
  58  3149.338
  59  4049.24
  60  3721.297
  61  4158.059
  62  3886.841
  63  3398.911
  64  3005.962
  65  2772.612
  66  3003.101
  67  3663.889
  68  3463.408
  69  3480.331
  70  3387.974
  71  3582.024
  72  3439.408
  73  3072.148
  74  3245.286
  75  4443.071
  76  4639.464
  77  3646.335
  78  3474.996
  79  3859.196
  80  3385.948
  81  3666.114
  82  3516.447
  83  3291.968
  84  4763.289
  85  4233.54
  86  3502.674
  87  2940.122
  88  2913.422
  89  3236.459
  90  3683.402
  91  4475.18
  92  4501.496
  93  4177.376
  94  3676.245
  95  4164.051
  96  3797.567
  97  3913.405
  98  3612.081
  99  3607.92
 100  3289.351
 101  4148.245
 102  3930.211
 103  4076.657
 104  4767.757
 105  4505.033
 106  4639.762
 107  5199.178
 108  5449.317
 109  4641.748
 110  4769.605
 111  4186.909
 112  4647.416
 113  5074.027
 114  3974.702
 115  3215.717
 116  3858.596
 117  4310.609
 118  3914.453
 119  3527.525
 120  4074.081
 121  3557.56
 122  3483.911
 123  3835.709
 124  4415.51
 125  4553.811
 126  4501.968
 127  4197.3
 128  3763.633
 129  4611.523
 130  3933.463
 131  3774.183
 132  3584.56
 133  3190.939
 134  3338.179
 135  3671.24
 136  3492.449
 137  3500.162
 138  3501.65
 139  3038.797
 140  3484.448
 141  5088.047
 142  4636.521
 143  4760.208
 144  4142.837
 145  3685.648
 146  4246.128
 147  3544.447
 148  3826.431
 149  4519.868
 150  4439.7
 151  4202.067
 152  4521.989
 153  3719.335
 154  2980.952
 155  3075.002
 156  3090.825
 157  3385.07
 158  3870.621
 159  3517.457
 160  3464.282
 161  3392.071
 162  3841.308
 163  3425.903
 164  3396.62
 165  3876.71
 166  4477.347
 167  4758.768
 168  4162.925
 169  3123.778
 170  2768.803
 171  3730.974
 172  3461.265
 173  4665.604
 174  4963.847
 175  3789.929
 176  3861.615
 177  3260.335
 178  3712.301
 179  3858.86
 180  3988.29
 181  3110.37
 182  3812.448
 183  3878.99
 184  3989.699
 185  4121.629
 186  3811.88
 187  3567.473
 188  3174.832
 189  3577.365
 190  4643.328
 191  4789.104
 192  5339.026
 193  4232.796
 194  2923.606
 195  3199.636
 196  3257.448
 197  3061.451
 198  3944.904
 199  3739.01
 200  3418.1
 201  3636.225
 202  3182.654
 203  3306.604
 204  3474.791
 205  2772.051
 206  2795.128
 207  4027.053
 208  4235.984
 209  4386.075
 210  3902.305
 211  3756.478
 212  4028.622
 213  3415.315
 214  3370.105
 215  3738.667
 216  4061.311
 217  3980.581
 218  3766.334
 219  2981.059
 220  3306.61
 221  3186.674
 222  3775.065
 223  3641.583
 224  4035.292
 225  4380.29
 226  4080.277
 227  3602.857
 228  3369.329
 229  3279.017
 230  3187.095
 231  4355.145
 232  5487.984
 233  6018.949
 234  5371.642
 235  4783.716
 236  3850.374
 237  3583.028
 238  3713.301
 239  5260.314
 240  5149.465
 241  4196.472
 242  3323.554
 243  4037.025
 244  4308.149
 245  4510
 246  4207.82
 247  3177.195
 248  3390.664
 249  3938.496
 250  3876.499
 251  3680.961
 252  3537.943
 253  3059.922
 254  2961.379
 255  3095.028
 256  4016.67
 257  4438.108
 258  5226.084
 259  5157.453
 260  4535.501
 261  4238.334
 262  3805.705
 263  3937.083
 264  4314.074
 265  4374.344
 266  3959.295
 267  3399.548
 268  3373.601
 269  3489.156
 270  3807.879
 271  3088.896
 272  3439.617
 273  3841.352
 274  4119.896
 275  3752.541
 276  3287.745
 277  3679.36
 278  3289.206
 279  3463.009
 280  3114.186
 281  3539.363
 282  3669.881
 283  4127.535
 284  3297.845
 285  3496.595
 286  3681.167
 287  3776.109
 288  3841.822
 289  3651.736
 290  4097.167
 291  3913.52
 292  3711.506
 293  3582.039
 294  3600.277
 295  3250.525
 296  2736.199
 297  3381.11
 298  3493.735
 299  3906.698
 300  3861.077
 301  3071.804
 302  2466.057
 303  3140.202
 304  3799.049
 305  3602.173
 306  4480.738
 307  4047.657
 308  3267.299
 309  2852.307
 310  3433.621
 311  3524.898
 312  3877.502
 313  3245.322
 314  3184.495
 315  3207.115
 316  3820.03
 317  3527.316
 318  3532.963
 319  3273.952
 320  2914.312
 321  3027.373
 322  3763.955
 323  4631.955
 324  4269.79
 325  3019.306
 326  2702.452
 327  2877.508
 328  3701.847
 329  3696.093
 330  3613.204
 331  4166.861
 332  3788.306
 333  3352.574
 334  3215.049
 335  3743.972
 336  3892.675
 337  3794.571
 338  3341.647
 339  4160.07
 340  4209.832
 341  4107.819
 342  4033.425
 343  3250.528
 344  3322.3
 345  2733.61
 346  3297.492
 347  3981.994
 348  4383.375
 349  4050.689
 350  3337.52
 351  2853.299
 352  3550.058
 353  4118.099
 354  4037.046
 355  4369.358
 356  4160.85
 357  3954.154
 358  4582.376
 359  4702.737
 360  4409.951
 361  3892.621
 362  2934.612
 363  3172.853
 364  4238.188
 365  4781.325
 366  4194.593
 367  3839.05
 368  3151.327
 369  3124.902
 370  3648.8
 371  3725.498
 372  4375.317
 373  4535.634
 374  3554.165
 375  3132.982
 376  3841.337
 377  4593.881
 378  4541.157
 379  3995.765
 380  3593.266
 381  3444.473
 382  3565.016
 383  3547.518
 384  3653.896
 385  3324.152
 386  2820.099
 387  2605.258
 388  3503.908
 389  4233.412
 390  4233.199
 391  3371.074
 392  3377.826
 393  3541.231
 394  2903.064
 395  3181.932
 396  3461.945
 397  3192.635
 398  3679.233
 399  3398.467
 400  2915.387
 401  2492.242
 402  2525.356
 403  2440.574
 404  2980.117
 405  3078.018
 406  3853.351
 407  3836.417
 408  3754.035
 409  3496.851
 410  3216.477
 411  2896.324
 412  2809.036
 413  3347.117
 414  3705.894
 415  3956.389
 416  3007.509
 417  3055.979
 418  3379.841
 419  3338.365
 420  3531.64
 421  3859.392
 422  3921.965
 423  3545.684
 424  2979.219
 425  3503.347
 426  3816.502
 427  3436.139
 428  2914.032
 429  2725.523
 430  3267.753
 431  3737.664
 432  3716.618
 433  3470.62
 434  3762.723
 435  2976.093
 436  3114.194
 437  3616.415
 438  4003.266
 439  4436.836
 440  4159.136
 441  3395.337
 442  3958.901
 443  3917.798
 444  3324.807
 445  3337.99
 446  3530.146
 447  3768.209
 448  3807.204
 449  3676.603
 450  3355.376
 451  3445.897
 452  3930.708
 453  3296.615
 454  3920.857
 455  3807.241
 456  3752.268
 457  3845.737
 458  3380.088
 459  3346.666
 460  3014.924
 461  3590.554
 462  3656.975
 463  3458.797
 464  3393.873
 465  3231.036
 466  3150.278
 467  2900.62
 468  2839.116
 469  3597.707
 470  4155.814
 471  4578.091
 472  4200.157
 473  4291.868
 474  3497.658
 475  3213.355
 476  3239.425
 477  2753.21
 478  2529.1
 479  2384.502
 480  2072.349
 481  3474.489
 482  4181.415
 483  3386.551
 484  2683.483
 485  2674.725
 486  2784.198
 487  3904.851
 488  4411.743
 489  3984.162
 490  3475.911
 491  2996.081
 492  3617.908
 493  4084.032
 494  3809.947
 495  3568.723
 496  3687.89
 497  4351.011
 498  3783.013
 499  3262.16
 500  3582.958
 501  3716.301
 502  3101.456
 503  3356.786
 504  4347.84
 505  4693.873
 506  4175.981
 507  3861.37
 508  3984.769
 509  3815.405
 510  3810.138
 511  3632.911
