# Input file       =  1211772099.121053-PSRB0329-2ms-sampling-dd.dat
# Candidate        =  PSR_0332+5434
# Telescope        =  AR
# Epoch_topo       =  58269.140256030703
# Epoch_bary       =  N/A
# T_sample         =  0.002
# Data Folded      =  7208960
# Data Avg         =  4.94050969251969e-10
# Data StdDev      =  6.320097771397   
# Profile Bins     =  512
# Profile Avg      =  0.165169434519953
# Profile StdDev   =  749.937592488498 
# Reduced chi-sqr  =  0.716
# Prob(Noise)      <  1   (~0.0 sigma)
# P_topo (ms)      =  714.517768001519  +/- 4.8e-05
# P'_topo (s/s)    =  -0                +/- 2.58e-11
# P''_topo (s/s^2) =  0                 +/- 1.16e-14
# P_bary (ms)      =  N/A
# P'_bary (s/s)    =  N/A
# P''_bary (s/s^2) =  N/A
# P_orb (s)        =  N/A
# asin(i)/c (s)    =  N/A
# eccentricity     =  N/A
# w (rad)          =  N/A
# T_peri           =  N/A
######################################################
   0  312.4214
   1  7.836964
   2  153.7778
   3  292.4198
   4  31.12514
   5  187.4857
   6  213.824
   7  76.45325
   8  -83.08504
   9  -124.2348
  10  110.3206
  11  -81.46505
  12  370.7769
  13  274.4427
  14  754.4626
  15  679.733
  16  512.8795
  17  387.1758
  18  -57.16574
  19  -249.0872
  20  -527.1788
  21  179.9504
  22  249.0403
  23  283.6991
  24  293.5379
  25  -57.61238
  26  -209.5217
  27  -99.45368
  28  -123.777
  29  420.2389
  30  561.7069
  31  909.2458
  32  523.3925
  33  136.6215
  34  -283.2507
  35  -466.766
  36  -332.4838
  37  -94.34706
  38  73.20551
  39  507.3993
  40  505.1738
  41  -45.18649
  42  -245.6301
  43  -535.2495
  44  -98.83168
  45  85.94962
  46  211.1663
  47  864.0952
  48  1495.739
  49  1363.444
  50  906.8219
  51  674.7303
  52  1091.001
  53  1597.887
  54  1878.932
  55  1802.124
  56  1442.035
  57  852.0007
  58  -164.4178
  59  3.157362
  60  -37.12524
  61  500.4532
  62  276.1835
  63  788.4182
  64  1045.158
  65  839.261
  66  882.624
  67  202.2864
  68  57.93265
  69  530.6823
  70  358.7454
  71  355.7988
  72  436.3807
  73  552.8029
  74  -257.4428
  75  -7.623154
  76  218.0516
  77  362.3727
  78  163.0177
  79  297.2697
  80  538.5284
  81  426.368
  82  254.2301
  83  -187.2735
  84  -82.11108
  85  -462.6848
  86  -236.696
  87  -329.0454
  88  -68.94779
  89  -74.127
  90  -137.9575
  91  -148.6404
  92  -451.4977
  93  56.13427
  94  -217.8807
  95  189.5031
  96  623.1345
  97  604.8177
  98  369.5986
  99  276.1552
 100  -432.4048
 101  -107.9485
 102  -219.4141
 103  -335.2417
 104  -503.3919
 105  -70.06063
 106  -127.3114
 107  -555.0351
 108  -655.4329
 109  -139.0094
 110  56.04897
 111  -131.5948
 112  -128.7628
 113  316.6586
 114  967.5222
 115  393.7144
 116  401.8229
 117  -324.0299
 118  -516.8591
 119  -216.7464
 120  -76.34265
 121  8.171277
 122  401.3627
 123  -44.47332
 124  -357.5826
 125  -636.2859
 126  49.36341
 127  -162.3186
 128  5.086832
 129  182.2072
 130  623.7151
 131  215.8567
 132  -316.3636
 133  28.88725
 134  -359.3896
 135  136.2608
 136  -661.0519
 137  -89.34832
 138  344.5362
 139  524.1844
 140  262.2664
 141  -605.996
 142  -531.0505
 143  -233.0857
 144  319.6738
 145  114.4852
 146  314.9934
 147  559.3981
 148  62.76371
 149  -604.2044
 150  -516.7883
 151  -526.7509
 152  -340.0719
 153  -493.9522
 154  -283.8777
 155  -394.3575
 156  -12.62644
 157  -493.1078
 158  -620.1716
 159  -595.8284
 160  -218.7623
 161  -519.1172
 162  -455.7948
 163  -592.0772
 164  -514.7628
 165  -449.6514
 166  -893.4348
 167  -889.704
 168  -531.4426
 169  -403.8214
 170  -356.6073
 171  -240.6942
 172  -349.9642
 173  -809.6934
 174  -1044.005
 175  -654.0112
 176  -677.1171
 177  201.5471
 178  385.1794
 179  413.7811
 180  440.1714
 181  -47.97795
 182  -264.9773
 183  -907.3489
 184  -608.522
 185  -373.9138
 186  -193.7137
 187  -119.1111
 188  12.67603
 189  -322.47
 190  -274.0401
 191  -595.0356
 192  -330.0437
 193  -432.4666
 194  -409.7722
 195  -360.1031
 196  -324.4982
 197  0.6948631
 198  185.2658
 199  -143.1028
 200  -424.4597
 201  -836.6373
 202  -544.298
 203  -607.6248
 204  86.98297
 205  386.4628
 206  -131.1385
 207  -589.0729
 208  -696.762
 209  -239.2606
 210  -652.5875
 211  -444.0597
 212  -189.7872
 213  100.5873
 214  -296.9198
 215  -777.8231
 216  -441.1063
 217  -200.55
 218  -341.5743
 219  -728.4225
 220  -778.2145
 221  -271.002
 222  -37.51544
 223  -264.0783
 224  -52.92162
 225  -298.9164
 226  303.7998
 227  331.4205
 228  63.23887
 229  -63.95415
 230  198.4618
 231  552.3398
 232  207.4657
 233  -115.2816
 234  -353.643
 235  -523.3375
 236  -38.75547
 237  -127.2536
 238  329.497
 239  -92.27586
 240  -221.525
 241  -350.8291
 242  -298.7502
 243  485.6352
 244  533.8933
 245  621.3502
 246  208.8458
 247  67.36017
 248  -512.8848
 249  -50.83406
 250  -215.5287
 251  492.4301
 252  239.9381
 253  115.7335
 254  -221.3199
 255  -591.8532
 256  -1094.219
 257  -1118.171
 258  -446.6213
 259  -201.0394
 260  -58.39511
 261  415.2285
 262  329.8755
 263  -275.2728
 264  -26.12857
 265  -346.7541
 266  -432.3773
 267  -421.2626
 268  -514.1569
 269  -656.9203
 270  -321.3637
 271  189.3409
 272  51.01839
 273  -694.5038
 274  -729.4691
 275  -660.0092
 276  -765.0776
 277  -673.249
 278  -59.71884
 279  313.9875
 280  89.50646
 281  -331.8301
 282  -892.7533
 283  -628.63
 284  -299.4833
 285  -171.8172
 286  26.19057
 287  360.1534
 288  113.7036
 289  -275.5543
 290  -867.871
 291  -884.3168
 292  -431.1937
 293  -412.728
 294  57.25502
 295  409.8466
 296  403.4553
 297  -101.5274
 298  -194.2808
 299  -878.0416
 300  -646.2416
 301  -309.0719
 302  -55.98754
 303  87.73956
 304  624.2804
 305  392.1303
 306  -343.3961
 307  -764.6558
 308  -467.4709
 309  -616.2381
 310  120.8089
 311  583.6828
 312  585.8566
 313  463.8449
 314  -145.0249
 315  -69.93778
 316  -639.117
 317  -685.1689
 318  -330.5097
 319  -269.0491
 320  -40.84041
 321  314.93
 322  -116.7746
 323  -790.5627
 324  -796.9886
 325  -37.97065
 326  370.5602
 327  824.2617
 328  579.3872
 329  762.1067
 330  271.6667
 331  -290.497
 332  -486.373
 333  -128.8392
 334  518.9295
 335  287.7043
 336  -139.2182
 337  384.4495
 338  191.3369
 339  -432.1344
 340  -308.489
 341  -57.14129
 342  840.459
 343  290.3844
 344  311.9151
 345  460.2957
 346  580.2795
 347  267.2299
 348  126.0221
 349  297.509
 350  260.1328
 351  395.5042
 352  396.4615
 353  602.2379
 354  587.3342
 355  394.3249
 356  -306.2081
 357  -11.36148
 358  199.3515
 359  626.5525
 360  905.741
 361  1316.324
 362  994.8264
 363  600.6469
 364  268.1125
 365  -450.9387
 366  -562.8833
 367  -235.4515
 368  -48.26399
 369  383.6736
 370  410.6322
 371  73.94261
 372  -224.4969
 373  -332.9281
 374  154.1778
 375  112.1034
 376  197.4853
 377  88.12634
 378  576.6508
 379  482.7971
 380  89.40876
 381  -306.2465
 382  -316.11
 383  -553.9359
 384  -38.88274
 385  391.4579
 386  558.3871
 387  318.008
 388  59.70564
 389  8.946177
 390  -397.0699
 391  -2.836537
 392  72.54015
 393  918.3622
 394  800.7086
 395  398.2101
 396  36.93021
 397  -87.9862
 398  -269.5003
 399  79.08474
 400  -57.84616
 401  -253.6371
 402  -434.2537
 403  -162.5033
 404  75.52943
 405  -546.359
 406  -123.0036
 407  -63.85682
 408  -191.5501
 409  -145.0668
 410  265.1542
 411  443.6103
 412  588.6049
 413  448.5757
 414  -152.0499
 415  -118.8149
 416  10.58585
 417  -120.7584
 418  85.57339
 419  -121.2619
 420  34.71947
 421  -471.6649
 422  -512.5443
 423  -295.3177
 424  -318.0016
 425  41.85032
 426  170.745
 427  576.0574
 428  290.4213
 429  -79.11686
 430  -103.2005
 431  25.73385
 432  -567.4424
 433  -164.6676
 434  -302.3666
 435  134.688
 436  277.642
 437  337.169
 438  -134.9109
 439  -348.0505
 440  -251.8329
 441  4.665334
 442  -356.4063
 443  535.4872
 444  546.4316
 445  402.4841
 446  -114.9437
 447  -757.4583
 448  -498.364
 449  -556.772
 450  -535.0871
 451  -400.7523
 452  57.89471
 453  195.8908
 454  121.8444
 455  -1.288756
 456  -143.8138
 457  -219.1049
 458  -34.68307
 459  342.2852
 460  706.039
 461  636.7272
 462  184.0652
 463  440.5572
 464  -163.4666
 465  -574.1432
 466  -221.9679
 467  445.6158
 468  431.8189
 469  751.4473
 470  804.8358
 471  271.2751
 472  -694.3842
 473  -119.8527
 474  521.6729
 475  672.0518
 476  565.0112
 477  862.6866
 478  575.9476
 479  -98.54076
 480  -46.92303
 481  -363.0484
 482  28.42292
 483  -229.2552
 484  -265.3834
 485  -10.69532
 486  -8.90207
 487  -118.1885
 488  -135.6942
 489  44.43547
 490  77.26276
 491  -289.0384
 492  46.87025
 493  333.3518
 494  448.3264
 495  475.6073
 496  297.5169
 497  -149.7857
 498  -714.2814
 499  -340.3529
 500  -305.2991
 501  161.5821
 502  452.9503
 503  453.2239
 504  -429.8508
 505  -500.0141
 506  -333.8228
 507  -45.90644
 508  179.5262
 509  493.9361
 510  750.338
 511  886.193
