# Input file       =  1211599777.101234_cleaned.dat
# Candidate        =  PSR_0332+5434
# Telescope        =  AR
# Epoch_topo       =  58267.145788208727
# Epoch_bary       =  N/A
# T_sample         =  0.002
# Data Folded      =  7208960
# Data Avg         =  0.254971231049223
# Data StdDev      =  5.03433572331578 
# Profile Bins     =  256
# Profile Avg      =  7179.97407224893 
# Profile StdDev   =  844.808936203627 
# Reduced chi-sqr  =  1.746
# Prob(Noise)      <  1.66e-12   (~7.0 sigma)
# P_topo (ms)      =  714.519713939687  +/- 3.02e-05
# P'_topo (s/s)    =  -0                +/- 1.62e-11
# P''_topo (s/s^2) =  0                 +/- 7.29e-15
# P_bary (ms)      =  N/A
# P'_bary (s/s)    =  N/A
# P''_bary (s/s^2) =  N/A
# P_orb (s)        =  N/A
# asin(i)/c (s)    =  N/A
# eccentricity     =  N/A
# w (rad)          =  N/A
# T_peri           =  N/A
######################################################
   0  7637.426
   1  8863.698
   2  7384.719
   3  5912.974
   4  6368.139
   5  8207.665
   6  7434.273
   7  5793.74
   8  5613.716
   9  8281.614
  10  8380.547
  11  6676.425
  12  6543.266
  13  8325.04
  14  7796.292
  15  6945.603
  16  6142.301
  17  8296.873
  18  7566.382
  19  7812.607
  20  7235.312
  21  7677.915
  22  7283.184
  23  8449.857
  24  7520.62
  25  7770.853
  26  7667.714
  27  7469.275
  28  7289.622
  29  8751.197
  30  8202.966
  31  6785.763
  32  6839.48
  33  8455.33
  34  8034.803
  35  7365.394
  36  7523.304
  37  7877.17
  38  8845.426
  39  7362.641
  40  6079.278
  41  7406.01
  42  8874.73
  43  6954.89
  44  5991.312
  45  5727.429
  46  8552.202
  47  8067.074
  48  5983.459
  49  5090.221
  50  7740.014
  51  7735.908
  52  7117.301
  53  6050.659
  54  7699.163
  55  8196.395
  56  7223.893
  57  6011.895
  58  7284.016
  59  8146.827
  60  8515.765
  61  7616.156
  62  7965.702
  63  7670.046
  64  6874.91
  65  7063.621
  66  7197.012
  67  8121.526
  68  7647.248
  69  6763.19
  70  7094.519
  71  8786.005
  72  7104.596
  73  7125.208
  74  8042.088
  75  8771.36
  76  7788.072
  77  7388.786
  78  6725.622
  79  8571.583
  80  7320.182
  81  6299.473
  82  5918.402
  83  8681.268
  84  7260.889
  85  6584.298
  86  5455.849
  87  7028.594
  88  7649.069
  89  6035.581
  90  4721.388
  91  7368.599
  92  8071.299
  93  7078.793
  94  5892.775
  95  6542.389
  96  7206.365
  97  6562.073
  98  5365.518
  99  5819.285
 100  7827.231
 101  7629.697
 102  6855.088
 103  5655.392
 104  7592.938
 105  7182.862
 106  6920.671
 107  7010.989
 108  8006.068
 109  7212.903
 110  7365.53
 111  7199.244
 112  8242.656
 113  6720.902
 114  6717.698
 115  6188.604
 116  7623.89
 117  6931.054
 118  7117.174
 119  6271.088
 120  8365.963
 121  7908.013
 122  6193.1
 123  6226.847
 124  8645.385
 125  7992.125
 126  6960.126
 127  6668.791
 128  7201.196
 129  8410.653
 130  6809.434
 131  5799.84
 132  6407.955
 133  7960.732
 134  6307.014
 135  6311.514
 136  6706.628
 137  8100.773
 138  7283.629
 139  6181.4
 140  6011.196
 141  7269.013
 142  8376.998
 143  7625.215
 144  6197.102
 145  7788.205
 146  7619.007
 147  8501.688
 148  8007.141
 149  10778.02
 150  10791.83
 151  8636.332
 152  7632.476
 153  8020.195
 154  7309.176
 155  7136.533
 156  6922.456
 157  8406.151
 158  7646.341
 159  6646.234
 160  6969.036
 161  8512.025
 162  8017.368
 163  6928.969
 164  6574.438
 165  7964.304
 166  7757.1
 167  6272.928
 168  7060.807
 169  6188.02
 170  7953.339
 171  6402.951
 172  5343.417
 173  5655.192
 174  8131.719
 175  6869.35
 176  5798.155
 177  5530.685
 178  7454.427
 179  6738.531
 180  5967.74
 181  4585.317
 182  6578.544
 183  6737.687
 184  6705.887
 185  5282.4
 186  6713.789
 187  7135.9
 188  6563.636
 189  5314.138
 190  7442.221
 191  7710.631
 192  6860.18
 193  6841.66
 194  7274.377
 195  6943.589
 196  6141.429
 197  6036.428
 198  6614.086
 199  7243.778
 200  6550.134
 201  6181.259
 202  6582.714
 203  8074.783
 204  6515.377
 205  5276.873
 206  6536.16
 207  8419.215
 208  7070.754
 209  6178.834
 210  6575.706
 211  8595.037
 212  7221.605
 213  5516.567
 214  5355.033
 215  7462.59
 216  6990.59
 217  6850.265
 218  5639.974
 219  6895.926
 220  8133.987
 221  6419.428
 222  5043.143
 223  6738.229
 224  8467.914
 225  7582.819
 226  6250.782
 227  8187.613
 228  8011.017
 229  7425.42
 230  6375.305
 231  6649.505
 232  8591.39
 233  8349.908
 234  6898.619
 235  7190.719
 236  8393.355
 237  7296.737
 238  7372.751
 239  7012.124
 240  8638.212
 241  7929.367
 242  8515.178
 243  6855.097
 244  8035.173
 245  6949.221
 246  7406.26
 247  7003.796
 248  8225.712
 249  8214.741
 250  7130.825
 251  6594.335
 252  7719.578
 253  7605.78
 254  6339.156
 255  5161.586
