# Input file       =  1211872896.115322-PSRB0329-2ms-sampling-dd.dat
# Candidate        =  PSR_0332+5434
# Telescope        =  AR
# Epoch_topo       =  58270.306887908824
# Epoch_bary       =  N/A
# T_sample         =  0.002
# Data Folded      =  7340032
# Data Avg         =  -1.2723983217064e-09
# Data StdDev      =  16.528052464726  
# Profile Bins     =  512
# Profile Avg      =  0.46721027113301 
# Profile StdDev   =  1978.95390699614 
# Reduced chi-sqr  =  1.063
# Prob(Noise)      <  0.157   (~1.0 sigma)
# P_topo (ms)      =  714.516643280556  +/- 0.000101
# P'_topo (s/s)    =  -0                +/- 5.35e-11
# P''_topo (s/s^2) =  0                 +/- 2.36e-14
# P_bary (ms)      =  N/A
# P'_bary (s/s)    =  N/A
# P''_bary (s/s^2) =  N/A
# P_orb (s)        =  N/A
# asin(i)/c (s)    =  N/A
# eccentricity     =  N/A
# w (rad)          =  N/A
# T_peri           =  N/A
######################################################
   0  213.1691
   1  893.5881
   2  309.3379
   3  -659.756
   4  -702.5173
   5  -2205.832
   6  -2188.44
   7  -835.098
   8  185.1481
   9  504.7213
  10  688.1757
  11  -1043.795
  12  -2495.938
  13  -2591.249
  14  -1506.728
  15  -1222.947
  16  -1894.911
  17  -120.8974
  18  190.5446
  19  71.45093
  20  276.2172
  21  -1412.013
  22  -1087.612
  23  -2710.24
  24  -1944.687
  25  -2939.387
  26  -2602.989
  27  -2464.95
  28  -677.3452
  29  -624.6149
  30  -150.2197
  31  -1114.655
  32  -2538.213
  33  -2818.605
  34  -2887.944
  35  -1667.015
  36  -466.137
  37  -164.3558
  38  -1387.411
  39  -273.0775
  40  1087.538
  41  2120.689
  42  3315.393
  43  457.9556
  44  903.1313
  45  1900.857
  46  2925.301
  47  1177.203
  48  936.5886
  49  -1190.305
  50  -136.3284
  51  132.9007
  52  1034.091
  53  932.4999
  54  -1753.125
  55  -626.0341
  56  157.6226
  57  -99.43033
  58  -433.3587
  59  381.0084
  60  -535.7197
  61  -436.053
  62  -723.021
  63  -672.5767
  64  -479.6971
  65  -1107.401
  66  402.2272
  67  -203.0754
  68  -31.44669
  69  73.80328
  70  -1957.537
  71  196.074
  72  342.9471
  73  -474.2584
  74  -381.2749
  75  -1607.416
  76  -731.641
  77  996.4966
  78  -625.934
  79  -786.1744
  80  -1675.228
  81  467.5873
  82  2896.317
  83  3494.442
  84  2006.782
  85  -872.6982
  86  -2698.59
  87  -5.895301
  88  -873.8671
  89  309.9055
  90  988.2433
  91  580.274
  92  -575.3226
  93  -1305.478
  94  -3016.178
  95  -2280.453
  96  -1905.531
  97  817.3409
  98  2788.59
  99  1247.639
 100  480.4775
 101  -1435.819
 102  -1170.453
 103  -1196.42
 104  -1104.847
 105  -1057.19
 106  94.45685
 107  1410.185
 108  512.6577
 109  20.1611
 110  -1074.602
 111  -1017.825
 112  -256.067
 113  433.5525
 114  311.3215
 115  -758.3101
 116  546.9609
 117  -44.94022
 118  721.7874
 119  1601.926
 120  1414.383
 121  344.5235
 122  -798.1909
 123  455.9303
 124  2367.95
 125  1662.602
 126  963.3193
 127  233.4862
 128  863.1281
 129  -252.3993
 130  -1771.154
 131  -1915.919
 132  -1068.79
 133  -836.6617
 134  1095.533
 135  2097.216
 136  2337.804
 137  1563.307
 138  432.5635
 139  673.7538
 140  2528.296
 141  4789.183
 142  3403.846
 143  792.8167
 144  -1793.558
 145  -126.8852
 146  505.8559
 147  738.757
 148  1747.204
 149  1842.265
 150  -174.0773
 151  -1088.154
 152  -1741.092
 153  -2355.025
 154  -2761.588
 155  -978.735
 156  -46.79608
 157  -137.7932
 158  1249.937
 159  1418.924
 160  -198.9611
 161  -261.7342
 162  -877.4854
 163  -706.1216
 164  -638.4372
 165  -366.4248
 166  1113.372
 167  1348.021
 168  -1397.719
 169  -2343.38
 170  -2354.969
 171  -1269.286
 172  -1781.498
 173  -1017.21
 174  -651.4019
 175  842.8938
 176  530.8006
 177  1349.555
 178  2715.342
 179  1744.229
 180  1500.198
 181  -587.882
 182  -1071.054
 183  -1249.138
 184  -776.2673
 185  1356.834
 186  2354.999
 187  1796.44
 188  1340.743
 189  1538.12
 190  -1718.151
 191  -656.9169
 192  1622.777
 193  3011.388
 194  2552.206
 195  821.077
 196  -832.0665
 197  249.2683
 198  2619.835
 199  2730.774
 200  1104.195
 201  1183.031
 202  2014.936
 203  1588.07
 204  1175.062
 205  -260.4999
 206  -698.5811
 207  132.2126
 208  454.3649
 209  -798.1917
 210  -435.2271
 211  1031.561
 212  1148.179
 213  2398.181
 214  2295.394
 215  347.2079
 216  -902.1609
 217  1547.035
 218  2906.164
 219  3951.5
 220  2678.83
 221  244.327
 222  581.3223
 223  2319.478
 224  1656.227
 225  351.3851
 226  2119.192
 227  2053.835
 228  1836.237
 229  416.604
 230  777.9824
 231  1722.313
 232  167.9414
 233  -786.5414
 234  295.211
 235  1310.876
 236  1059.934
 237  1518.008
 238  2880.238
 239  4174.744
 240  446.0508
 241  1391.141
 242  1536.983
 243  1826.799
 244  2433.459
 245  1939.669
 246  695.5179
 247  1028.213
 248  1679.115
 249  1671.449
 250  1272.162
 251  406.6093
 252  1755.891
 253  2023.735
 254  2558.11
 255  434.7073
 256  64.96302
 257  932.3966
 258  526.4765
 259  -1225.015
 260  -393.3574
 261  558.9884
 262  466.833
 263  458.1309
 264  1375.484
 265  693.1277
 266  412.8742
 267  -749.6179
 268  -2128.658
 269  -2350.333
 270  -1153.456
 271  1017.576
 272  607.0095
 273  273.8838
 274  226.4641
 275  -695.6437
 276  -1030.142
 277  580.4464
 278  1986.122
 279  659.15
 280  1183.049
 281  838.2564
 282  2109.429
 283  532.9163
 284  263.7054
 285  647.5281
 286  329.4088
 287  -902.2219
 288  298.0116
 289  2162.554
 290  -92.5367
 291  -2384.798
 292  -2586.159
 293  -1939.146
 294  -1148.621
 295  -709.2164
 296  92.7863
 297  -993.6153
 298  -2100.659
 299  -3905.348
 300  -1753.507
 301  -154.2902
 302  467.5637
 303  297.668
 304  -87.43321
 305  -1216.531
 306  -2848.46
 307  -2322.889
 308  3219.086
 309  3471.599
 310  1695.147
 311  899.0436
 312  300.7801
 313  2365.854
 314  2181.875
 315  2412.076
 316  484.9395
 317  -747.1596
 318  353.6423
 319  1494.309
 320  -232.3364
 321  -618.5659
 322  -2023.948
 323  -1272.024
 324  1719.293
 325  1454.109
 326  127.4564
 327  -373.0317
 328  616.9279
 329  -859.874
 330  -270.9564
 331  -638.2784
 332  -2132.873
 333  -602.977
 334  1439.467
 335  2399.132
 336  922.3307
 337  -38.58218
 338  -1629.855
 339  -1944.942
 340  -442.4808
 341  511.2702
 342  -107.2583
 343  -428.5835
 344  254.7917
 345  -46.62743
 346  1473.74
 347  839.735
 348  764.0222
 349  -631.2452
 350  640.429
 351  -8.72277
 352  -236.7018
 353  -657.074
 354  1233.243
 355  1230.776
 356  270.0058
 357  232.8294
 358  1914.347
 359  580.57
 360  1855.602
 361  1250.092
 362  2001.71
 363  1966.725
 364  137.4507
 365  49.99989
 366  878.3312
 367  1705.442
 368  298.6552
 369  -148.6989
 370  1116.219
 371  97.27296
 372  575.0948
 373  1535.399
 374  927.6337
 375  293.5049
 376  796.9156
 377  784.7253
 378  387.9947
 379  -147.5589
 380  -266.4031
 381  -94.40033
 382  -1150.699
 383  -194.8065
 384  -146.6179
 385  -467.7848
 386  -1468.887
 387  -789.1762
 388  3.924267
 389  -1208.375
 390  -1057.188
 391  -1614.855
 392  -336.2372
 393  1197.485
 394  1747.758
 395  999.4474
 396  73.15882
 397  -334.8344
 398  -86.05416
 399  0.7838836
 400  -356.6189
 401  -1255.876
 402  704.8502
 403  691.2858
 404  503.824
 405  -1285.497
 406  -3225.225
 407  -2987.607
 408  -2103.75
 409  -405.3127
 410  1364.406
 411  -81.98296
 412  -1521.289
 413  -2348.698
 414  -1745.682
 415  54.20308
 416  1624.028
 417  1342.414
 418  -113.2497
 419  -1413.586
 420  -1637.815
 421  -1348.161
 422  -989.1944
 423  -2742.339
 424  -2220.621
 425  -806.7898
 426  -20.86332
 427  -345.6848
 428  55.35521
 429  -1916.328
 430  -2180.596
 431  -1406.578
 432  1338.779
 433  443.2515
 434  342.694
 435  -1453.336
 436  -1355.271
 437  -2005.911
 438  971.0018
 439  2462.992
 440  2462.91
 441  1381.019
 442  813.6774
 443  -875.7367
 444  1506.651
 445  1566.79
 446  765.6346
 447  -322.1618
 448  -666.316
 449  -70.819
 450  -539.5353
 451  296.8559
 452  1516.944
 453  649.7985
 454  807.5362
 455  677.6172
 456  2108.167
 457  3174.126
 458  2845.456
 459  664.7217
 460  -3077.269
 461  -3731.061
 462  -773.8687
 463  189.7036
 464  960.0481
 465  -792.3912
 466  -1336.222
 467  -3001.051
 468  -1525.2
 469  357.8127
 470  -628.95
 471  -464.1099
 472  -1051.597
 473  -1304.319
 474  -1146.615
 475  -1692.904
 476  -2828.518
 477  -4386.455
 478  -3273.922
 479  -1945.395
 480  -1444.532
 481  -2134.096
 482  -2470.988
 483  -1112.706
 484  306.1124
 485  -1107.726
 486  -1064.371
 487  -1346.502
 488  -1040.959
 489  -1118.749
 490  -1861.952
 491  -3122.165
 492  -422.0293
 493  -89.00251
 494  -364.8901
 495  -956.1722
 496  -2957.22
 497  -3453.33
 498  -2609.227
 499  -1092.695
 500  -358.0404
 501  -304.22
 502  -2325.24
 503  -2190.554
 504  -1143.06
 505  -158.2778
 506  552.5207
 507  -1035.764
 508  -1211.698
 509  -621.0786
 510  971.0992
 511  1132.906
