# Input file       =  1211801664.116601_cleaned.dat
# Candidate        =  PSR_0332+5434
# Telescope        =  AR
# Epoch_topo       =  58269.482443479181
# Epoch_bary       =  N/A
# T_sample         =  0.002
# Data Folded      =  7340032
# Data Avg         =  0.0161189153321566
# Data StdDev      =  1.00002847709324 
# Profile Bins     =  512
# Profile Avg      =  231.055375201119 
# Profile StdDev   =  119.736446025606 
# Reduced chi-sqr  =  1.443
# Prob(Noise)      <  1.86e-10   (~6.3 sigma)
# P_topo (ms)      =  714.517780258355  +/- 0.000243
# P'_topo (s/s)    =  -0                +/- 1.28e-10
# P''_topo (s/s^2) =  0                 +/- 5.65e-14
# P_bary (ms)      =  N/A
# P'_bary (s/s)    =  N/A
# P''_bary (s/s^2) =  N/A
# P_orb (s)        =  N/A
# asin(i)/c (s)    =  N/A
# eccentricity     =  N/A
# w (rad)          =  N/A
# T_peri           =  N/A
######################################################
   0  322.6772
   1  67.55305
   2  169.8981
   3  352.653
   4  440.2242
   5  280.0167
   6  289.4578
   7  323.375
   8  263.5706
   9  268.8248
  10  204.2706
  11  199.6134
  12  254.8059
  13  325.5927
  14  317.4954
  15  184.3287
  16  253.2948
  17  337.0028
  18  236.1522
  19  96.47681
  20  198.3321
  21  272.0862
  22  203.6779
  23  244.7657
  24  280.3066
  25  239.2654
  26  261.4585
  27  217.4506
  28  308.0572
  29  339.1785
  30  327.2472
  31  248.2608
  32  109.0588
  33  253.6161
  34  190.9753
  35  18.31192
  36  11.06006
  37  166.3992
  38  254.8561
  39  202.3988
  40  147.1973
  41  158.4322
  42  291.4706
  43  266.3212
  44  274.9596
  45  168.3158
  46  162.4754
  47  196.7006
  48  126.1783
  49  219.7934
  50  188.7117
  51  248.7893
  52  270.1157
  53  225.0419
  54  215.4187
  55  323.1134
  56  99.32532
  57  113.2381
  58  23.49741
  59  54.94632
  60  191.993
  61  343.3726
  62  233.2479
  63  130.5757
  64  127.5526
  65  239.9786
  66  155.0665
  67  159.961
  68  205.5483
  69  167.9584
  70  91.44864
  71  12.18169
  72  138.7444
  73  171.7136
  74  238.6708
  75  306.5528
  76  352.7956
  77  296.0485
  78  142.1239
  79  211.6967
  80  271.4196
  81  289.3181
  82  308.9286
  83  245.9085
  84  186.0138
  85  221.0914
  86  203.1548
  87  151.7407
  88  179.2571
  89  228.5273
  90  119.5636
  91  160.7403
  92  209.1371
  93  268.4784
  94  369.0678
  95  227.1228
  96  121.394
  97  50.51355
  98  115.7578
  99  92.77906
 100  172.2271
 101  286.6085
 102  208.3322
 103  241.1824
 104  240.213
 105  186.8978
 106  162.8402
 107  327.3961
 108  404.2846
 109  193.6278
 110  211.4859
 111  306.1842
 112  162.411
 113  100.2296
 114  212.5998
 115  379.3495
 116  446.5549
 117  252.657
 118  182.7935
 119  142.4556
 120  213.2587
 121  217.4491
 122  241.2244
 123  248.914
 124  191.0583
 125  266.1365
 126  213.044
 127  235.654
 128  319.0636
 129  278.9085
 130  198.5708
 131  171.5091
 132  311.4661
 133  243.8161
 134  204.4306
 135  245.0402
 136  276.1282
 137  218.0548
 138  302.4042
 139  310.6833
 140  112.5118
 141  91.41872
 142  141.5241
 143  149.4073
 144  163.2208
 145  192.7425
 146  215.7572
 147  63.31176
 148  238.9468
 149  177.2365
 150  191.7327
 151  190.0806
 152  224.0973
 153  227.0329
 154  221.0062
 155  197.5941
 156  249.3926
 157  368.1689
 158  282.1258
 159  179.0341
 160  229.0266
 161  264.7148
 162  232.6908
 163  228.3212
 164  186.1045
 165  156.0347
 166  231.1581
 167  337.5533
 168  284.4468
 169  328.5098
 170  434.4264
 171  309.0949
 172  218.5334
 173  188.2211
 174  193.1084
 175  270.2672
 176  279.6338
 177  455.8859
 178  406.0545
 179  278.3725
 180  222.5979
 181  382.4296
 182  308.6685
 183  250.8114
 184  346.2176
 185  125.8835
 186  162.8544
 187  265.1984
 188  255.3024
 189  229.9308
 190  259.1803
 191  233.0942
 192  229.0789
 193  112.2268
 194  113.5585
 195  107.3026
 196  141.0766
 197  210.8389
 198  224.018
 199  280.8376
 200  175.3299
 201  178.4181
 202  334.0138
 203  347.5271
 204  278.1911
 205  116.5294
 206  242.7607
 207  356.2968
 208  122.5234
 209  230.844
 210  402.9271
 211  325.6905
 212  252.4753
 213  255.3601
 214  196.0069
 215  178.3964
 216  263.161
 217  200.444
 218  88.49311
 219  115.9663
 220  175.778
 221  254.5658
 222  323.4372
 223  263.6594
 224  206.8821
 225  409.3857
 226  382.6621
 227  281.7613
 228  235.7661
 229  144.5721
 230  183.5144
 231  342.1439
 232  309.9224
 233  263.7609
 234  285.9826
 235  232.7205
 236  241.4417
 237  254.1699
 238  276.404
 239  203.1657
 240  292.4969
 241  268.7092
 242  263.5791
 243  200.6958
 244  290.0982
 245  193.4817
 246  281.4775
 247  341.66
 248  309.2131
 249  333.0988
 250  341.3702
 251  217.0676
 252  234.4001
 253  319.6371
 254  213.0086
 255  127.1352
 256  272.3049
 257  261.386
 258  256.1336
 259  187.7873
 260  121.4627
 261  172.0801
 262  245.2632
 263  265.6488
 264  193.9207
 265  198.0917
 266  86.14381
 267  217.4139
 268  194.9391
 269  138.34
 270  266.4099
 271  211.1773
 272  213.0225
 273  269.1086
 274  231.1286
 275  221.3448
 276  339.5743
 277  499.5088
 278  557.7915
 279  833.6841
 280  941.5344
 281  958.3685
 282  803.4103
 283  745.4453
 284  496.8822
 285  227.4798
 286  272.5586
 287  233.4313
 288  265.6309
 289  329.8658
 290  272.5426
 291  242.5997
 292  148.5493
 293  289.8566
 294  347.378
 295  271.2737
 296  389.1611
 297  465.5611
 298  412.1409
 299  333.3797
 300  326.2726
 301  297.4472
 302  88.05207
 303  185.7343
 304  280.4961
 305  284.4683
 306  239.775
 307  122.2529
 308  66.50635
 309  168.1903
 310  306.6921
 311  237.3449
 312  104.9376
 313  228.9079
 314  356.0213
 315  227.6622
 316  228.1668
 317  206.7186
 318  279.1475
 319  291.6978
 320  215.3673
 321  33.55758
 322  40.77725
 323  295.3141
 324  253.9504
 325  204.7607
 326  144.3932
 327  159.7763
 328  228.9342
 329  215.0604
 330  257.7677
 331  249.6824
 332  259.2548
 333  128.043
 334  108.7234
 335  218.2123
 336  269.5269
 337  262.1596
 338  214.6536
 339  269.1108
 340  272.2881
 341  288.5242
 342  335.9776
 343  206.4571
 344  123.1374
 345  144.5669
 346  198.3756
 347  199.1033
 348  167.5086
 349  337.679
 350  243.23
 351  235.2391
 352  410.2309
 353  359.1992
 354  199.5744
 355  184.2575
 356  177.3452
 357  215.1078
 358  133.8117
 359  124.4486
 360  222.5108
 361  296.8193
 362  295.125
 363  308.0276
 364  311.2024
 365  314.0171
 366  173.233
 367  142.0526
 368  245.0437
 369  195.1417
 370  139.8564
 371  112.5635
 372  74.51791
 373  159.6506
 374  256.5319
 375  248.5293
 376  231.1454
 377  229.7478
 378  156.7126
 379  207.3074
 380  181.5515
 381  151.0396
 382  229.843
 383  194.0006
 384  175.207
 385  166.3761
 386  239.3211
 387  291.0524
 388  212.7316
 389  146.8677
 390  186.6663
 391  114.2719
 392  137.3877
 393  138.622
 394  192.0536
 395  225.8131
 396  207.3089
 397  313.2544
 398  193.8119
 399  166.298
 400  177.4534
 401  158.7251
 402  204.9588
 403  294.0461
 404  244.6777
 405  279.6575
 406  295.47
 407  209.5782
 408  336.41
 409  288.4829
 410  103.8434
 411  194.5721
 412  174.8098
 413  177.8219
 414  253.7267
 415  282.1644
 416  258.1004
 417  62.93514
 418  66.45307
 419  203.0792
 420  92.33115
 421  127.167
 422  238.9424
 423  280.6796
 424  295.5467
 425  272.7483
 426  194.1308
 427  293.3667
 428  299.5359
 429  280.2614
 430  203.7711
 431  142.994
 432  61.41569
 433  222.9718
 434  337.2959
 435  133.5455
 436  93.47636
 437  130.5855
 438  203.6015
 439  189.0621
 440  106.7063
 441  124.79
 442  193.4911
 443  255.9563
 444  192.5035
 445  154.7652
 446  115.9754
 447  88.61808
 448  129.1801
 449  202.2937
 450  116.3287
 451  138.7256
 452  169.2355
 453  226.5961
 454  132.1229
 455  35.45703
 456  251.3963
 457  301.1744
 458  206.7631
 459  119.082
 460  221.577
 461  219.1066
 462  135.804
 463  286.1151
 464  252.3277
 465  221.4738
 466  211.8415
 467  243.4874
 468  249.3784
 469  317.0278
 470  233.9394
 471  22.83018
 472  -22.70289
 473  52.36152
 474  100.8589
 475  196.7909
 476  151.556
 477  122.7965
 478  149.5066
 479  105.5393
 480  135.9739
 481  219.67
 482  140.2082
 483  189.5682
 484  361.4363
 485  382.6153
 486  206.6654
 487  260.3431
 488  118.6206
 489  132.2314
 490  232.1405
 491  191.1485
 492  309.3037
 493  345.3029
 494  359.7004
 495  217.674
 496  291.9164
 497  280.0716
 498  237.2562
 499  144.69
 500  153.1156
 501  179.9812
 502  288.2384
 503  360.0692
 504  373.802
 505  287.7506
 506  231.104
 507  324.2297
 508  375.44
 509  275.2414
 510  182.7057
 511  241.2876
