# Input file       =  1211801664.116601_cleaned.dat
# Candidate        =  PSR_0332+5434
# Telescope        =  AR
# Epoch_topo       =  58269.482443479181
# Epoch_bary       =  N/A
# T_sample         =  0.002
# Data Folded      =  7340032
# Data Avg         =  0.0562928287877838
# Data StdDev      =  2.86646676483994 
# Profile Bins     =  256
# Profile Avg      =  1613.91820923847 
# Profile StdDev   =  485.373324876695 
# Reduced chi-sqr  =  1.382
# Prob(Noise)      <  5.11e-05   (~3.9 sigma)
# P_topo (ms)      =  714.517780250234  +/- 0.000295
# P'_topo (s/s)    =  -0                +/- 1.56e-10
# P''_topo (s/s^2) =  0                 +/- 6.87e-14
# P_bary (ms)      =  N/A
# P'_bary (s/s)    =  N/A
# P''_bary (s/s^2) =  N/A
# P_orb (s)        =  N/A
# asin(i)/c (s)    =  N/A
# eccentricity     =  N/A
# w (rad)          =  N/A
# T_peri           =  N/A
######################################################
   0  1999.429
   1  1865.094
   2  1457.529
   3  1200.347
   4  1987.824
   5  2138.706
   6  1808.718
   7  2098.116
   8  1457.797
   9  1486.145
  10  1543.716
  11  2274.37
  12  1798.377
  13  1756.831
  14  1432.972
  15  1833.732
  16  1868.687
  17  1848.053
  18  1408.236
  19  1686.238
  20  1519.21
  21  1810.763
  22  1505.424
  23  2028.724
  24  1955.462
  25  1354.779
  26  872.4761
  27  758.6886
  28  1783.806
  29  1364.032
  30  1896.836
  31  1636.199
  32  1329.979
  33  1353.139
  34  1472.633
  35  1706.272
  36  1673.408
  37  971.8477
  38  730.774
  39  1850.509
  40  1556.106
  41  1396.958
  42  1302.384
  43  1322.546
  44  830.587
  45  1232.824
  46  1861.64
  47  2095.307
  48  1388.195
  49  1900.791
  50  2051.233
  51  1502.223
  52  1291.714
  53  1275.813
  54  1161.36
  55  1730.608
  56  2081.738
  57  994.3889
  58  1056.118
  59  1621.729
  60  1659.422
  61  1618.27
  62  1844.915
  63  2189.045
  64  1751.072
  65  1250.025
  66  2020.005
  67  2359.678
  68  1459.697
  69  1591.065
  70  1782.848
  71  1670.207
  72  1686.58
  73  2066.436
  74  1616.69
  75  2103.373
  76  1739.87
  77  1790.003
  78  2057.129
  79  981.5205
  80  1270.499
  81  1303.38
  82  1202.062
  83  1562.425
  84  1376.564
  85  1511.986
  86  1666.827
  87  2134.557
  88  1641.628
  89  1703.277
  90  1695.116
  91  1604.475
  92  2066.155
  93  2056.407
  94  2400.857
  95  1615.748
  96  1750.716
  97  2162.709
  98  2355.683
  99  2073.363
 100  2007.441
 101  1687.789
 102  1342.297
 103  1807.476
 104  1738.125
 105  1196.843
 106  961.9956
 107  1221.351
 108  1741.005
 109  1311.178
 110  1983.959
 111  1377.739
 112  1829.251
 113  1084.675
 114  2210.932
 115  1713.329
 116  1406.249
 117  1668.15
 118  797.5002
 119  1374.704
 120  1951.588
 121  1887.369
 122  2088.673
 123  1248.603
 124  1804.312
 125  1984.938
 126  1804.868
 127  1674.711
 128  1798.457
 129  1899.638
 130  1573.185
 131  1659.404
 132  2091.663
 133  2104.676
 134  1825.449
 135  1932.819
 136  1305.234
 137  1846.784
 138  1588.513
 139  1012.115
 140  1624.82
 141  1361.33
 142  1045.695
 143  1245.335
 144  1518.841
 145  1671.574
 146  1630.911
 147  2532.861
 148  3830.416
 149  5277.683
 150  4290.839
 151  2451.521
 152  1613.215
 153  1795.504
 154  1729.938
 155  1358.571
 156  1877.088
 157  2589.188
 158  2437.994
 159  2112.912
 160  1111.958
 161  1884.408
 162  1435.796
 163  991.4551
 164  1633.727
 165  1100.488
 166  1983.619
 167  1660.672
 168  1781.919
 169  1154.51
 170  1207.151
 171  1549.767
 172  1238.825
 173  1478.695
 174  1550.256
 175  1339.053
 176  991.6887
 177  1614
 178  1763.697
 179  1911.439
 180  1848.991
 181  1202.058
 182  1720.575
 183  1739.932
 184  1674.183
 185  2361.476
 186  1430.635
 187  1524.303
 188  1102.865
 189  1829.875
 190  2032.602
 191  2052.824
 192  1260.679
 193  1543.653
 194  993.9521
 195  994.286
 196  1810.481
 197  1506.978
 198  1233.801
 199  1287.362
 200  1519.485
 201  1234.824
 202  1701.786
 203  1248.428
 204  1069.628
 205  995.5295
 206  1361.895
 207  1703.606
 208  1181.819
 209  1126.505
 210  1652.306
 211  1668.306
 212  1747.71
 213  2028.687
 214  1180.434
 215  1372.287
 216  1955.98
 217  1464.055
 218  946.4508
 219  1083.122
 220  1841.539
 221  2036.45
 222  1673.938
 223  1806.105
 224  1301.858
 225  1053.684
 226  1802.022
 227  902.139
 228  1387.843
 229  1086.559
 230  1564.223
 231  1466.841
 232  1113.591
 233  1199.188
 234  1149.361
 235  1353.342
 236  943.8511
 237  1824.274
 238  1283.779
 239  1545.935
 240  1550.718
 241  1681.466
 242  1630.555
 243  1752.799
 244  1084.266
 245  318.9353
 246  1121.171
 247  1034.51
 248  1039.269
 249  1275.51
 250  1158.114
 251  2206.334
 252  1620.011
 253  1060.282
 254  1452.991
 255  1948.481
