# Input file       =  1211973974.110982_cleaned.dat
# Candidate        =  PSR_0332+5434
# Telescope        =  AR
# Epoch_topo       =  58271.476772117843
# Epoch_bary       =  N/A
# T_sample         =  0.002
# Data Folded      =  7340032
# Data Avg         =  0.369063186928022
# Data StdDev      =  12.8378684201546 
# Profile Bins     =  256
# Profile Avg      =  10581.9278307935 
# Profile StdDev   =  2173.81166104951 
# Reduced chi-sqr  =  1.127
# Prob(Noise)      <  0.0801   (~1.4 sigma)
# P_topo (ms)      =  714.515839462206  +/- 0.000443
# P'_topo (s/s)    =  -0                +/- 2.34e-10
# P''_topo (s/s^2) =  0                 +/- 1.03e-13
# P_bary (ms)      =  N/A
# P'_bary (s/s)    =  N/A
# P''_bary (s/s^2) =  N/A
# P_orb (s)        =  N/A
# asin(i)/c (s)    =  N/A
# eccentricity     =  N/A
# w (rad)          =  N/A
# T_peri           =  N/A
######################################################
   0  13318.12
   1  12025.71
   2  12325.14
   3  11737.39
   4  13909.51
   5  11315.39
   6  16496.07
   7  12576.92
   8  9223.042
   9  9609.1
  10  13896.98
  11  11434.7
  12  12873.66
  13  11789.52
  14  12993.56
  15  13260.58
  16  14283.97
  17  15288.45
  18  15082.82
  19  12777.21
  20  9844.543
  21  13391.76
  22  13055.17
  23  12422.59
  24  11623.42
  25  12300.5
  26  12389.32
  27  11586.3
  28  13595.66
  29  11363.71
  30  11770.58
  31  12080.29
  32  12587.51
  33  12846
  34  11314.12
  35  13081.22
  36  10595.93
  37  12119.01
  38  13457.53
  39  12475.08
  40  12174.38
  41  12086.02
  42  12041.73
  43  13518.37
  44  12001.23
  45  11914.41
  46  13836.15
  47  11714.95
  48  9027.017
  49  10927.22
  50  8288.905
  51  7079.131
  52  9637.369
  53  12025.01
  54  10976.23
  55  11033.56
  56  12366.39
  57  10473.31
  58  12550.18
  59  12290.43
  60  9134.202
  61  9811.988
  62  10285.54
  63  8796.67
  64  8929.025
  65  7550.752
  66  9578.77
  67  10407.89
  68  10399.5
  69  8748.901
  70  7468.056
  71  11209.46
  72  8025.368
  73  6629.495
  74  6380.069
  75  7475.828
  76  8241.946
  77  9001.075
  78  10252.55
  79  10081.39
  80  5963.732
  81  8163.788
  82  10250.21
  83  11454.04
  84  8157.733
  85  8290.696
  86  9146.563
  87  10574.32
  88  11264.63
  89  10875.53
  90  11017.1
  91  11842.94
  92  10245.29
  93  8559.23
  94  10158.39
  95  9644.185
  96  11948.53
  97  12899.62
  98  12326.36
  99  13478.31
 100  11438.61
 101  13026.46
 102  11736.09
 103  11709.05
 104  10885.71
 105  9521.98
 106  14738.95
 107  11273
 108  10997.68
 109  10269.58
 110  9295.682
 111  7331.577
 112  8262.32
 113  7912.931
 114  7925.284
 115  7602.844
 116  7862.509
 117  9929.302
 118  12912.31
 119  11046.93
 120  9732.859
 121  12871.15
 122  12871
 123  10873.3
 124  10330.22
 125  8566.366
 126  8272.672
 127  6220.272
 128  5886.943
 129  5941.54
 130  4957.042
 131  8418.639
 132  8719.698
 133  8932.96
 134  12578.42
 135  10207.27
 136  10805.19
 137  10583.79
 138  11747.66
 139  9531.815
 140  10566.71
 141  8366.757
 142  10315.52
 143  11172.58
 144  9598.723
 145  9528.804
 146  10253.33
 147  13860.07
 148  15981.31
 149  16684.66
 150  14508.48
 151  10812.02
 152  9818.925
 153  9988.908
 154  11122.29
 155  9973.112
 156  11778.98
 157  11353.92
 158  12861.61
 159  12796.82
 160  13242.37
 161  12646.81
 162  12040.98
 163  8852.85
 164  5815.074
 165  9794.134
 166  10047.19
 167  9861.346
 168  10068.78
 169  9094.154
 170  8685.486
 171  9753.922
 172  11524.69
 173  10398.4
 174  10934.09
 175  10098.81
 176  7989.261
 177  7559.902
 178  7156.456
 179  8139.848
 180  8913.304
 181  6772.736
 182  8385.102
 183  10639.87
 184  7186.154
 185  8230.238
 186  12735.97
 187  11540.96
 188  11414.08
 189  9487.693
 190  11599.3
 191  13327.5
 192  10459.78
 193  9492.628
 194  10664.35
 195  10001.65
 196  7852.586
 197  9441.885
 198  11830.12
 199  10221.34
 200  8541.484
 201  8608.12
 202  8860.935
 203  9579.679
 204  10191.66
 205  11257.73
 206  11340.08
 207  9661.403
 208  8187.704
 209  10382.92
 210  7792.656
 211  10645.61
 212  9915.704
 213  7820.135
 214  8985.698
 215  10742.6
 216  10639.75
 217  10779.21
 218  12129.15
 219  13350.4
 220  11668.73
 221  11009.83
 222  9245.924
 223  10229.91
 224  12077.78
 225  10309.1
 226  9193.898
 227  9974.367
 228  11762.74
 229  11054.38
 230  10743.41
 231  11278.58
 232  9419.047
 233  9562.581
 234  10086.43
 235  9021.563
 236  10305.67
 237  11789.82
 238  9990.528
 239  11246.55
 240  13052.12
 241  11111.46
 242  11213.63
 243  12314.52
 244  10763.52
 245  9793.094
 246  10588.57
 247  8572.304
 248  9630.957
 249  9260.213
 250  7993.019
 251  10197.91
 252  10697.33
 253  10900.24
 254  11833.14
 255  11945.38
