# Input file       =  1211614446.108927_cleaned.dat
# Candidate        =  PSR_0332+5434
# Telescope        =  AR
# Epoch_topo       =  58267.315568390361
# Epoch_bary       =  N/A
# T_sample         =  0.002
# Data Folded      =  7340032
# Data Avg         =  0.0380719220636322
# Data StdDev      =  1.00013370934277 
# Profile Bins     =  512
# Profile Avg      =  545.845942890631 
# Profile StdDev   =  119.749045802368 
# Reduced chi-sqr  =  1.145
# Prob(Noise)      <  0.0125   (~2.2 sigma)
# P_topo (ms)      =  714.519559054432  +/- 7.38e-05
# P'_topo (s/s)    =  -0                +/- 3.89e-11
# P''_topo (s/s^2) =  0                 +/- 1.72e-14
# P_bary (ms)      =  N/A
# P'_bary (s/s)    =  N/A
# P''_bary (s/s^2) =  N/A
# P_orb (s)        =  N/A
# asin(i)/c (s)    =  N/A
# eccentricity     =  N/A
# w (rad)          =  N/A
# T_peri           =  N/A
######################################################
   0  1171.262
   1  1116.958
   2  896.1444
   3  724.291
   4  578.7642
   5  550.644
   6  603.1522
   7  586.0179
   8  584.1317
   9  492.0807
  10  519.4099
  11  476.9702
  12  524.3226
  13  480.1538
  14  552.7304
  15  521.7399
  16  420.8982
  17  443.0066
  18  459.0878
  19  434.9641
  20  442.3715
  21  556.9297
  22  497.1003
  23  394.9222
  24  462.8183
  25  571.433
  26  487.3689
  27  439.6791
  28  491.757
  29  503.5019
  30  393.2452
  31  452.4798
  32  506.4622
  33  501.6818
  34  519.061
  35  519.5565
  36  521.983
  37  504.7242
  38  460.8955
  39  409.6387
  40  555.082
  41  517.4625
  42  427.6909
  43  385.6133
  44  357.1159
  45  402.1516
  46  519.4583
  47  584.3123
  48  520.8119
  49  454.0451
  50  396.0361
  51  469.2368
  52  572.1613
  53  628.4582
  54  564.228
  55  587.414
  56  483.3734
  57  478.0778
  58  541.4308
  59  598.6368
  60  523.7667
  61  529.9996
  62  499.0502
  63  513.3823
  64  477.6073
  65  490.3816
  66  524.2314
  67  540.7017
  68  540.522
  69  430.9868
  70  503.4139
  71  602.1088
  72  540.9936
  73  527.1471
  74  466.2153
  75  439.6785
  76  400.3656
  77  441.8916
  78  487.4146
  79  592.892
  80  582.2628
  81  439.9362
  82  462.9571
  83  562.5055
  84  642.6653
  85  657.2704
  86  586.4222
  87  614.0738
  88  465.8224
  89  422.0222
  90  460.8665
  91  486.282
  92  552.291
  93  419.1438
  94  505.3829
  95  604.6295
  96  560.6814
  97  583.7773
  98  662.1924
  99  761.7949
 100  517.1767
 101  456.973
 102  549.3079
 103  614.7402
 104  570.3129
 105  547.9471
 106  593.4349
 107  616.8007
 108  708.7372
 109  620.3715
 110  590.7144
 111  716.7404
 112  678.3198
 113  687.3268
 114  603.0679
 115  618.1434
 116  605.4525
 117  548.4349
 118  528.5966
 119  534.0549
 120  545.6577
 121  484.9768
 122  455.9135
 123  443.659
 124  488.1349
 125  505.0434
 126  660.997
 127  653.369
 128  488.1631
 129  529.9541
 130  523.8562
 131  565.0635
 132  618.8611
 133  642.9841
 134  543.4031
 135  457.657
 136  462.5631
 137  562.251
 138  561.2472
 139  604.0162
 140  581.4641
 141  656.4196
 142  624.6451
 143  539.1114
 144  568.7012
 145  552.8953
 146  568.5164
 147  552.8827
 148  506.9201
 149  491.3236
 150  552.8284
 151  568.3845
 152  551.9364
 153  495.8882
 154  474.5322
 155  504.4045
 156  603.7719
 157  621.5861
 158  625.8669
 159  516.2607
 160  460.1339
 161  468.3054
 162  528.3558
 163  647.8336
 164  535.2783
 165  442.9933
 166  475.468
 167  491.4704
 168  570.0781
 169  524.3903
 170  549.4513
 171  596.2513
 172  700.3098
 173  643.4435
 174  512.9243
 175  554.3051
 176  526.5804
 177  509.5681
 178  495.9006
 179  499.3314
 180  553.4472
 181  452.562
 182  433.7735
 183  565.0775
 184  555.3607
 185  526.0304
 186  524.4365
 187  472.554
 188  388.6185
 189  425.8615
 190  473.8621
 191  585.0836
 192  567.4959
 193  498.4942
 194  407.0707
 195  480.9352
 196  572.6271
 197  565.2932
 198  625.6232
 199  592.3082
 200  523.9554
 201  471.8125
 202  516.5625
 203  569.4336
 204  524.6171
 205  538.9675
 206  438.4154
 207  537.419
 208  588.8531
 209  521.8144
 210  579.9731
 211  546.9588
 212  476.991
 213  412.4831
 214  414.1744
 215  441.5931
 216  525.7475
 217  530.1036
 218  396.2556
 219  373.4931
 220  472.8887
 221  470.7578
 222  419.0681
 223  491.6877
 224  488.0443
 225  456.4754
 226  419.4036
 227  489.2321
 228  559.273
 229  571.318
 230  528.309
 231  655.2574
 232  577.0927
 233  582.5854
 234  516.0513
 235  559.6948
 236  624.181
 237  569.7971
 238  625.0472
 239  596.6071
 240  518.4838
 241  559.6866
 242  646.1414
 243  649.7703
 244  645.1038
 245  563.6683
 246  487.1713
 247  584.526
 248  613.8431
 249  613.114
 250  514.1528
 251  641.2197
 252  526.4416
 253  415.8663
 254  412.4603
 255  502.726
 256  409.3143
 257  396.4035
 258  570.812
 259  543.6843
 260  551.7696
 261  546.6328
 262  538.8883
 263  568.6501
 264  644.619
 265  570.3431
 266  521.9778
 267  622.4537
 268  652.1851
 269  596.0107
 270  563.7593
 271  553.2708
 272  467.9703
 273  485.626
 274  511.0514
 275  505.5337
 276  524.3577
 277  500.6758
 278  509.5096
 279  413.4077
 280  443.6023
 281  436.6308
 282  557.5402
 283  584.4231
 284  517.1931
 285  529.7828
 286  637.8246
 287  620.1478
 288  588.2583
 289  626.9806
 290  631.2941
 291  504.6312
 292  596.0801
 293  637.5494
 294  547.1672
 295  553.5783
 296  579.545
 297  564.0222
 298  635.9792
 299  696.7935
 300  620.1569
 301  504.4445
 302  594.8424
 303  537.5948
 304  521.1358
 305  561.1631
 306  538.4413
 307  570.9196
 308  703.4872
 309  696.5173
 310  552.8787
 311  534.2422
 312  542.9704
 313  537.377
 314  605.0446
 315  612.58
 316  553.9644
 317  479.3856
 318  605.7202
 319  633.767
 320  547.9908
 321  568.5257
 322  690.9424
 323  649.754
 324  569.0126
 325  540.9885
 326  611.1691
 327  664.0518
 328  636.3817
 329  497.6423
 330  485.5595
 331  571.4514
 332  565.5931
 333  548.3887
 334  495.5304
 335  582.229
 336  614.824
 337  653.7384
 338  615.82
 339  581.9804
 340  525.809
 341  542.8364
 342  580.8983
 343  613.0598
 344  537.1993
 345  382.9769
 346  437.8817
 347  550.1608
 348  591.1256
 349  572.62
 350  482.1693
 351  527.3188
 352  514.0165
 353  464.4274
 354  381.7888
 355  517.5243
 356  607.511
 357  499.1875
 358  454.2564
 359  418.6954
 360  582.1678
 361  534.6936
 362  497.2169
 363  551.8884
 364  531.6423
 365  483.3423
 366  460.0329
 367  476.6325
 368  501.5501
 369  582.8091
 370  535.2479
 371  437.2187
 372  415.4736
 373  594.8734
 374  513.8736
 375  536.0488
 376  487.7125
 377  386.7847
 378  335.3273
 379  411.3773
 380  488.6843
 381  541.9028
 382  592.1517
 383  622.0989
 384  566.2672
 385  535.3924
 386  525.715
 387  572.2468
 388  549.8955
 389  608.0143
 390  540.7341
 391  515.9717
 392  543.1373
 393  725.5114
 394  735.1508
 395  635.455
 396  703.2288
 397  602.8032
 398  600.5997
 399  621.4292
 400  646.9302
 401  641.174
 402  619.3511
 403  512.9421
 404  517.0155
 405  627.7933
 406  626.2789
 407  706.7506
 408  702.7375
 409  608.9953
 410  520.9412
 411  503.9247
 412  539.1456
 413  594.4928
 414  618.4357
 415  536.1783
 416  480.3195
 417  464.0528
 418  539.8021
 419  650.4751
 420  542.8967
 421  599.1844
 422  635.5374
 423  553.0723
 424  602.0742
 425  497.14
 426  464.2122
 427  544.447
 428  648.7133
 429  652.2792
 430  580.7142
 431  503.2684
 432  518.4155
 433  473.69
 434  443.6018
 435  575.2027
 436  445.2189
 437  441.9752
 438  348.7151
 439  396.3141
 440  595.5167
 441  618.7358
 442  558.6327
 443  411.2298
 444  338.7475
 445  509.5934
 446  572.4797
 447  537.6076
 448  473.5202
 449  491.8089
 450  579.6855
 451  618.6729
 452  560.4873
 453  515.3578
 454  548.9092
 455  636.3599
 456  565.8681
 457  457.9983
 458  512.6769
 459  620.864
 460  681.3922
 461  560.204
 462  542.5875
 463  583.0066
 464  564.5502
 465  625.0334
 466  638.1598
 467  553.0213
 468  474.0349
 469  558.3763
 470  498.8117
 471  565.363
 472  568.9631
 473  484.9724
 474  511.7774
 475  459.1575
 476  498.2
 477  459.3647
 478  414.6135
 479  505.0819
 480  560.7991
 481  572.4203
 482  571.9845
 483  377.813
 484  434.8146
 485  513.8723
 486  531.3349
 487  483.419
 488  496.7436
 489  491.3527
 490  449.8137
 491  498.7716
 492  605.0875
 493  522.0866
 494  584.3907
 495  552.5773
 496  491.8897
 497  608.287
 498  601.9516
 499  662.812
 500  559.535
 501  492.3857
 502  450.377
 503  573.1992
 504  653.7101
 505  756.5295
 506  694.3544
 507  760.9137
 508  698.6306
 509  806.9691
 510  1005.724
 511  1191.549
