# Input file       =  1211083018.094698_cleaned.dat
# Candidate        =  PSR_0332+5434
# Telescope        =  AR
# Epoch_topo       =  58261.164781188636
# Epoch_bary       =  N/A
# T_sample         =  0.002
# Data Folded      =  7405568
# Data Avg         =  0.295796998475671
# Data StdDev      =  11.1305597210198 
# Profile Bins     =  512
# Profile Avg      =  4278.48791055975 
# Profile StdDev   =  1338.63202514617 
# Reduced chi-sqr  =  0.764
# Prob(Noise)      <  1   (~0.0 sigma)
# P_topo (ms)      =  714.525568718198  +/- 9.75e-05
# P'_topo (s/s)    =  -0                +/- 5.1e-11
# P''_topo (s/s^2) =  0                 +/- 2.23e-14
# P_bary (ms)      =  N/A
# P'_bary (s/s)    =  N/A
# P''_bary (s/s^2) =  N/A
# P_orb (s)        =  N/A
# asin(i)/c (s)    =  N/A
# eccentricity     =  N/A
# w (rad)          =  N/A
# T_peri           =  N/A
######################################################
   0  5674.335
   1  5281.421
   2  5018.919
   3  4555.483
   4  4520.867
   5  5564.134
   6  4554.234
   7  3997.524
   8  3686.891
   9  4175.565
  10  4510.182
  11  3494.505
  12  4291.969
  13  5345.029
  14  4549.007
  15  3751.462
  16  4226.624
  17  5187.35
  18  5684.352
  19  5908.394
  20  5116.731
  21  4429.487
  22  3859.388
  23  5173.292
  24  5189.348
  25  3886.148
  26  3292.629
  27  5003.071
  28  5688.043
  29  4759.569
  30  4901.243
  31  5372.04
  32  5513.321
  33  5447.924
  34  5335.366
  35  5124.48
  36  4671.367
  37  3283.644
  38  3479.456
  39  3821.794
  40  4282.467
  41  5139.376
  42  5218.985
  43  5622.729
  44  4368.926
  45  3694.914
  46  4117.254
  47  4609.988
  48  4093.304
  49  4164.083
  50  4262.354
  51  3860.442
  52  4279.576
  53  4393.839
  54  4976.461
  55  4562.021
  56  3642.389
  57  2724.191
  58  3781.989
  59  5324.999
  60  4694.706
  61  4541.742
  62  3423.689
  63  3032.612
  64  3177.85
  65  3356.556
  66  4193.317
  67  3930.016
  68  3420.037
  69  3994.659
  70  4919.605
  71  4270.468
  72  4912.722
  73  5268.687
  74  4856.915
  75  5881.695
  76  6130.668
  77  4704.739
  78  3026.849
  79  4745.791
  80  4801.152
  81  3670.611
  82  4268.409
  83  3771.898
  84  4742.075
  85  5398.099
  86  5488.094
  87  5001.717
  88  3876.308
  89  4189.443
  90  4680.428
  91  5159.567
  92  4149.487
  93  4329.666
  94  2891.412
  95  3874.537
  96  3366.454
  97  4302.399
  98  4761.993
  99  5534.271
 100  5221.053
 101  3193.968
 102  3897.352
 103  4605.231
 104  4952.506
 105  5284.655
 106  4507.821
 107  3606.047
 108  4534.429
 109  4310.743
 110  4795.292
 111  4720.853
 112  3742.506
 113  3783.66
 114  4291.741
 115  4215.729
 116  3660.742
 117  3678.938
 118  4144.713
 119  4658.639
 120  4303.631
 121  3439.647
 122  3802.281
 123  3812.965
 124  4107.419
 125  2820
 126  2262.266
 127  2050.355
 128  3900.062
 129  4290.54
 130  4026.83
 131  3129.551
 132  3572.601
 133  4154.737
 134  4435.781
 135  4433.524
 136  4730.048
 137  5230.197
 138  4256.725
 139  4615.83
 140  5238.674
 141  5661.008
 142  4852.366
 143  5470.053
 144  4913.381
 145  4704.596
 146  4050.106
 147  3321.11
 148  3799.053
 149  4684.893
 150  5396.486
 151  4193.699
 152  2782.364
 153  5795.29
 154  5027.643
 155  4631.468
 156  4339.634
 157  4213.443
 158  3798.039
 159  3496.078
 160  4417.891
 161  4437.781
 162  4014.386
 163  4206.501
 164  4260.642
 165  4003.961
 166  3202.168
 167  3352.976
 168  2418.359
 169  3591.865
 170  3646.339
 171  4084.621
 172  3006.146
 173  2492.178
 174  2612.481
 175  2534.454
 176  3109.033
 177  3959.421
 178  2729.004
 179  2989.875
 180  4117.403
 181  4139.24
 182  3506.896
 183  4190.547
 184  3993.231
 185  3936.692
 186  4313.365
 187  3529.162
 188  3442.103
 189  3803.427
 190  3929.829
 191  4367.63
 192  3780.471
 193  3508.757
 194  3572.766
 195  3407.892
 196  2436.582
 197  2772.264
 198  3974.78
 199  4306.098
 200  4513.028
 201  4378.239
 202  4751.863
 203  4707.893
 204  4167.327
 205  4635.425
 206  3714.463
 207  3501.094
 208  4114.107
 209  3864.188
 210  3375.805
 211  2985.861
 212  4161.655
 213  4131.828
 214  3184.405
 215  3664.246
 216  3016.711
 217  3214.956
 218  4365.488
 219  2609.286
 220  1931.621
 221  2503.742
 222  4833.456
 223  4192.886
 224  4101.62
 225  3721.254
 226  3670.229
 227  4007.185
 228  4023.666
 229  4208.506
 230  3486.358
 231  3355.393
 232  3633.819
 233  2322.823
 234  3940.491
 235  4764.031
 236  5735.559
 237  5630.25
 238  3855.329
 239  3442.938
 240  4083.189
 241  4690.458
 242  5202.566
 243  4703.199
 244  3798.94
 245  2901.6
 246  4208.299
 247  4070.38
 248  3505.558
 249  3181.99
 250  2884.485
 251  3105.516
 252  3558.377
 253  3475.211
 254  4159.159
 255  4455.621
 256  4795.445
 257  4467.287
 258  4503.761
 259  4037.592
 260  3618.094
 261  4738.351
 262  4599.96
 263  3652.392
 264  3282.606
 265  3262.074
 266  3220.829
 267  3420.573
 268  3435.043
 269  3813.494
 270  5189.392
 271  4799.883
 272  3700.427
 273  3942.745
 274  4655.014
 275  2527.998
 276  2690.908
 277  4876.354
 278  5446.288
 279  4509.156
 280  4382.406
 281  4310.912
 282  3083.437
 283  3755.912
 284  5243.213
 285  4580.704
 286  3211.206
 287  4236.745
 288  4458.097
 289  4890.51
 290  5163.909
 291  4939.69
 292  4320.932
 293  5208.42
 294  4133.491
 295  3497.592
 296  4505.213
 297  5828.478
 298  6937.067
 299  6754.948
 300  7663.748
 301  6584.857
 302  5098.739
 303  4858.677
 304  3541.804
 305  4179.784
 306  3032.139
 307  4797.772
 308  5895.357
 309  5096.526
 310  4820.757
 311  4715.598
 312  4986.315
 313  4558.834
 314  4889.133
 315  5455.422
 316  5935.766
 317  5430.482
 318  4878.391
 319  4896.157
 320  4468.747
 321  5333.793
 322  5334.775
 323  5332.255
 324  4900.424
 325  5335.996
 326  5342.077
 327  4821.671
 328  4676.43
 329  5332.833
 330  4917.062
 331  4793.132
 332  3389.262
 333  3809.912
 334  3689.616
 335  4844.852
 336  4227.537
 337  4840.932
 338  5212.98
 339  5449.822
 340  5458.955
 341  4428.375
 342  3033.768
 343  3225.226
 344  3346.688
 345  3522.698
 346  4255.098
 347  4554.715
 348  4544.079
 349  4797.555
 350  3928.822
 351  5044.831
 352  5282.379
 353  5531.497
 354  4917.177
 355  5161.841
 356  5455.415
 357  4804.192
 358  4199.593
 359  4247.738
 360  3294.637
 361  3003.466
 362  3429.74
 363  3513.84
 364  4267.587
 365  3918.754
 366  4436.525
 367  3999.488
 368  3989.734
 369  4136.014
 370  3696.275
 371  4297.068
 372  3222.85
 373  3341.992
 374  4314.225
 375  3993.674
 376  4166.23
 377  3994.543
 378  2892.48
 379  4818.055
 380  5323.726
 381  5641.57
 382  4477.177
 383  3716.786
 384  4086.782
 385  3850.079
 386  5134.468
 387  4846.227
 388  3155.207
 389  3406.686
 390  3360.387
 391  3830.975
 392  3413.505
 393  3014.102
 394  2863.197
 395  3858.242
 396  4661.335
 397  3714.64
 398  3960.191
 399  3165.858
 400  3741.737
 401  3606.826
 402  4233.256
 403  4869.153
 404  4117.439
 405  4216.908
 406  3900.86
 407  3961.361
 408  3639.755
 409  3339.909
 410  3893.779
 411  4158.49
 412  2798.548
 413  3561.491
 414  4664.708
 415  5234.257
 416  5586.429
 417  4523.867
 418  3599.997
 419  4630.296
 420  3818.156
 421  4778.486
 422  5378.198
 423  5565.058
 424  4342.171
 425  3364.301
 426  3644.605
 427  4705.134
 428  3941.161
 429  4769.145
 430  5515.552
 431  5220.425
 432  3869.958
 433  2755.553
 434  2434.166
 435  3451.625
 436  4838.828
 437  4425.565
 438  3881.879
 439  3170.192
 440  4055.703
 441  5457.769
 442  4700.348
 443  4969.702
 444  4053.756
 445  3037.689
 446  4497.226
 447  5934.086
 448  4518.5
 449  4545.259
 450  5232.246
 451  6270.997
 452  4886.857
 453  4996.281
 454  4851.291
 455  3890.64
 456  3427.783
 457  4337.645
 458  4678.305
 459  3845.991
 460  4130.712
 461  3816.494
 462  3098.75
 463  2889.022
 464  4181.027
 465  4492.842
 466  4977.643
 467  4542.758
 468  3913.944
 469  3915.064
 470  3822.124
 471  4045.12
 472  5058.158
 473  4816.283
 474  5111.853
 475  4268.346
 476  2689.886
 477  3211.321
 478  4083.835
 479  4623.155
 480  5138.023
 481  3833.569
 482  2702.273
 483  2819.067
 484  3763.545
 485  4488.795
 486  4663.149
 487  4760.706
 488  3917.296
 489  3544.998
 490  4803.711
 491  5378.464
 492  5708.591
 493  5232.756
 494  4351.556
 495  5826.16
 496  4882.605
 497  4410.585
 498  4121.676
 499  5383.909
 500  5083.068
 501  5726.667
 502  6297.794
 503  5426.262
 504  4766.228
 505  5031.184
 506  5487.166
 507  4034.761
 508  4525.577
 509  5494.322
 510  6068.615
 511  5697.225
