# Input file       =  1211341354.116035-PSRB0329-2ms-sampling-dd.dat
# Candidate        =  PSR_0332+5434
# Telescope        =  AR
# Epoch_topo       =  58264.154781435587
# Epoch_bary       =  N/A
# T_sample         =  0.002
# Data Folded      =  7208960
# Data Avg         =  5.62534862703742e-10
# Data StdDev      =  6.35960502032734 
# Profile Bins     =  512
# Profile Avg      =  0.0064415010159038
# Profile StdDev   =  754.625490084441 
# Reduced chi-sqr  =  0.575
# Prob(Noise)      <  1   (~0.0 sigma)
# P_topo (ms)      =  714.522638458274  +/- 5.13e-05
# P'_topo (s/s)    =  -0                +/- 2.76e-11
# P''_topo (s/s^2) =  0                 +/- 1.24e-14
# P_bary (ms)      =  N/A
# P'_bary (s/s)    =  N/A
# P''_bary (s/s^2) =  N/A
# P_orb (s)        =  N/A
# asin(i)/c (s)    =  N/A
# eccentricity     =  N/A
# w (rad)          =  N/A
# T_peri           =  N/A
######################################################
   0  -163.7622
   1  -183.4345
   2  -30.20757
   3  15.60835
   4  -73.97345
   5  -124.3853
   6  -349.0603
   7  -44.81182
   8  -376.4622
   9  -606.3257
  10  -268.3925
  11  -250.1803
  12  6.650879
  13  -212.2339
  14  55.16233
  15  -362.0934
  16  -625.9974
  17  -24.43495
  18  -218.9463
  19  116.6148
  20  194.5903
  21  -100.3679
  22  -287.7753
  23  -425.0819
  24  -150.3053
  25  -147.8015
  26  -495.8081
  27  40.73089
  28  422.402
  29  -95.78953
  30  -461.1599
  31  -434.1734
  32  377.0172
  33  -166.67
  34  -172.1513
  35  326.6961
  36  241.9794
  37  -334.5836
  38  -732.6639
  39  -529.8776
  40  -530.9201
  41  -610.6076
  42  -909.4044
  43  -786.7211
  44  51.92272
  45  45.01442
  46  12.05499
  47  -370.8576
  48  -140.6664
  49  -511.7871
  50  -479.8084
  51  -563.9555
  52  -239.6564
  53  366.4333
  54  424.6397
  55  181.1453
  56  401.767
  57  74.64709
  58  4.010345
  59  -183.4852
  60  556.3065
  61  730.3577
  62  209.8837
  63  579.399
  64  401.3647
  65  245.665
  66  492.256
  67  178.6499
  68  411.5257
  69  15.06271
  70  -58.75469
  71  -230.559
  72  -341.9886
  73  -226.5563
  74  -40.78714
  75  -265.2804
  76  -181.8664
  77  -4.198129
  78  85.97158
  79  -401.8778
  80  -276.2516
  81  533.0543
  82  469.0709
  83  -235.8755
  84  48.1648
  85  404.5108
  86  236.183
  87  123.1258
  88  105.7723
  89  58.50267
  90  292.0102
  91  -279.166
  92  113.7868
  93  380.9456
  94  355.9584
  95  523.9424
  96  481.7574
  97  397.8434
  98  407.0237
  99  80.68323
 100  -3.491573
 101  334.9397
 102  284.2164
 103  347.0942
 104  612.679
 105  267.7666
 106  468.155
 107  159.9879
 108  -23.70155
 109  100.3288
 110  85.14635
 111  -441.2568
 112  -561.8141
 113  -567.2061
 114  -76.73563
 115  247.4668
 116  -374.1751
 117  -37.18463
 118  369.0401
 119  639.7549
 120  633.8083
 121  50.3577
 122  -34.4966
 123  -81.95349
 124  -147.1445
 125  -66.20717
 126  441.2554
 127  974.8578
 128  409.1805
 129  69.32904
 130  654.0666
 131  725.9157
 132  199.8939
 133  256.1302
 134  247.6797
 135  316.0145
 136  366.087
 137  -20.697
 138  -201.8238
 139  277.6897
 140  81.42973
 141  -48.72359
 142  -99.0317
 143  201.0624
 144  131.0074
 145  -73.53871
 146  -334.3363
 147  -578.6962
 148  -58.40213
 149  -308.9939
 150  263.1453
 151  503.6343
 152  461.74
 153  294.3043
 154  -368.5826
 155  -520.6207
 156  -192.2268
 157  -270.3112
 158  -1032.655
 159  -291.7662
 160  304.8586
 161  -30.01829
 162  -237.2144
 163  -43.08205
 164  261.5377
 165  55.06602
 166  -92.76695
 167  -106.2258
 168  174.0757
 169  92.2493
 170  -346.9557
 171  -67.89346
 172  262.0356
 173  100.4126
 174  -381.2133
 175  -301.9297
 176  72.28828
 177  297.68
 178  184.7336
 179  168.0961
 180  158.3249
 181  363.4935
 182  -59.70999
 183  -319.7586
 184  237.9496
 185  170.5307
 186  80.81313
 187  -11.72074
 188  110.0172
 189  -60.43233
 190  -633.2515
 191  -932.7809
 192  -392.9391
 193  92.80643
 194  146.5995
 195  -180.7889
 196  180.0354
 197  128.707
 198  447.2116
 199  17.88667
 200  105.4193
 201  510.0545
 202  1400.122
 203  1257.083
 204  526.9013
 205  804.6105
 206  332.7812
 207  -108.1782
 208  460.6929
 209  875.8417
 210  1344.387
 211  1106.667
 212  625.5396
 213  665.6725
 214  418.6787
 215  151.0977
 216  106.7975
 217  302.4487
 218  167.0218
 219  -99.03345
 220  -475.43
 221  -513.6668
 222  -71.62656
 223  -221.5503
 224  -335.0362
 225  -140.6366
 226  466.1609
 227  275.6459
 228  207.1956
 229  -32.42344
 230  84.53996
 231  114.0829
 232  -111.0903
 233  198.4471
 234  520.9946
 235  764.217
 236  403.5511
 237  -93.8465
 238  -221.8372
 239  182.6013
 240  539.3824
 241  -145.3639
 242  -238.3001
 243  125.6448
 244  -69.93155
 245  -516.8392
 246  416.0828
 247  595.9991
 248  -457.1102
 249  -187.2295
 250  -201.6082
 251  -263.9898
 252  -434.052
 253  -592.9498
 254  -440.5952
 255  53.72451
 256  66.77319
 257  -200.6308
 258  66.55196
 259  191.8324
 260  -52.12597
 261  17.16444
 262  310.9298
 263  626.9148
 264  347.4524
 265  212.198
 266  369.6434
 267  807.7728
 268  924.8368
 269  591.6066
 270  75.29023
 271  442.7609
 272  351.697
 273  -134.847
 274  392.8955
 275  832.685
 276  481.898
 277  161.4817
 278  -12.15042
 279  189.7135
 280  44.84998
 281  -357.4339
 282  131.6852
 283  456.5883
 284  546.7611
 285  -187.2202
 286  -417.7742
 287  -632.2037
 288  -445.8617
 289  -108.7306
 290  -365.1846
 291  337.6284
 292  153.3009
 293  -85.02535
 294  -728.6881
 295  -43.82226
 296  217.9926
 297  21.37724
 298  250.9362
 299  525.6109
 300  351.5024
 301  138.9979
 302  23.71494
 303  -130.2045
 304  -289.8639
 305  276.4602
 306  -245.7664
 307  -235.4671
 308  -32.51608
 309  884.3342
 310  936.5452
 311  184.8501
 312  225.346
 313  -143.505
 314  -261.5348
 315  -103.5171
 316  148.9421
 317  -23.51049
 318  -222.1742
 319  -389.4044
 320  -572.533
 321  -100.7051
 322  231.2161
 323  86.76101
 324  -388.0947
 325  52.99673
 326  32.6488
 327  -178.8458
 328  131.1464
 329  431.3073
 330  435.5374
 331  -77.85921
 332  51.42491
 333  3.218887
 334  -39.30505
 335  -77.91888
 336  -598.6691
 337  -216.6404
 338  114.8884
 339  243.1228
 340  210.7959
 341  94.78381
 342  265.2222
 343  -450.7436
 344  -77.81065
 345  -93.24606
 346  222.1204
 347  -144.604
 348  -657.0151
 349  290.2123
 350  166.4288
 351  -236.7122
 352  -712.3176
 353  -391.9042
 354  -278.0651
 355  -488.3428
 356  -593.3632
 357  -380.9523
 358  -233.3547
 359  -710.418
 360  -659.2841
 361  -545.5769
 362  -359.0218
 363  -20.68795
 364  345.7832
 365  472.062
 366  470.5585
 367  237.0832
 368  -249.5451
 369  127.4563
 370  -13.45974
 371  24.35945
 372  -333.2982
 373  -251.4994
 374  429.1089
 375  306.9007
 376  255.719
 377  -239.6286
 378  -294.6969
 379  -746.8175
 380  -714.4534
 381  -390.0851
 382  -96.07764
 383  424.3779
 384  484.5694
 385  -189.3798
 386  -576.9803
 387  -734.7869
 388  -592.8547
 389  -953.1645
 390  -506.4592
 391  -1.247683
 392  70.9931
 393  -578.9211
 394  -476.7996
 395  -37.5892
 396  -64.76031
 397  89.18184
 398  225.4135
 399  -77.46355
 400  -567.7321
 401  -219.0586
 402  -323.7886
 403  -191.9375
 404  110.6432
 405  10.41024
 406  -232.5815
 407  -513.8734
 408  -223.9087
 409  -151.4298
 410  -280.113
 411  213.6652
 412  -418.4576
 413  -392.1327
 414  -419.6096
 415  -211.4039
 416  161.386
 417  -411.5028
 418  -1079.174
 419  -1357.144
 420  -671.7256
 421  -515.3892
 422  -611.5126
 423  -269.4753
 424  87.30166
 425  -268.5375
 426  -928.3992
 427  -758.603
 428  -505.6785
 429  -310.6388
 430  -430.1559
 431  -161.1026
 432  298.5667
 433  -370.8312
 434  -644.1721
 435  -862.4009
 436  -286.1383
 437  36.5911
 438  -465.8661
 439  -423.7679
 440  246.8065
 441  549.1998
 442  -134.7359
 443  -134.6315
 444  -9.899193
 445  51.17957
 446  -228.1979
 447  -376.3823
 448  371.2765
 449  691.6443
 450  201.4753
 451  -620.6041
 452  -817.8174
 453  -190.0609
 454  -716.8688
 455  -378.0463
 456  -250.8171
 457  94.14328
 458  -79.78084
 459  -864.156
 460  -680.4312
 461  -158.1963
 462  -185.7887
 463  -216.2751
 464  -76.17766
 465  349.3427
 466  682.5239
 467  117.9527
 468  -506.9647
 469  -425.2206
 470  -624.1293
 471  -567.7757
 472  -379.8738
 473  206.4087
 474  306.8931
 475  -0.4703357
 476  19.3342
 477  505.2998
 478  466.3421
 479  345.7643
 480  390.7838
 481  1166.347
 482  1584.169
 483  1729.38
 484  1231.707
 485  950.3001
 486  223.5281
 487  -34.32957
 488  -398.529
 489  -698.9695
 490  552.3593
 491  531.5091
 492  -113.6196
 493  -398.5447
 494  -333.7382
 495  -80.77689
 496  -60.9166
 497  431.3279
 498  392.8642
 499  529.7563
 500  200.5188
 501  78.79034
 502  322.9175
 503  336.3057
 504  -50.66385
 505  227.2966
 506  504.3306
 507  581.3502
 508  68.87774
 509  137.3703
 510  20.03032
 511  201.3531
