# Input file       =  1211457068.105972-PSRB0329-2ms-sampling-dd.dat
# Candidate        =  PSR_0332+5434
# Telescope        =  AR
# Epoch_topo       =  58265.494063726532
# Epoch_bary       =  N/A
# T_sample         =  0.002
# Data Folded      =  7340032
# Data Avg         =  7.79812551109782e-10
# Data StdDev      =  6.80934969520949 
# Profile Bins     =  512
# Profile Avg      =  0.0811180879166847
# Profile StdDev   =  815.304114758639 
# Reduced chi-sqr  =  0.651
# Prob(Noise)      <  1   (~0.0 sigma)
# P_topo (ms)      =  714.521675372993  +/- 0.000185
# P'_topo (s/s)    =  -0                +/- 9.77e-11
# P''_topo (s/s^2) =  0                 +/- 4.31e-14
# P_bary (ms)      =  N/A
# P'_bary (s/s)    =  N/A
# P''_bary (s/s^2) =  N/A
# P_orb (s)        =  N/A
# asin(i)/c (s)    =  N/A
# eccentricity     =  N/A
# w (rad)          =  N/A
# T_peri           =  N/A
######################################################
   0  -790.9322
   1  -1111.221
   2  -468.6752
   3  -326.0048
   4  -475.6181
   5  -396.4694
   6  -412.7937
   7  -795.2061
   8  -838.3026
   9  -457.2858
  10  -383.175
  11  -341.6387
  12  -250.5108
  13  -255.577
  14  -192.5301
  15  -200.5681
  16  -253.8818
  17  -774.5183
  18  -555.0074
  19  167.8514
  20  131.2884
  21  -393.647
  22  -534.026
  23  -164.4986
  24  -174.5599
  25  -288.0683
  26  -519.054
  27  53.8107
  28  -9.143864
  29  104.3333
  30  414.1996
  31  84.97521
  32  199.2107
  33  -461.9926
  34  -458.6268
  35  -197.8119
  36  -255.0558
  37  103.8395
  38  15.36659
  39  -230.534
  40  -488.4376
  41  -177.0056
  42  -184.492
  43  237.9036
  44  485.0168
  45  52.19983
  46  -127.6869
  47  -499.6057
  48  -17.9051
  49  293.0044
  50  -66.26718
  51  -262.262
  52  -485.9303
  53  -441.8774
  54  -140.0287
  55  -316.7298
  56  136.1955
  57  331.7936
  58  48.10265
  59  37.17238
  60  -78.12433
  61  234.2807
  62  444.1368
  63  334.9794
  64  354.4752
  65  328.5504
  66  -18.78075
  67  46.97734
  68  451.4215
  69  444.9832
  70  -144.8662
  71  152.8569
  72  -0.1346211
  73  -78.96
  74  -7.524272
  75  -257.6941
  76  -12.83566
  77  -183.3546
  78  -379.5402
  79  -552.5263
  80  -791.1866
  81  -280.56
  82  -562.7721
  83  -909.2469
  84  -734.6796
  85  -3.533312
  86  208.4681
  87  -355.9722
  88  -942.0107
  89  -619.4473
  90  -194.4365
  91  73.5202
  92  409.5905
  93  354.7817
  94  232.3225
  95  161.442
  96  -107.1839
  97  -279.3566
  98  -333.0752
  99  -279.1055
 100  -343.207
 101  -94.15768
 102  -45.01242
 103  -95.15385
 104  -406.7726
 105  -528.0359
 106  -252.8974
 107  -451.8532
 108  -30.10159
 109  -228.2104
 110  -274.316
 111  -248.2394
 112  -396.5892
 113  -419.5298
 114  -550.4631
 115  -748.9062
 116  -528.1627
 117  -286.6062
 118  -222.0931
 119  -266.9959
 120  -178.8628
 121  -758.4592
 122  -928.2888
 123  -710.085
 124  -416.4455
 125  -393.8731
 126  -391.379
 127  -237.4235
 128  -334.7191
 129  -204.3796
 130  -564.9883
 131  -434.1022
 132  -343.5215
 133  -322.3126
 134  -472.2603
 135  -166.0989
 136  90.75896
 137  -26.83898
 138  -104.8827
 139  -69.59812
 140  -181.7767
 141  -379.5154
 142  -320.1768
 143  -15.66435
 144  -344.7631
 145  -251.4531
 146  -382.3622
 147  -684.186
 148  -517.2061
 149  -282.7368
 150  213.8442
 151  60.25583
 152  709.6604
 153  383.7992
 154  186.8021
 155  43.66002
 156  -307.5969
 157  194.8102
 158  398.6126
 159  311.8124
 160  388.1077
 161  10.53382
 162  -310.9598
 163  -335.5677
 164  -439.5244
 165  -685.2845
 166  -937.4596
 167  -149.1022
 168  199.5365
 169  -163.7757
 170  -371.2005
 171  -715.2063
 172  -663.4381
 173  -521.696
 174  -392.1585
 175  -304.5233
 176  -532.6234
 177  -474.1413
 178  -440.7368
 179  -244.5266
 180  -731.2159
 181  -1197.843
 182  -998.7435
 183  -934.1465
 184  -773.0203
 185  -652.5782
 186  -678.3929
 187  -884.1845
 188  -1027.483
 189  -852.1028
 190  -683.6772
 191  -244.8268
 192  196.4258
 193  197.7593
 194  426.2715
 195  12.45576
 196  -259.7026
 197  -301.2
 198  -346.527
 199  -285.2203
 200  -469.3354
 201  -451.2939
 202  -196.3887
 203  -355.8604
 204  -18.44813
 205  -294.4584
 206  -309.638
 207  -283.2397
 208  274.257
 209  591.6143
 210  592.7429
 211  839.3618
 212  749.4155
 213  613.9417
 214  369.0307
 215  116.5615
 216  513.8041
 217  850.3564
 218  702.7469
 219  744.4332
 220  681.2884
 221  283.2875
 222  246.9995
 223  148.2136
 224  307.9926
 225  686.3608
 226  1324.973
 227  1304.469
 228  918.4072
 229  688.4633
 230  519.0551
 231  815.2367
 232  453.7649
 233  331.1463
 234  476.018
 235  749.3846
 236  633.2076
 237  663.26
 238  768.2547
 239  465.7086
 240  228.9419
 241  497.2393
 242  509.3754
 243  514.3713
 244  28.81992
 245  185.6603
 246  573.545
 247  338.5106
 248  310.6237
 249  -86.05035
 250  -137.682
 251  -77.82548
 252  163.0701
 253  -121.7623
 254  -32.99928
 255  -72.80341
 256  124.2443
 257  63.19715
 258  -342.6987
 259  -335.6862
 260  -477.7306
 261  -559.3152
 262  -578.2549
 263  -656.9786
 264  -455.2331
 265  -510.4138
 266  -461.0655
 267  -822.6503
 268  -564.8698
 269  -519.6827
 270  -371.1753
 271  3.058533
 272  -69.31219
 273  -110.1467
 274  31.54386
 275  30.67276
 276  -136.2027
 277  -152.3979
 278  -130.5359
 279  -444.908
 280  -682.5043
 281  -710.241
 282  -922.153
 283  -877.2415
 284  -536.1219
 285  -299.6358
 286  -645.8781
 287  -548.4036
 288  -1165.264
 289  -1096.09
 290  -829.1078
 291  -624.3304
 292  -335.7043
 293  -399.4008
 294  -390.8093
 295  -710.0498
 296  -598.0746
 297  -358.5727
 298  -547.2877
 299  -257.6255
 300  -85.08741
 301  -162.3828
 302  -368.2842
 303  -956.1646
 304  -1134.592
 305  -684.1306
 306  -468.545
 307  -164.6205
 308  48.68762
 309  268.1288
 310  451.0717
 311  212.0637
 312  330.9876
 313  6.757592
 314  -72.89025
 315  -39.09383
 316  2.067714
 317  476.5566
 318  479.0732
 319  372.9161
 320  77.41607
 321  -92.50246
 322  15.70198
 323  146.9816
 324  558.8078
 325  552.2711
 326  243.5885
 327  -16.92668
 328  -349.5944
 329  -456.9408
 330  -369.5526
 331  223.4505
 332  -0.3308499
 333  28.40073
 334  -94.77904
 335  -178.4241
 336  141.5974
 337  231.2184
 338  546.2124
 339  49.75153
 340  555.7875
 341  472.4131
 342  168.9041
 343  98.52036
 344  280.1564
 345  391.1899
 346  313.0851
 347  390.7995
 348  -20.87272
 349  172.5874
 350  67.45141
 351  189.1654
 352  278.299
 353  279.6702
 354  197.7408
 355  243.5931
 356  88.06042
 357  293.7332
 358  673.3276
 359  522.7737
 360  83.07494
 361  174.3072
 362  47.68176
 363  257.9932
 364  573.0535
 365  740.6684
 366  801.4076
 367  -4.956914
 368  -345.0537
 369  -105.6781
 370  -12.62791
 371  -88.25999
 372  307.4176
 373  506.2178
 374  870.4213
 375  612.4584
 376  416.7997
 377  239.895
 378  30.94662
 379  -129.8114
 380  -115.2411
 381  -212.3304
 382  86.90842
 383  16.61017
 384  -214.8466
 385  -479.2317
 386  -249.2459
 387  -87.18166
 388  3.092345
 389  317.8376
 390  533.6151
 391  440.6401
 392  503.3102
 393  366.8578
 394  409.3539
 395  184.4292
 396  -2.966424
 397  123.0356
 398  255.683
 399  289.1876
 400  982.5373
 401  849.765
 402  494.8574
 403  140.8748
 404  -69.1208
 405  232.5585
 406  1218.955
 407  1277.921
 408  1222.798
 409  1046.637
 410  907.9162
 411  729.8403
 412  649.9442
 413  745.6528
 414  639.2303
 415  884.3234
 416  1293.007
 417  1138.104
 418  605.8395
 419  292.5318
 420  659.649
 421  731.5078
 422  657.65
 423  889.431
 424  410.4363
 425  115.7504
 426  103.4102
 427  318.3592
 428  328.0179
 429  345.8102
 430  204.3137
 431  36.46737
 432  101.8188
 433  -2.463139
 434  75.9312
 435  213.3579
 436  294.324
 437  198.4335
 438  302.3445
 439  327.011
 440  524.9039
 441  562.0093
 442  287.9932
 443  254.8587
 444  -136.6599
 445  -276.5112
 446  10.38377
 447  -40.36792
 448  26.70782
 449  269.3074
 450  -35.51461
 451  -369.0296
 452  -445.942
 453  -558.2476
 454  -247.6564
 455  -51.08296
 456  286.8022
 457  404.8708
 458  714.0577
 459  1040.111
 460  496.3401
 461  90.14703
 462  217.9046
 463  194.3668
 464  323.5301
 465  276.9388
 466  180.3938
 467  512.822
 468  723.8976
 469  291.4733
 470  267.4245
 471  58.35819
 472  299.6059
 473  800.6625
 474  612.2762
 475  882.5494
 476  621.1672
 477  221.2495
 478  -107.8537
 479  -350.055
 480  296.2219
 481  145.6673
 482  -34.83418
 483  -136.6373
 484  -379.4984
 485  -710.2474
 486  -335.4996
 487  67.97192
 488  204.3011
 489  15.06418
 490  87.3774
 491  208.4975
 492  -136.6116
 493  -488.086
 494  -315.6163
 495  -183.6047
 496  13.15213
 497  -254.7131
 498  -416.2618
 499  35.40331
 500  415.7788
 501  753.2862
 502  1351.116
 503  1482.488
 504  1661.978
 505  1277.286
 506  814.7758
 507  340.5293
 508  128.2929
 509  121.9814
 510  206.3251
 511  -276.1297
