# Input file       =  1211269825.111266_cleaned.dat
# Candidate        =  PSR_0332+5434
# Telescope        =  AR
# Epoch_topo       =  58263.326899435946
# Epoch_bary       =  N/A
# T_sample         =  0.002
# Data Folded      =  7340032
# Data Avg         =  0.243955645214424
# Data StdDev      =  6.67926414201603 
# Profile Bins     =  256
# Profile Avg      =  6993.59626479548 
# Profile StdDev   =  1130.98699908388 
# Reduced chi-sqr  =  1.139
# Prob(Noise)      <  0.0633   (~1.5 sigma)
# P_topo (ms)      =  714.523462670905  +/- 0.00032
# P'_topo (s/s)    =  -0                +/- 1.69e-10
# P''_topo (s/s^2) =  0                 +/- 7.44e-14
# P_bary (ms)      =  N/A
# P'_bary (s/s)    =  N/A
# P''_bary (s/s^2) =  N/A
# P_orb (s)        =  N/A
# asin(i)/c (s)    =  N/A
# eccentricity     =  N/A
# w (rad)          =  N/A
# T_peri           =  N/A
######################################################
   0  5963.252
   1  5481.659
   2  5534.371
   3  7377.988
   4  7870.867
   5  7655.178
   6  6722.401
   7  6304.056
   8  7358.236
   9  6822.232
  10  6337.242
  11  5250.203
  12  6699.855
  13  6717.154
  14  6623.08
  15  6610.125
  16  6062.794
  17  6811.707
  18  6256.095
  19  5776.096
  20  5632.351
  21  6033.198
  22  6553.568
  23  6588.106
  24  6042.028
  25  6895.11
  26  5755.174
  27  6007.258
  28  6050.207
  29  6168.009
  30  5374.25
  31  6123.475
  32  6364.66
  33  5813.492
  34  5924.542
  35  5827.777
  36  6572.504
  37  6226.387
  38  6931.109
  39  6519.62
  40  6687.035
  41  4493.269
  42  7053.343
  43  8213.92
  44  5662.5
  45  6276.841
  46  5836.663
  47  5679.318
  48  6201.435
  49  6020.82
  50  4878.445
  51  6721.947
  52  5884.014
  53  6075.817
  54  6966.464
  55  6148.439
  56  4783.896
  57  6232.44
  58  7233.008
  59  6362.846
  60  6320.606
  61  6610.88
  62  6430.923
  63  6443.481
  64  6595.078
  65  5761.646
  66  7606.375
  67  6229.063
  68  7294.821
  69  7793.778
  70  6442.993
  71  6379.546
  72  7353.755
  73  6847.799
  74  6079.836
  75  7390.164
  76  6999.937
  77  8139.761
  78  7751.371
  79  7102.71
  80  6954.934
  81  6405.228
  82  5853.057
  83  7552.055
  84  6674.352
  85  6732.848
  86  8118.188
  87  8506.147
  88  7239.76
  89  6808.024
  90  7762.171
  91  7631.822
  92  7001.262
  93  5744.929
  94  5428.045
  95  5879.297
  96  6185.364
  97  6580.67
  98  5914.148
  99  5490.409
 100  5824.036
 101  5479.28
 102  5956.944
 103  6222.972
 104  7122.366
 105  7232.022
 106  6051.081
 107  6239.188
 108  7654.34
 109  7182.574
 110  6671.093
 111  7407.902
 112  7160.686
 113  8078.722
 114  8287.493
 115  7322.745
 116  6484.58
 117  6943.401
 118  5740.654
 119  5536.397
 120  6117.063
 121  6411.934
 122  6908.329
 123  7113.177
 124  7161.578
 125  8414.882
 126  7065.04
 127  6283.355
 128  7288.864
 129  7899.009
 130  6842.616
 131  7139.232
 132  6394.682
 133  7437.43
 134  8305.652
 135  7079.024
 136  6353.276
 137  7705.727
 138  8437.852
 139  7507.775
 140  7314.398
 141  6933.605
 142  6949.295
 143  7241.763
 144  8276.504
 145  7161.385
 146  7319.294
 147  7427.106
 148  10188.11
 149  10503.83
 150  10474.29
 151  8197.028
 152  7245.242
 153  7998.853
 154  6484.617
 155  5160.26
 156  6557.378
 157  5883.526
 158  7132.401
 159  9048.378
 160  7997.254
 161  7870.266
 162  6792.762
 163  6755.363
 164  5928.489
 165  6849.208
 166  6667.141
 167  6272.386
 168  6056.206
 169  6087.693
 170  6289.295
 171  7108.624
 172  6631.769
 173  6507.597
 174  7488.929
 175  6047.762
 176  6681.47
 177  7839.596
 178  7223.298
 179  6849.732
 180  6982.103
 181  6934.035
 182  6849.427
 183  7246.486
 184  7309.456
 185  8752.507
 186  9377.719
 187  8516.6
 188  8134.679
 189  9398.917
 190  9094.74
 191  8053.98
 192  9540.11
 193  9085.988
 194  8355.427
 195  9593.83
 196  8276.573
 197  8013.71
 198  8782.112
 199  9343.102
 200  9083.922
 201  7495.07
 202  8717.74
 203  8606.741
 204  8112.282
 205  7851.897
 206  7185.664
 207  7960.243
 208  8733.423
 209  8466.781
 210  7118.351
 211  7451.712
 212  7789.548
 213  8462.106
 214  9065.226
 215  7485.863
 216  7005.108
 217  7576.159
 218  8256.979
 219  8223.482
 220  7485.14
 221  6882.865
 222  6784.626
 223  7087.244
 224  6834.87
 225  6092.595
 226  7465.313
 227  7322.062
 228  7857.433
 229  8912.713
 230  7896.205
 231  6233.033
 232  6961.625
 233  5679.501
 234  4874.998
 235  7456.499
 236  7365.566
 237  4867.734
 238  7855.244
 239  6971.93
 240  7438.294
 241  7486.647
 242  8407.666
 243  7310.997
 244  7279.961
 245  6748.18
 246  6074.322
 247  6364.411
 248  5910.908
 249  6074.886
 250  6491.69
 251  5623.087
 252  6196.693
 253  5463.187
 254  6805.458
 255  6513.077
