# Input file       =  1211169117.109627-PSRB0329-2ms-sampling-dd.dat
# Candidate        =  PSR_0332+5434
# Telescope        =  AR
# Epoch_topo       =  58262.161297565130
# Epoch_bary       =  N/A
# T_sample         =  0.002
# Data Folded      =  7143424
# Data Avg         =  -1.15581546982336e-09
# Data StdDev      =  6.58434253757803 
# Profile Bins     =  512
# Profile Avg      =  0.0752478758686603
# Profile StdDev   =  777.733220282463 
# Reduced chi-sqr  =  0.579
# Prob(Noise)      <  1   (~0.0 sigma)
# P_topo (ms)      =  714.524591440056  +/- 5.13e-05
# P'_topo (s/s)    =  -0                +/- 2.78e-11
# P''_topo (s/s^2) =  0                 +/- 1.26e-14
# P_bary (ms)      =  N/A
# P'_bary (s/s)    =  N/A
# P''_bary (s/s^2) =  N/A
# P_orb (s)        =  N/A
# asin(i)/c (s)    =  N/A
# eccentricity     =  N/A
# w (rad)          =  N/A
# T_peri           =  N/A
######################################################
   0  -62.11904
   1  -737.975
   2  -687.7603
   3  -884.816
   4  -125.1929
   5  -49.50511
   6  -7.286198
   7  89.6013
   8  -243.8488
   9  -666.5852
  10  -1202.203
  11  -795.6055
  12  -674.626
  13  298.144
  14  102.6939
  15  -384.9504
  16  -377.417
  17  -804.5793
  18  -347.8359
  19  -450.0408
  20  -67.54932
  21  -508.4338
  22  -223.6872
  23  483.2474
  24  -236.5573
  25  -559.2772
  26  -735.4819
  27  -1007.102
  28  -883.0148
  29  -501.7004
  30  410.6242
  31  285.2885
  32  394.6361
  33  429.6216
  34  314.5257
  35  -499.3871
  36  -424.4271
  37  356.2597
  38  491.9756
  39  528.8417
  40  534.7128
  41  905.6313
  42  146.7868
  43  81.62489
  44  -430.5713
  45  -411.4153
  46  501.0286
  47  645.4877
  48  406.5711
  49  31.01529
  50  243.0795
  51  -263.1643
  52  143.5832
  53  797.3068
  54  632.4218
  55  1301.224
  56  425.5008
  57  44.98013
  58  -497.9756
  59  -631.0659
  60  69.1492
  61  -5.192649
  62  304.3913
  63  451.2403
  64  857.8333
  65  470.7764
  66  369.6883
  67  79.5627
  68  -395.3982
  69  -344.29
  70  326.1249
  71  1098.225
  72  437.0064
  73  348.4163
  74  374.0841
  75  746.905
  76  69.13224
  77  -627.5349
  78  43.06285
  79  370.3966
  80  559.8033
  81  452.1898
  82  98.96124
  83  76.44089
  84  -217.9475
  85  -69.53218
  86  -121.6375
  87  246.3347
  88  183.764
  89  373.1533
  90  322.6498
  91  -263.7085
  92  -222.0522
  93  -436.6005
  94  -196.3594
  95  46.23738
  96  447.9678
  97  546.5493
  98  389.1625
  99  287.8545
 100  -109.0501
 101  -310.4995
 102  -209.6369
 103  270.2414
 104  460.8136
 105  481.8189
 106  180.4333
 107  -86.98814
 108  -290.9773
 109  -700.6049
 110  -348.431
 111  -215.1898
 112  23.79699
 113  334.1429
 114  123.2774
 115  441.1307
 116  19.8546
 117  -130.8267
 118  -507.7585
 119  214.4375
 120  551.9882
 121  790.0374
 122  1226.253
 123  724.925
 124  532.0803
 125  -221.1038
 126  -173.0205
 127  -464.7788
 128  -278.0299
 129  352.2404
 130  568.868
 131  695.6793
 132  -247.1044
 133  -436.0635
 134  -589.806
 135  -434.9352
 136  58.41903
 137  594.0424
 138  323.2819
 139  -349.7749
 140  -191.0012
 141  -205.1467
 142  -256.2767
 143  -201.6436
 144  -534.0619
 145  -27.09661
 146  -198.4622
 147  -77.98894
 148  67.26643
 149  279.3916
 150  132.1742
 151  -367.5111
 152  67.77311
 153  79.91328
 154  17.37904
 155  -90.97893
 156  336.2773
 157  39.9299
 158  -114.4773
 159  -432.5189
 160  -739.1747
 161  -569.5029
 162  -206.0505
 163  720.2586
 164  856.2112
 165  769.9708
 166  245.7635
 167  86.49551
 168  46.47955
 169  -312.8582
 170  225.2742
 171  205.6756
 172  836.0372
 173  819.4635
 174  127.1282
 175  82.49788
 176  -347.0623
 177  49.55965
 178  640.6456
 179  796.1822
 180  599.8791
 181  772.4403
 182  1374.242
 183  1432.728
 184  1747.463
 185  2122.192
 186  1726.981
 187  997.6357
 188  553.3089
 189  431.0613
 190  18.53993
 191  -107.7952
 192  -235.9547
 193  97.59949
 194  165.4433
 195  566.632
 196  528.9639
 197  233.8677
 198  584.3199
 199  200.0459
 200  -41.32909
 201  -96.90421
 202  508.1243
 203  481.9872
 204  373.5397
 205  879.8537
 206  209.4352
 207  17.56325
 208  -113.715
 209  -86.43554
 210  -355.0832
 211  353.3721
 212  862.2007
 213  295.9314
 214  291.0859
 215  3.566699
 216  -62.03053
 217  -264.6532
 218  -222.5604
 219  397.1282
 220  208.2627
 221  484.2722
 222  303.6334
 223  323.1009
 224  262.1241
 225  263.0861
 226  24.30463
 227  -97.36383
 228  -129.4943
 229  -204.3388
 230  104.2867
 231  251.3605
 232  259.6095
 233  -91.07952
 234  -458.6536
 235  -322.2993
 236  -409.2856
 237  -43.60683
 238  164.7065
 239  616.5196
 240  79.5218
 241  -524.3995
 242  -355.4062
 243  -774.7866
 244  53.95683
 245  197.3004
 246  369.4901
 247  178.001
 248  140.4425
 249  -397.4811
 250  -906.8655
 251  -455.0763
 252  -650.8776
 253  28.19597
 254  345.5358
 255  671.7765
 256  426.7918
 257  -165.8996
 258  -101.3689
 259  -455.0482
 260  -253.6043
 261  -241.6744
 262  -15.0629
 263  -70.87685
 264  40.96917
 265  -338.0967
 266  -768.6362
 267  -2.028569
 268  -120.5218
 269  -384.0359
 270  -604.8203
 271  -593.6735
 272  -123.3572
 273  -266.473
 274  -210.3271
 275  -652.4201
 276  -410.8246
 277  -272.8488
 278  -42.20691
 279  -243.2718
 280  -165.9756
 281  412.6808
 282  177.9445
 283  62.65343
 284  43.2117
 285  65.84188
 286  359.7506
 287  -93.05236
 288  168.9042
 289  -112.8274
 290  5.500015
 291  -36.91456
 292  61.09893
 293  192.685
 294  329.5305
 295  751.0983
 296  333.0168
 297  199.2999
 298  -93.98918
 299  -9.265391
 300  233.9191
 301  218.7413
 302  186.6
 303  -149.0299
 304  -220.552
 305  -379.5927
 306  -28.37097
 307  281.2698
 308  -21.12758
 309  -242.6568
 310  -183.1396
 311  77.63434
 312  -106.2032
 313  163.3261
 314  -63.05679
 315  -265.9013
 316  -758.8112
 317  -749.4609
 318  -526.3846
 319  -781.8227
 320  -46.86739
 321  115.6681
 322  364.9734
 323  -184.5392
 324  -916.7717
 325  -852.412
 326  -957.3148
 327  -216.0296
 328  -332.4614
 329  47.23248
 330  51.56261
 331  -523.7765
 332  -477.4135
 333  -687.75
 334  -216.2708
 335  -174.893
 336  -172.7081
 337  -310.7361
 338  -462.7849
 339  -466.9975
 340  -665.7883
 341  -304.5721
 342  -303.0217
 343  254.2455
 344  380.4619
 345  -25.15677
 346  -137.4606
 347  -257.0763
 348  -119.2415
 349  -356.5004
 350  87.41878
 351  -176.3181
 352  22.24433
 353  -7.427902
 354  -43.75328
 355  127.1187
 356  -453.0056
 357  -161.787
 358  -188.2139
 359  1.053993
 360  223.1123
 361  -59.65913
 362  90.29771
 363  538.3498
 364  391.8728
 365  -458.8705
 366  -501.543
 367  -351.6521
 368  136.3949
 369  427.521
 370  225.4337
 371  390.8509
 372  -181.8655
 373  -95.86151
 374  7.083587
 375  180.8282
 376  274.5327
 377  88.24385
 378  334.0666
 379  121.6071
 380  -15.4317
 381  115.3606
 382  -109.5997
 383  42.68948
 384  22.35078
 385  294.6004
 386  -130.4451
 387  -5.499432
 388  -530.2653
 389  -366.9884
 390  -422.1134
 391  -799.5585
 392  -93.39742
 393  61.74847
 394  768.8369
 395  417.0767
 396  574.3886
 397  135.9034
 398  -55.12817
 399  -57.67212
 400  -629.9546
 401  93.89709
 402  -181.5959
 403  81.65157
 404  340.9462
 405  249.3729
 406  -381.228
 407  -895.9265
 408  -259.2708
 409  -328.3051
 410  23.78538
 411  250.5774
 412  739.6799
 413  95.73795
 414  -545.2986
 415  86.57793
 416  142.4765
 417  425.41
 418  -36.12427
 419  -406.8623
 420  -416.1158
 421  -281.7067
 422  -41.66721
 423  -305.9431
 424  -176.0393
 425  -140.5302
 426  472.7082
 427  208.3973
 428  139.9239
 429  260.7713
 430  143.9304
 431  -12.01238
 432  -394.3256
 433  -67.37279
 434  -304.8939
 435  299.1687
 436  393.9472
 437  148.2699
 438  84.56357
 439  -174.0825
 440  -10.74193
 441  -218.7141
 442  271.1842
 443  -68.1435
 444  -232.1989
 445  545.3616
 446  -384.3652
 447  49.72699
 448  -645.7421
 449  -595.8616
 450  127.317
 451  85.01344
 452  537.7438
 453  314.0472
 454  -93.85278
 455  -603.683
 456  -382.1327
 457  -305.8264
 458  -388.3017
 459  24.56334
 460  179.6146
 461  77.04901
 462  48.75116
 463  -132.8917
 464  -595.9834
 465  -718.3823
 466  -638.3324
 467  -295.9655
 468  -207.5246
 469  -312.6842
 470  118.3079
 471  -273.4098
 472  -450.6151
 473  -618.4697
 474  -682.2037
 475  144.1274
 476  -129.8591
 477  486.5073
 478  420.1498
 479  181.555
 480  -326.223
 481  -421.8025
 482  -225.2022
 483  30.92566
 484  553.8535
 485  146.8872
 486  24.56124
 487  -245.115
 488  -522.4291
 489  -247.7113
 490  -277.2663
 491  127.1538
 492  57.06208
 493  104.8297
 494  -309.793
 495  -555.867
 496  -470.5094
 497  -546.9814
 498  21.99836
 499  192.4246
 500  248.3227
 501  -269.4105
 502  -157.705
 503  -472.5671
 504  -279.2003
 505  4.378244
 506  -392.6752
 507  -102.5616
 508  -257.7967
 509  169.8289
 510  223.803
 511  79.5281
