# Input file       =  1211098148.107654_cleaned.dat
# Candidate        =  PSR_0332+5434
# Telescope        =  AR
# Epoch_topo       =  58261.339897079328
# Epoch_bary       =  N/A
# T_sample         =  0.002
# Data Folded      =  7340032
# Data Avg         =  1.26197978039377 
# Data StdDev      =  19.4394725447346 
# Profile Bins     =  512
# Profile Avg      =  18091.0287575453 
# Profile StdDev   =  2327.54707334386 
# Reduced chi-sqr  =  0.964
# Prob(Noise)      <  0.71   (~0.0 sigma)
# P_topo (ms)      =  714.52542157341   +/- 0.000115
# P'_topo (s/s)    =  -0                +/- 6.07e-11
# P''_topo (s/s^2) =  0                 +/- 2.68e-14
# P_bary (ms)      =  N/A
# P'_bary (s/s)    =  N/A
# P''_bary (s/s^2) =  N/A
# P_orb (s)        =  N/A
# asin(i)/c (s)    =  N/A
# eccentricity     =  N/A
# w (rad)          =  N/A
# T_peri           =  N/A
######################################################
   0  18303.29
   1  20680.27
   2  20388.51
   3  21052.15
   4  19687.19
   5  17310.1
   6  16183.01
   7  15215.36
   8  17066.19
   9  19922.65
  10  19211.96
  11  18689.72
  12  17484.58
  13  14982.49
  14  16814.2
  15  17200.88
  16  17920.06
  17  20033.41
  18  20675.74
  19  19387.58
  20  17923.46
  21  17065.93
  22  18300.26
  23  18575.28
  24  18408.24
  25  17571.58
  26  18153.17
  27  19646.47
  28  19721.16
  29  19171.79
  30  20061.33
  31  20368.85
  32  20423.86
  33  19126.15
  34  18531.04
  35  19974.36
  36  21151.57
  37  19366.89
  38  18684.77
  39  19023.28
  40  19905.43
  41  20066.11
  42  20849.38
  43  21100.74
  44  19679.3
  45  18596.68
  46  19413.57
  47  17676.53
  48  19799.95
  49  19208.04
  50  18347.76
  51  19720.36
  52  17553.86
  53  17277.57
  54  16068
  55  17192.2
  56  18012.07
  57  17196.73
  58  16941.32
  59  18146.41
  60  18982.31
  61  17922.98
  62  17959.42
  63  16445.8
  64  16730.42
  65  16109.95
  66  15958.43
  67  15750.13
  68  17013.33
  69  16591.83
  70  15687.81
  71  15727.92
  72  15811.84
  73  18222.75
  74  19932.45
  75  17691.73
  76  17275.4
  77  17199.42
  78  16434.88
  79  17608.69
  80  17097.85
  81  17373.46
  82  18488.72
  83  19949.51
  84  20343.31
  85  19140.99
  86  16775.57
  87  16966.26
  88  17724.1
  89  18569.69
  90  18571.52
  91  17308.99
  92  18329.26
  93  17315.35
  94  18115.39
  95  18354.96
  96  18368.29
  97  17149.1
  98  19051.76
  99  18279.29
 100  17954.92
 101  18133.09
 102  18345.33
 103  15753.06
 104  14996.7
 105  15830.82
 106  17478.25
 107  16094.64
 108  15464.61
 109  14836.69
 110  14795.03
 111  15205.01
 112  15803.31
 113  19029.24
 114  19640.21
 115  15979.24
 116  15134.26
 117  16551.84
 118  17784.51
 119  17138.49
 120  17322.51
 121  17298.66
 122  18186.27
 123  17550.04
 124  16458.57
 125  18209.51
 126  18506.63
 127  20163.23
 128  19547.04
 129  19005.37
 130  17205.39
 131  18769.42
 132  18219.87
 133  18196.68
 134  16757.08
 135  18650.98
 136  18240.59
 137  18040.44
 138  18261.23
 139  17767.46
 140  16734.65
 141  18741.04
 142  17380.59
 143  16804.37
 144  17857.74
 145  18969.45
 146  17529.76
 147  20892.1
 148  21533.74
 149  19697.25
 150  18004.37
 151  18831.05
 152  18501.78
 153  18953.94
 154  20433.2
 155  19006.6
 156  17605.84
 157  15318.74
 158  14616.36
 159  19097.93
 160  17834.24
 161  16201.1
 162  16209.4
 163  16242.94
 164  17027.27
 165  17555.41
 166  17017.01
 167  17629.9
 168  17643.91
 169  16189.91
 170  17983.42
 171  17163.54
 172  16666.1
 173  15884.29
 174  17533.84
 175  16709.81
 176  17855.19
 177  17189.34
 178  18518.95
 179  17358.62
 180  15978.02
 181  16759.62
 182  16418.76
 183  16973.99
 184  17570.95
 185  16299.81
 186  17845.9
 187  14698.14
 188  14211.18
 189  16753.87
 190  17974.67
 191  17980.37
 192  17485.05
 193  15936.65
 194  18095.12
 195  18574.21
 196  17886.01
 197  18014.06
 198  17972.63
 199  19243.23
 200  19373.39
 201  18106.55
 202  18335.77
 203  17907.2
 204  19929.69
 205  22111.33
 206  20779.21
 207  18193.94
 208  17821.75
 209  16286.24
 210  15928.99
 211  19280.04
 212  19889.03
 213  19038.35
 214  19317.41
 215  20023.97
 216  19946.08
 217  21859.96
 218  21117.96
 219  21150.33
 220  19882.71
 221  20046.73
 222  20446.87
 223  19138.92
 224  19584.17
 225  19652.62
 226  17449.16
 227  18561.03
 228  18299.11
 229  18031.49
 230  18304.19
 231  16777.06
 232  17920.47
 233  15911.93
 234  15421.89
 235  17176.71
 236  17401
 237  15874.21
 238  15292.89
 239  15568.11
 240  17711.52
 241  18442.23
 242  18424.25
 243  20231.36
 244  18196.99
 245  16856.4
 246  17378.49
 247  16895.47
 248  16835.92
 249  17086.43
 250  19659.32
 251  16640.24
 252  16359.05
 253  17661.64
 254  18323.45
 255  18375.83
 256  17550.75
 257  16495.65
 258  17650.7
 259  15716.57
 260  17247.59
 261  17743.8
 262  16988.37
 263  16164.02
 264  16482.47
 265  16719.89
 266  16986.18
 267  17324.38
 268  18908.38
 269  17410.8
 270  15029.25
 271  13026.73
 272  13625.5
 273  14881.78
 274  16985.45
 275  16126.61
 276  16146.93
 277  15196.36
 278  16100.47
 279  15889.4
 280  16200.83
 281  16113.71
 282  16447.51
 283  16624.49
 284  17843.88
 285  19364.97
 286  19065.08
 287  20341.21
 288  18665.92
 289  14984.65
 290  15045.21
 291  16141.49
 292  19886.13
 293  21260.16
 294  20044.4
 295  17487.54
 296  17455.15
 297  17583.06
 298  19723.99
 299  21201.88
 300  21373.18
 301  20327.33
 302  18481.46
 303  19335.44
 304  21901.15
 305  21943.41
 306  21518.76
 307  20520.11
 308  18799.43
 309  16900.57
 310  17083.61
 311  19636.73
 312  19072.72
 313  16321.53
 314  15661.01
 315  18604.15
 316  19108.75
 317  19049.45
 318  19065.84
 319  18331.02
 320  17765.56
 321  18353.5
 322  19325.44
 323  21283
 324  20278.07
 325  18588.6
 326  19516.11
 327  20271.49
 328  21647.79
 329  21204.51
 330  20890.35
 331  20616.31
 332  17975.06
 333  16098.38
 334  16787.37
 335  17412.54
 336  21352.61
 337  20635.53
 338  17881.04
 339  17884.67
 340  19755.43
 341  19499.92
 342  19566.29
 343  18373.41
 344  15767.96
 345  14369.05
 346  18653.57
 347  19854.9
 348  21895.03
 349  21305.97
 350  17933.06
 351  16578.13
 352  15488.43
 353  18903.43
 354  19753.45
 355  19823.32
 356  19748.17
 357  19112.54
 358  17445.25
 359  18417.14
 360  19577.71
 361  19128.4
 362  19298.68
 363  17584.83
 364  16050.99
 365  17708.02
 366  18130.49
 367  19066.58
 368  19046.84
 369  20073.31
 370  19859.25
 371  17973.82
 372  16102.82
 373  14814.03
 374  14261.38
 375  15007.02
 376  16670.49
 377  18093.95
 378  19041.52
 379  18410.97
 380  20317.28
 381  15706.81
 382  15270.4
 383  15277.06
 384  16961.14
 385  18729
 386  16393.22
 387  16312.32
 388  15197.23
 389  16746.16
 390  17438.54
 391  16802.91
 392  15439.02
 393  16584.32
 394  16773.84
 395  18377.97
 396  20878.42
 397  20774.11
 398  20109.49
 399  17209.98
 400  16123.37
 401  16648.96
 402  17882.19
 403  17198.61
 404  17655.62
 405  18144.71
 406  16670.18
 407  16195.82
 408  19288.92
 409  20353.76
 410  19166.56
 411  18499.64
 412  16496.88
 413  18448.01
 414  18397.34
 415  19376.72
 416  22563.75
 417  22730.21
 418  21912.53
 419  18582.55
 420  17778.06
 421  19743.41
 422  19564.88
 423  18749.86
 424  18458.07
 425  18198.66
 426  17990.96
 427  20132.41
 428  18017.4
 429  18404.96
 430  17435.81
 431  19377.24
 432  22066.48
 433  21990.9
 434  19074.89
 435  16170.03
 436  17531.85
 437  17484.93
 438  17666.08
 439  19829.06
 440  18659.71
 441  17332.45
 442  19002.06
 443  19081.94
 444  18253.32
 445  19140.13
 446  17435.04
 447  16142.13
 448  17421.61
 449  17610.46
 450  18704.49
 451  19564.6
 452  17872.34
 453  17901.21
 454  19929.81
 455  19455.77
 456  19403.09
 457  18340.43
 458  17380.48
 459  16574.75
 460  17574.63
 461  18365.11
 462  18593.62
 463  19691.79
 464  20072.71
 465  18621.04
 466  17676.08
 467  17430.33
 468  20190.79
 469  21112
 470  20842.11
 471  19941.06
 472  19632.06
 473  17154.47
 474  16276.77
 475  18535.79
 476  19107.68
 477  18511.8
 478  15417.93
 479  17939.3
 480  19673.85
 481  19101.19
 482  18810.76
 483  18251.63
 484  17920.68
 485  16225.97
 486  16551.43
 487  16410.48
 488  18448.7
 489  18661.76
 490  18084.54
 491  18012.5
 492  18193.71
 493  17699.4
 494  18259.59
 495  19215.2
 496  17384.75
 497  17942.14
 498  16232.54
 499  16806.59
 500  20028.55
 501  19446.99
 502  20216.13
 503  19664.43
 504  16851.33
 505  17389.95
 506  15264.33
 507  17887.21
 508  18514.7
 509  18210.44
 510  19040.51
 511  17519.99
