# Input file       =  1211255245.100422_cleaned.dat
# Candidate        =  PSR_0332+5434
# Telescope        =  AR
# Epoch_topo       =  58263.158149310439
# Epoch_bary       =  N/A
# T_sample         =  0.002
# Data Folded      =  7143424
# Data Avg         =  0.0296313645385351
# Data StdDev      =  0.999819401193189
# Profile Bins     =  512
# Profile Avg      =  413.403288573214 
# Profile StdDev   =  118.097252406448 
# Reduced chi-sqr  =  1.370
# Prob(Noise)      <  4.79e-08   (~5.3 sigma)
# P_topo (ms)      =  714.523614345895  +/- 0.000217
# P'_topo (s/s)    =  -0                +/- 1.18e-10
# P''_topo (s/s^2) =  0                 +/- 5.34e-14
# P_bary (ms)      =  N/A
# P'_bary (s/s)    =  N/A
# P''_bary (s/s^2) =  N/A
# P_orb (s)        =  N/A
# asin(i)/c (s)    =  N/A
# eccentricity     =  N/A
# w (rad)          =  N/A
# T_peri           =  N/A
######################################################
   0  345.8307
   1  364.8371
   2  509.7148
   3  447.61
   4  356.8533
   5  360.4161
   6  427.4637
   7  474.2728
   8  350.1948
   9  323.6689
  10  367.437
  11  388.1642
  12  491.5918
  13  454.2879
  14  290.3514
  15  343.4707
  16  458.0523
  17  447.4334
  18  362.3999
  19  334.114
  20  329.9182
  21  290.4232
  22  332.5922
  23  449.7648
  24  409.2479
  25  461.16
  26  450.9938
  27  508.2729
  28  324.0887
  29  199.683
  30  337.4612
  31  298.2184
  32  357.6492
  33  400.2444
  34  515.928
  35  470.6375
  36  415.3279
  37  323.7642
  38  227.1861
  39  261.567
  40  335.7445
  41  406.4055
  42  435.0997
  43  382.3459
  44  339.4962
  45  366.275
  46  455.5593
  47  442.4089
  48  423.2546
  49  398.1879
  50  288.2853
  51  255.8721
  52  252.7966
  53  343.5442
  54  404.2556
  55  468.0037
  56  450.7501
  57  422.6456
  58  387.2335
  59  459.9028
  60  425.7666
  61  471.5278
  62  509.3833
  63  371.1005
  64  260.7311
  65  307.665
  66  442.5377
  67  410.4504
  68  416.4187
  69  430.5268
  70  376.0572
  71  259.4026
  72  304.2826
  73  303.312
  74  324.9678
  75  476.4059
  76  559.0698
  77  458.2735
  78  351.4299
  79  407.6655
  80  417.2902
  81  474.0615
  82  391.8134
  83  318.1333
  84  441.6771
  85  402.0011
  86  336.3639
  87  296.6723
  88  236.0785
  89  268.8323
  90  305.9308
  91  375.4615
  92  410.9617
  93  417.9191
  94  550.7627
  95  593.3376
  96  298.9842
  97  283.1921
  98  342.4955
  99  332.3689
 100  369.7765
 101  354.3896
 102  444.9082
 103  437.9175
 104  567.8438
 105  520.6859
 106  509.2959
 107  397.06
 108  422.1978
 109  335.7975
 110  324.686
 111  341.071
 112  423.1468
 113  459.1258
 114  386.4562
 115  221.0108
 116  373.5214
 117  441.236
 118  410.6067
 119  310.8486
 120  408.3564
 121  393.6205
 122  328.5448
 123  414.119
 124  512.0042
 125  468.4716
 126  390.4455
 127  338.1364
 128  318.8266
 129  507.999
 130  523.3945
 131  401.0862
 132  423.7848
 133  268.4769
 134  293.0262
 135  384.7588
 136  387.0895
 137  341.3625
 138  217.2754
 139  250.8002
 140  327.9413
 141  442.3324
 142  441.3218
 143  422.559
 144  464.3964
 145  429.0033
 146  413.7265
 147  399.3083
 148  351.3132
 149  410.9601
 150  398.4272
 151  506.4406
 152  421.4372
 153  272.8027
 154  258.3139
 155  353.7516
 156  315.2883
 157  347.6224
 158  446.1297
 159  350.0064
 160  367.4267
 161  325.08
 162  384.6278
 163  303.5432
 164  266.0583
 165  295.9322
 166  370.5792
 167  439.35
 168  467.5674
 169  381.2148
 170  443.6742
 171  407.4975
 172  330.9154
 173  392.562
 174  441.3517
 175  370.018
 176  361.0124
 177  215.5606
 178  313.4285
 179  371.5484
 180  443.8702
 181  259.6642
 182  359.8
 183  331.2961
 184  211.9907
 185  443.4565
 186  583.9117
 187  453.389
 188  313.4335
 189  325.9778
 190  358.8478
 191  281.4773
 192  476.3659
 193  388.8007
 194  235.1998
 195  199.4669
 196  264.465
 197  358.3402
 198  421.688
 199  483.7795
 200  435.517
 201  343.9927
 202  312.9551
 203  298.3986
 204  281.5342
 205  298.8669
 206  311.4979
 207  354.4284
 208  347.0788
 209  340.5849
 210  408.0963
 211  457.9098
 212  420.5661
 213  309.0493
 214  286.7237
 215  338.104
 216  431.9049
 217  443.4045
 218  448.8129
 219  462.8209
 220  518.2324
 221  421.7988
 222  539.4728
 223  439.0883
 224  398.3276
 225  473.9315
 226  490.2103
 227  586.3763
 228  485.6567
 229  474.4086
 230  619.4755
 231  816.1113
 232  1001.876
 233  1040.628
 234  1028.717
 235  977.4295
 236  734.2487
 237  486.8874
 238  450.9246
 239  618.2736
 240  639.1102
 241  503.2048
 242  463.7908
 243  511.1469
 244  494.3624
 245  582.0846
 246  662.069
 247  525.1212
 248  509.8695
 249  411.6755
 250  381.9194
 251  374.3233
 252  391.7938
 253  282.4719
 254  263.7596
 255  274.8362
 256  346.6879
 257  486.9151
 258  576.3012
 259  609.1009
 260  510.0371
 261  363.7903
 262  277.1656
 263  385.9301
 264  492.9892
 265  406.0644
 266  451.5318
 267  428.2508
 268  344.9524
 269  346.8625
 270  370.8275
 271  247.1533
 272  442.7511
 273  476.0881
 274  525.568
 275  454.9635
 276  291.3829
 277  455.3223
 278  421.6491
 279  496.3293
 280  416.1848
 281  401.1454
 282  351.4608
 283  406.4782
 284  284.6956
 285  418.8663
 286  479.313
 287  453.4579
 288  436.4011
 289  397.748
 290  352.4393
 291  383.5873
 292  459.3174
 293  419.65
 294  512.8221
 295  424.2113
 296  523.2298
 297  414.3297
 298  322.3037
 299  481.8749
 300  482.4063
 301  321.5234
 302  434.7461
 303  678.9545
 304  632.0867
 305  437.4258
 306  414.7085
 307  418.5616
 308  448.4402
 309  438.4541
 310  443.8604
 311  330.5876
 312  306.8359
 313  319.8146
 314  355.8424
 315  401.1584
 316  441.4288
 317  375.9852
 318  463.348
 319  440.8274
 320  407.7718
 321  413.4868
 322  451.2736
 323  532.1307
 324  416.6519
 325  225.7993
 326  245.837
 327  371.1414
 328  451.7327
 329  408.5954
 330  431.7174
 331  452.1565
 332  470.3919
 333  438.8446
 334  357.4108
 335  279.3715
 336  417.7169
 337  452.6765
 338  424.5659
 339  533.3689
 340  432.4653
 341  409.401
 342  440.5422
 343  422.6931
 344  520.3272
 345  372.7537
 346  376.8857
 347  396.2405
 348  462.5039
 349  416.1761
 350  446.4061
 351  369.6441
 352  393.3751
 353  547.1808
 354  524.832
 355  359.655
 356  368.1188
 357  509.8261
 358  513.5945
 359  456.9279
 360  444.1343
 361  422.9758
 362  255.4574
 363  295.238
 364  370.2928
 365  412.875
 366  356.0872
 367  277.1299
 368  338.6137
 369  468.0287
 370  459.0198
 371  372.2799
 372  535.6227
 373  505.0667
 374  472.2047
 375  452.1282
 376  503.4495
 377  535.5844
 378  404.9592
 379  514.2879
 380  554.2977
 381  504.8963
 382  441.9865
 383  365.782
 384  451.0586
 385  467.503
 386  374.6984
 387  363.4097
 388  459.5849
 389  430.3284
 390  380.6942
 391  387.7754
 392  421.4227
 393  514.9487
 394  341.3139
 395  393.3052
 396  436.4018
 397  420.8877
 398  494.8805
 399  442.9915
 400  317.5097
 401  314.0124
 402  355.8372
 403  413.9243
 404  292.3374
 405  367.3759
 406  445.3065
 407  317.9463
 408  372.6389
 409  442.4309
 410  464.4212
 411  361.5771
 412  418.2401
 413  423.2258
 414  406.4035
 415  453.8822
 416  385.8214
 417  296.3008
 418  393.0873
 419  405.2652
 420  379.7824
 421  416.0866
 422  411.0464
 423  526.4352
 424  404.2768
 425  423.3446
 426  576.4122
 427  447.5586
 428  363.542
 429  335.0262
 430  405.7174
 431  379.9641
 432  430.495
 433  459.3336
 434  421.6772
 435  342.14
 436  393.9817
 437  545.6098
 438  535.8268
 439  620.9229
 440  516.0589
 441  543.259
 442  593.4833
 443  471.7522
 444  442.2231
 445  414.8792
 446  261.6443
 447  318.0267
 448  438.7519
 449  490.0006
 450  412.0874
 451  441.4009
 452  529.3246
 453  452.7863
 454  487.6756
 455  456.3794
 456  384.0982
 457  480.237
 458  425.1562
 459  436.7556
 460  367.9416
 461  452.1266
 462  412.6132
 463  420.0196
 464  477.5344
 465  461.4193
 466  462.07
 467  434.7055
 468  345.9467
 469  426.5657
 470  390.0251
 471  523.0035
 472  504.1496
 473  568.2883
 474  461.1155
 475  317.3353
 476  314.6788
 477  370.8371
 478  450.1524
 479  406.476
 480  252.6151
 481  382.2278
 482  531.1151
 483  442.2061
 484  295.9326
 485  297.8281
 486  298.4985
 487  404.0451
 488  597.7706
 489  515.0526
 490  416.0656
 491  245.5329
 492  387.8654
 493  491.5441
 494  466.1368
 495  432.756
 496  402.5849
 497  492.013
 498  462.0222
 499  427.1595
 500  394.1554
 501  449.6082
 502  316.2649
 503  399.1543
 504  432.0453
 505  444.6663
 506  479.208
 507  420.8886
 508  431.9846
 509  408.6048
 510  392.9811
 511  333.3757
