# Input file       =  1211858286.131636-PSRB0329-2ms-sampling-dd.dat
# Candidate        =  PSR_0332+5434
# Telescope        =  AR
# Epoch_topo       =  58270.137790875415
# Epoch_bary       =  N/A
# T_sample         =  0.002
# Data Folded      =  7208960
# Data Avg         =  2.15227579059391e-09
# Data StdDev      =  7.5419641926743  
# Profile Bins     =  512
# Profile Avg      =  -0.0903277726234303
# Profile StdDev   =  894.923254967053 
# Reduced chi-sqr  =  0.591
# Prob(Noise)      <  1   (~0.0 sigma)
# P_topo (ms)      =  714.516796167039  +/- 5.37e-05
# P'_topo (s/s)    =  -0                +/- 2.88e-11
# P''_topo (s/s^2) =  0                 +/- 1.3e-14
# P_bary (ms)      =  N/A
# P'_bary (s/s)    =  N/A
# P''_bary (s/s^2) =  N/A
# P_orb (s)        =  N/A
# asin(i)/c (s)    =  N/A
# eccentricity     =  N/A
# w (rad)          =  N/A
# T_peri           =  N/A
######################################################
   0  -140.2817
   1  811.5867
   2  743.0961
   3  176.0498
   4  -80.99843
   5  -173.0875
   6  -447.2927
   7  -670.5499
   8  -19.14751
   9  172.8713
  10  403.8981
  11  -316.4745
  12  -584.1195
  13  -117.5183
  14  77.73697
  15  -718.7183
  16  -694.9421
  17  57.00147
  18  745.8977
  19  248.1564
  20  -287.0963
  21  -672.0587
  22  -913.4883
  23  -887.2178
  24  -1028.199
  25  -144.3053
  26  50.25483
  27  415.5575
  28  -142.6765
  29  -564.2155
  30  -452.6633
  31  -81.12733
  32  -492.4301
  33  139.2981
  34  288.4316
  35  462.1468
  36  -144.8212
  37  -112.6799
  38  90.73049
  39  -23.30475
  40  -67.0433
  41  -846.9523
  42  -164.8043
  43  189.3415
  44  47.34488
  45  -464.511
  46  -276.4446
  47  -86.60333
  48  216.5517
  49  -186.9506
  50  672.6337
  51  760.7904
  52  670.4841
  53  130.2922
  54  -8.348511
  55  -320.5046
  56  -748.7398
  57  -926.8691
  58  -502.1754
  59  461.8806
  60  933.5554
  61  -15.35554
  62  -524.6429
  63  -357.4266
  64  -671.7238
  65  -252.8993
  66  -213.5782
  67  1212.056
  68  1046.163
  69  664.3216
  70  56.07105
  71  27.41399
  72  145.7878
  73  -487.8948
  74  123.4165
  75  500.0225
  76  709.8054
  77  160.1185
  78  -475.5914
  79  347.2577
  80  920.1869
  81  78.54421
  82  -133.8602
  83  327.3993
  84  778.3369
  85  779.1698
  86  19.12851
  87  518.4853
  88  514.2702
  89  103.431
  90  66.41671
  91  -64.4016
  92  932.9915
  93  794.425
  94  673.7278
  95  261.8272
  96  374.1262
  97  272.0269
  98  -204.4623
  99  -21.49954
 100  744.8686
 101  1658.411
 102  1175.548
 103  716.5069
 104  574.7745
 105  2.26318
 106  -657.1801
 107  -102.5297
 108  -373.6551
 109  231.0275
 110  284.0421
 111  471.0733
 112  417.6513
 113  1.364829
 114  -148.9756
 115  -378.6874
 116  151.8062
 117  186.6304
 118  224.0915
 119  43.58361
 120  226.8515
 121  144.7892
 122  16.8685
 123  -572.3149
 124  -189.1388
 125  -221.4939
 126  243.3451
 127  150.3753
 128  -422.898
 129  -293.4065
 130  -619.8981
 131  -364.505
 132  179.9299
 133  775.4632
 134  1160.131
 135  395.8934
 136  -142.3674
 137  -450.5627
 138  -478.9611
 139  -351.9633
 140  -730.7228
 141  509.3334
 142  322.3389
 143  -157.4377
 144  -613.3734
 145  -779.7746
 146  -279.3246
 147  -331.313
 148  250.1477
 149  414.8868
 150  761.8632
 151  70.88448
 152  -447.3945
 153  -183.3091
 154  143.0578
 155  -10.2645
 156  -249.2142
 157  -44.11837
 158  272.7874
 159  145.0526
 160  -428.0243
 161  -852.752
 162  -1075.892
 163  -531.1407
 164  -347.3834
 165  -450.4278
 166  168.98
 167  611.5947
 168  529.2343
 169  -356.7502
 170  -472.351
 171  -775.935
 172  -1273.973
 173  -975.9331
 174  -318.9228
 175  153.3296
 176  -220.5796
 177  -88.17694
 178  -151.8498
 179  -145.618
 180  -524.1938
 181  -676.5077
 182  -690.1397
 183  520.4797
 184  401.8214
 185  -51.95415
 186  -26.63325
 187  199.4525
 188  -106.8737
 189  -545.1747
 190  -220.9494
 191  -299.2093
 192  -104.3698
 193  -402.7745
 194  -605.5832
 195  -273.2584
 196  -45.26835
 197  -389.1907
 198  234.9308
 199  318.8043
 200  805.9307
 201  405.4871
 202  226.3631
 203  21.43677
 204  -216.7356
 205  -216.9697
 206  -1092
 207  -166.2488
 208  526.9173
 209  276.5231
 210  429.3866
 211  -381.8051
 212  -411.5235
 213  -55.52271
 214  -117.7642
 215  374.2315
 216  896.8346
 217  923.5464
 218  471.4964
 219  546.905
 220  215.6174
 221  -549.0525
 222  -418.637
 223  -190.6976
 224  318.5815
 225  619.9671
 226  411.553
 227  179.3223
 228  895.1596
 229  1584.343
 230  1843.425
 231  1935.157
 232  1889.657
 233  855.3816
 234  78.036
 235  -14.13628
 236  -71.132
 237  485.8874
 238  11.54265
 239  -123.1557
 240  103.4407
 241  219.4816
 242  373.2811
 243  -420.4028
 244  -29.183
 245  9.844939
 246  168.4603
 247  125.5132
 248  221.9169
 249  991.3124
 250  565.1401
 251  69.77187
 252  84.06882
 253  -69.00886
 254  -306.8411
 255  -530.9677
 256  192.1463
 257  509.0773
 258  139.2503
 259  -101.6741
 260  -549.6075
 261  -295.8454
 262  -295.3084
 263  -62.77262
 264  355.291
 265  386.9191
 266  860.6932
 267  678.3931
 268  -502.3088
 269  -395.4546
 270  -140.4134
 271  -302.1266
 272  -163.1004
 273  -243.0824
 274  103.4485
 275  -111.5995
 276  210.7204
 277  -257.0463
 278  -405.4176
 279  -667.0868
 280  -756.9167
 281  156.8508
 282  442.1472
 283  671.2269
 284  505.5447
 285  196.4737
 286  -89.43893
 287  -906.1433
 288  -954.2083
 289  -795.9497
 290  -907.4046
 291  166.4806
 292  -126.6365
 293  -476.4955
 294  -561.7648
 295  -346.4164
 296  -449.6844
 297  -296.5045
 298  478.6247
 299  660.0072
 300  137.7011
 301  -420.3962
 302  0.6277147
 303  344.6241
 304  -387.0266
 305  -1109.697
 306  -517.5107
 307  192.3093
 308  -475.3071
 309  -1121.202
 310  -838.6338
 311  -262.4455
 312  -203.6744
 313  233.554
 314  322.2612
 315  393.8422
 316  352.2404
 317  2.984236
 318  374.1161
 319  356.5614
 320  -117.675
 321  -562.2753
 322  -793.0402
 323  446.5017
 324  -194.1933
 325  -342.9741
 326  -196.2367
 327  -83.63671
 328  167.391
 329  155.3837
 330  144.2749
 331  100.1779
 332  99.1999
 333  -1.062133
 334  37.06445
 335  120.6542
 336  175.6216
 337  -134.1632
 338  -429.8116
 339  -219.2289
 340  35.46244
 341  -486.1041
 342  -1211.584
 343  -872.8481
 344  -109.3018
 345  -226.5144
 346  76.79803
 347  224.1471
 348  1127.788
 349  1017.307
 350  251.0275
 351  -158.4676
 352  -152.9277
 353  -478.5724
 354  -644.3248
 355  -47.58686
 356  -27.59591
 357  128.17
 358  -17.25163
 359  -231.4125
 360  -228.6883
 361  -321.4461
 362  -654.5858
 363  -55.92075
 364  563.3551
 365  809.4034
 366  -135.1561
 367  -190.0749
 368  67.6195
 369  128.1948
 370  -55.1461
 371  -752.0727
 372  -498.146
 373  -806.6855
 374  -756.1805
 375  -702.5184
 376  -494.4312
 377  -180.3665
 378  -546.4006
 379  -757.0212
 380  -33.03745
 381  550.8528
 382  774.0554
 383  -89.87592
 384  -156.8678
 385  72.09509
 386  -221.331
 387  -649.1586
 388  -623.7039
 389  -3.416876
 390  315.9747
 391  -98.22768
 392  -421.7686
 393  -649.3809
 394  -693.6768
 395  -549.8835
 396  -343.499
 397  802.3706
 398  427.0267
 399  532.178
 400  184.3509
 401  454.1644
 402  256.8041
 403  -241.798
 404  -997.0757
 405  -1301.84
 406  -270.9716
 407  -307.9484
 408  -755.8782
 409  31.71341
 410  728.2932
 411  706.943
 412  379.5394
 413  -207.0126
 414  175.9961
 415  212.4799
 416  20.73622
 417  481.7162
 418  746.3617
 419  298.2042
 420  -63.42158
 421  -57.70874
 422  472.5422
 423  523.3729
 424  157.1463
 425  -469.474
 426  -106.6503
 427  209.7286
 428  -11.802
 429  -109.3317
 430  491.4777
 431  1164.779
 432  839.6585
 433  444.8752
 434  -103.6566
 435  -79.34317
 436  -31.1524
 437  -84.50822
 438  118.0461
 439  244.0414
 440  348.9141
 441  277.7043
 442  -115.694
 443  151.9052
 444  238.6024
 445  35.22236
 446  707.7674
 447  640.7225
 448  883.9575
 449  340.0198
 450  46.55704
 451  418.578
 452  191.8723
 453  173.9979
 454  144.4631
 455  70.07037
 456  143.0629
 457  -358.337
 458  -651.8058
 459  -265.5401
 460  -193.9012
 461  -330.9691
 462  -333.1759
 463  595.4638
 464  837.0845
 465  218.6335
 466  -82.48878
 467  -581.1815
 468  -451.5348
 469  -402.813
 470  -1001.821
 471  -198.4901
 472  -30.97846
 473  335.9751
 474  -560.4463
 475  -677.6754
 476  -631.5452
 477  -576.2131
 478  -16.87593
 479  -109.9623
 480  506.1007
 481  610.22
 482  148.5611
 483  17.03675
 484  383.8759
 485  217.6962
 486  -507.1469
 487  -1081.374
 488  160.8359
 489  381.9707
 490  -174.6075
 491  -363.2386
 492  17.06326
 493  176.5226
 494  -194.6699
 495  100.0887
 496  453.2714
 497  666.1689
 498  557.5001
 499  290.0165
 500  534.2815
 501  296.7894
 502  -58.94997
 503  -78.76793
 504  -227.6118
 505  845.4066
 506  372.6713
 507  -601.9751
 508  -648.9847
 509  -133.9164
 510  -104.7638
 511  -251.9451
