# Input file       =  1211715512.106801_cleaned.dat
# Candidate        =  PSR_0332+5434
# Telescope        =  AR
# Epoch_topo       =  58268.485313736121
# Epoch_bary       =  N/A
# T_sample         =  0.002
# Data Folded      =  7340032
# Data Avg         =  0.0167203844658027
# Data StdDev      =  1.00006004169855 
# Profile Bins     =  512
# Profile Avg      =  239.707560128245 
# Profile StdDev   =  119.740225351643 
# Reduced chi-sqr  =  1.279
# Prob(Noise)      <  1.86e-05   (~4.1 sigma)
# P_topo (ms)      =  714.518752445464  +/- 0.00026
# P'_topo (s/s)    =  -0                +/- 1.37e-10
# P''_topo (s/s^2) =  0                 +/- 6.06e-14
# P_bary (ms)      =  N/A
# P'_bary (s/s)    =  N/A
# P''_bary (s/s^2) =  N/A
# P_orb (s)        =  N/A
# asin(i)/c (s)    =  N/A
# eccentricity     =  N/A
# w (rad)          =  N/A
# T_peri           =  N/A
######################################################
   0  192.2872
   1  227.3559
   2  135.2261
   3  245.0868
   4  371.3666
   5  313.8928
   6  282.6822
   7  316.6292
   8  251.0246
   9  120.996
  10  223.289
  11  398.2171
  12  318.6037
  13  236.4578
  14  271.1218
  15  204.6114
  16  253.9173
  17  322.3832
  18  205.4044
  19  203.5611
  20  308.6401
  21  353.3072
  22  233.168
  23  230.6441
  24  261.7364
  25  302.6301
  26  199.3966
  27  277.8305
  28  206.7948
  29  226.439
  30  296.2641
  31  171.4304
  32  213.2372
  33  250.7123
  34  294.0672
  35  224.6281
  36  260.875
  37  317.5175
  38  223.4041
  39  289.8981
  40  275.3124
  41  308.7872
  42  299.6415
  43  308.2736
  44  68.84261
  45  76.63093
  46  184.9332
  47  228.1926
  48  228.3453
  49  143.3962
  50  115.5149
  51  160.9512
  52  374.6203
  53  432.3058
  54  492.3899
  55  605.3525
  56  752.7537
  57  833.4891
  58  818.4656
  59  846.2013
  60  684.9111
  61  456.2133
  62  251.3241
  63  168.901
  64  264.87
  65  221.3813
  66  154.6277
  67  290.1622
  68  303.2663
  69  224.5273
  70  198.5785
  71  81.06895
  72  154.8326
  73  259.3648
  74  204.3678
  75  115.3964
  76  199.2716
  77  272.5355
  78  197.2807
  79  136.754
  80  255.7165
  81  226.8508
  82  321.8092
  83  276.6184
  84  272.4087
  85  240.8233
  86  224.3742
  87  129.0831
  88  166.3739
  89  243.0545
  90  225.0348
  91  204.5845
  92  215.4383
  93  157.6665
  94  258.8424
  95  186.388
  96  48.60817
  97  61.29462
  98  159.6646
  99  124.2305
 100  158.4899
 101  178.1753
 102  229.1974
 103  260.3309
 104  336.6216
 105  295.9578
 106  120.8412
 107  181.5654
 108  166.4023
 109  218.1916
 110  202.8638
 111  224.7624
 112  204.0297
 113  153.317
 114  194.6821
 115  280.2798
 116  403.9409
 117  401.6439
 118  345.0537
 119  313.1486
 120  417.2469
 121  246.3246
 122  304.0677
 123  280.4319
 124  230.6379
 125  235.1231
 126  262.427
 127  283.6677
 128  206.3307
 129  252.2343
 130  99.87407
 131  122.6548
 132  284.1128
 133  407.7983
 134  330.6311
 135  189.0202
 136  114.2169
 137  181.382
 138  294.1352
 139  266.7618
 140  277.7297
 141  329.979
 142  157.7523
 143  87.81036
 144  186.8718
 145  297.5125
 146  177.4374
 147  224.3392
 148  243.8734
 149  318.0363
 150  276.0929
 151  146.1336
 152  90.00787
 153  157.4619
 154  198.0977
 155  146.5021
 156  233.8756
 157  175.5512
 158  152.0959
 159  194.4972
 160  140.5052
 161  199.298
 162  94.32219
 163  148.1447
 164  260.286
 165  147.0285
 166  100.7355
 167  203.0536
 168  189.1187
 169  161.8579
 170  225.6846
 171  118.6443
 172  117.2562
 173  143.7999
 174  301.4147
 175  117.4843
 176  241.0008
 177  292.9312
 178  142.0007
 179  121.2327
 180  133.9465
 181  195.5989
 182  150.0384
 183  173.4215
 184  251.3084
 185  284.7935
 186  210.1757
 187  300.2631
 188  294.6285
 189  144.2192
 190  162.1466
 191  307.9601
 192  337.4725
 193  308.9976
 194  264.6049
 195  237.454
 196  255.5344
 197  227.3128
 198  161.0024
 199  217.8587
 200  242.1763
 201  330.5865
 202  348.8026
 203  208.206
 204  203.2726
 205  265.1417
 206  156.3214
 207  143.991
 208  190.5233
 209  252.9812
 210  233.2378
 211  239.3477
 212  235.818
 213  136.17
 214  236.9928
 215  336.2812
 216  264.2482
 217  292.1573
 218  226.6474
 219  142.0535
 220  49.02775
 221  98.46148
 222  81.49261
 223  160.505
 224  177.3214
 225  243.4467
 226  281.8422
 227  332.409
 228  188.8894
 229  208.6572
 230  355.0223
 231  310.3028
 232  150.5906
 233  129.1481
 234  231.4142
 235  441.0634
 236  408.3611
 237  329.185
 238  312.3464
 239  155.6311
 240  171.9196
 241  227.6041
 242  201.9214
 243  171.6074
 244  241.9336
 245  233.6599
 246  275.7591
 247  236.5132
 248  290.6862
 249  313.0751
 250  254.3196
 251  257.1283
 252  307.7577
 253  286.9367
 254  306.4578
 255  295.704
 256  179.9841
 257  89.48795
 258  191.2167
 259  176.3585
 260  108.376
 261  208.6734
 262  208.5245
 263  184.4258
 264  187.9689
 265  158.1569
 266  46.10207
 267  171.9909
 268  291.4294
 269  223.2268
 270  190.9412
 271  185.6027
 272  234.9528
 273  219.7981
 274  304.4751
 275  277.1136
 276  171.5119
 277  201.5291
 278  213.2093
 279  176.8251
 280  145.3961
 281  226.7844
 282  246.7442
 283  282.0891
 284  222.0804
 285  132.3731
 286  312.0754
 287  399.3936
 288  276.5935
 289  176.6651
 290  159.6904
 291  196.4012
 292  218.1226
 293  331.3687
 294  311.3446
 295  144.9296
 296  126.7847
 297  245.2729
 298  288.1949
 299  161.2516
 300  170.3052
 301  142.8967
 302  112.7612
 303  125.8168
 304  60.32305
 305  124.5851
 306  110.7494
 307  286.1443
 308  461.8516
 309  362.4776
 310  445.4626
 311  356.2039
 312  271.0464
 313  222.7938
 314  188.3287
 315  250.2996
 316  322.7004
 317  311.4365
 318  321.8376
 319  363.4935
 320  347.1002
 321  255.7789
 322  208.2969
 323  335.4201
 324  306.2205
 325  376.9944
 326  318.8556
 327  198.8698
 328  193.7838
 329  442.2888
 330  432.4262
 331  325.1914
 332  288.9328
 333  358.2846
 334  260.2677
 335  204.5597
 336  310.9923
 337  326.2378
 338  354.0482
 339  245.6653
 340  220.9104
 341  250.3973
 342  276.7387
 343  328.1907
 344  333.7208
 345  212.5963
 346  175.7954
 347  131.2068
 348  153.6816
 349  229.8237
 350  114.3313
 351  155.7412
 352  136.0817
 353  185.757
 354  212.9445
 355  181.1168
 356  158.4665
 357  64.00539
 358  78.45477
 359  179.8189
 360  160.3821
 361  245.7001
 362  312.3322
 363  327.7288
 364  167.0144
 365  134.9728
 366  206.2599
 367  217.3815
 368  169.1163
 369  373.7643
 370  279.6128
 371  97.84138
 372  213.1998
 373  155.4326
 374  73.25555
 375  150.1815
 376  219.1479
 377  245.6422
 378  165.2485
 379  291.9516
 380  308.7596
 381  134.2901
 382  174.42
 383  212.4924
 384  249.2858
 385  254.656
 386  251.0495
 387  160.5997
 388  139.0885
 389  111.9524
 390  178.8737
 391  318.4214
 392  276.4509
 393  258.6371
 394  314.8124
 395  259.672
 396  210.4178
 397  214.2705
 398  284.9089
 399  248.8715
 400  237.8153
 401  136.2715
 402  125.393
 403  134.8443
 404  130.9483
 405  177.6666
 406  155.4198
 407  251.6162
 408  208.3403
 409  298.0838
 410  322.1393
 411  363.895
 412  232.8335
 413  190.3499
 414  199.1247
 415  216.7986
 416  243.5775
 417  213.1058
 418  190.6136
 419  343.1143
 420  297.9947
 421  269.415
 422  229.0821
 423  281.5632
 424  325.2976
 425  222.4357
 426  302.8233
 427  251.4623
 428  166.352
 429  185.7244
 430  136.1553
 431  192.8096
 432  214.7922
 433  228.83
 434  237.8603
 435  291.3545
 436  330.6107
 437  239.2916
 438  201.0195
 439  245.3258
 440  288.5693
 441  172.8806
 442  217.6349
 443  219.367
 444  309.0503
 445  225.0039
 446  186.6829
 447  119.928
 448  233.7044
 449  426.378
 450  386.8306
 451  298.3886
 452  218.3676
 453  159.0061
 454  22.23135
 455  203.1432
 456  284.9258
 457  251.2014
 458  345.1031
 459  159.4644
 460  184.2738
 461  104.2313
 462  155.6813
 463  261.3621
 464  119.2537
 465  132.5378
 466  288.2657
 467  255.2181
 468  232.9703
 469  272.3282
 470  320.2845
 471  256.5051
 472  356.5542
 473  377.4987
 474  294.4732
 475  274.0281
 476  352.9202
 477  324.4582
 478  174.2056
 479  247.0523
 480  237.862
 481  254.2554
 482  195.7868
 483  279.5312
 484  484.2852
 485  258.3857
 486  187.3824
 487  268.409
 488  349.4609
 489  240.7091
 490  117.9043
 491  204.799
 492  266.9265
 493  348.9958
 494  346.045
 495  283.0615
 496  109.7624
 497  243.4838
 498  253.7257
 499  224.8374
 500  264.5531
 501  346.9104
 502  359.2267
 503  335.8163
 504  346.3048
 505  260.8206
 506  279.0399
 507  320.5221
 508  271.3351
 509  237.2569
 510  338.1269
 511  358.1296
