# Input file       =  1211184299.108801_cleaned.dat
# Candidate        =  PSR_0332+5434
# Telescope        =  AR
# Epoch_topo       =  58262.337015148158
# Epoch_bary       =  N/A
# T_sample         =  0.002
# Data Folded      =  7340032
# Data Avg         =  0.170131880734905
# Data StdDev      =  4.6442122696843  
# Profile Bins     =  256
# Profile Avg      =  4876.50373643377 
# Profile StdDev   =  786.395564888287 
# Reduced chi-sqr  =  1.051
# Prob(Noise)      <  0.274   (~0.6 sigma)
# P_topo (ms)      =  714.524442738478  +/- 0.000452
# P'_topo (s/s)    =  -0                +/- 2.39e-10
# P''_topo (s/s^2) =  0                 +/- 1.05e-13
# P_bary (ms)      =  N/A
# P'_bary (s/s)    =  N/A
# P''_bary (s/s^2) =  N/A
# P_orb (s)        =  N/A
# asin(i)/c (s)    =  N/A
# eccentricity     =  N/A
# w (rad)          =  N/A
# T_peri           =  N/A
######################################################
   0  5430.29
   1  5129.936
   2  5730.053
   3  4645.228
   4  3896.201
   5  5175.512
   6  5490.013
   7  5607.369
   8  4035.073
   9  4321.645
  10  4480.659
  11  4988.736
  12  4854.557
  13  4153.247
  14  4300.358
  15  3711.756
  16  3732.118
  17  3925.138
  18  4541.236
  19  5327.611
  20  4939.583
  21  5144.123
  22  5172.582
  23  5304.957
  24  4925.112
  25  4759.291
  26  4523.59
  27  5102.32
  28  5249.088
  29  5862.364
  30  4778.157
  31  4680.126
  32  5132.863
  33  5757.45
  34  5346.315
  35  5683.436
  36  5325.61
  37  5464.138
  38  5346.765
  39  5543.006
  40  5725.864
  41  5356.922
  42  5330.345
  43  5352.621
  44  4777.741
  45  4873.812
  46  5103.758
  47  4405.667
  48  4239.039
  49  4346.397
  50  4053.848
  51  5033.551
  52  5070.119
  53  5117.165
  54  4611.363
  55  4814.256
  56  4713.781
  57  4677.256
  58  4540.567
  59  3410.479
  60  4160.178
  61  4799.1
  62  4188.098
  63  4107.978
  64  4440.065
  65  4077.229
  66  4035.376
  67  4321.324
  68  4834.782
  69  4446.502
  70  4919.33
  71  4921.15
  72  4702.603
  73  5080.861
  74  4353.507
  75  4470.927
  76  5488.938
  77  5269.665
  78  3876.821
  79  4607.519
  80  4441.211
  81  4335.807
  82  3719.941
  83  3680.805
  84  4083.703
  85  3528.397
  86  4119.406
  87  4081.393
  88  4517.26
  89  4640.076
  90  3965.409
  91  4323.815
  92  4120.466
  93  5177.523
  94  5210.645
  95  4958.489
  96  5026.346
  97  5126.462
  98  4798.028
  99  4180.25
 100  4294.896
 101  4257.547
 102  4698.13
 103  5041.928
 104  5401.095
 105  5344.074
 106  5118.516
 107  5540.316
 108  5484.681
 109  5075.194
 110  5348.033
 111  4708.239
 112  5153.122
 113  5330.613
 114  4829.899
 115  5322.644
 116  4737.816
 117  4886.336
 118  4681.499
 119  4844.127
 120  4644.177
 121  5204.95
 122  4698.836
 123  4780.394
 124  4436.452
 125  4649.343
 126  3717.931
 127  3515.874
 128  4249.618
 129  3775.229
 130  3110.343
 131  3739.111
 132  4088.076
 133  4111.576
 134  4369.334
 135  4379.809
 136  4294.166
 137  4299.091
 138  4529.965
 139  4354.478
 140  4445.264
 141  4247.574
 142  4724.073
 143  3901.031
 144  4050.135
 145  5080.255
 146  4718.341
 147  5681.77
 148  7095.443
 149  8776.293
 150  8394.483
 151  6395.554
 152  4978.956
 153  4398.245
 154  4800.756
 155  5734.681
 156  5464.306
 157  5135.31
 158  5093.688
 159  5323.923
 160  5526.758
 161  5330.917
 162  5072.978
 163  4518.336
 164  5092.965
 165  4273.908
 166  3786.681
 167  3990.774
 168  4643.104
 169  3895.271
 170  4167.041
 171  4637.405
 172  4669.241
 173  4362.572
 174  4467.27
 175  4898.467
 176  4709.863
 177  5136.502
 178  4885.396
 179  4271.686
 180  4037.417
 181  5693.375
 182  4682.127
 183  4456.072
 184  5444.14
 185  5460.622
 186  5909.354
 187  5151.226
 188  4945.626
 189  4956.761
 190  4766.263
 191  4646.045
 192  3746.205
 193  3949.317
 194  4132.199
 195  4556.969
 196  4993.748
 197  5066.301
 198  4888.93
 199  5358.483
 200  5449.115
 201  4712.258
 202  5099.382
 203  5163.842
 204  5428.933
 205  4866.972
 206  5653.926
 207  5832.066
 208  5002.996
 209  5335.511
 210  5212.78
 211  5736.397
 212  5693.627
 213  5681.876
 214  5413.565
 215  5309.892
 216  5399.237
 217  5655.328
 218  5180.592
 219  5520.778
 220  4956.461
 221  4958.818
 222  4437.275
 223  3838.066
 224  4888.254
 225  4898.441
 226  4872.589
 227  5300.523
 228  4919.624
 229  5507.87
 230  5396.284
 231  4471.739
 232  4618.459
 233  4779.293
 234  4778.88
 235  4232.34
 236  4518.225
 237  4693.422
 238  5766.164
 239  5863.115
 240  5517.205
 241  4758.572
 242  4634.378
 243  6119.921
 244  5339.088
 245  5302.422
 246  4935.336
 247  5423.409
 248  4617.493
 249  5303.916
 250  5664.855
 251  5959.666
 252  6318.942
 253  5966.58
 254  6287.018
 255  6315.833
