# Input file       =  1211169117.109627_cleaned.dat
# Candidate        =  PSR_0332+5434
# Telescope        =  AR
# Epoch_topo       =  58262.161297565130
# Epoch_bary       =  N/A
# T_sample         =  0.002
# Data Folded      =  7143424
# Data Avg         =  0.0242749839097245
# Data StdDev      =  1.000051419685   
# Profile Bins     =  512
# Profile Avg      =  338.68126303355  
# Profile StdDev   =  118.124658102274 
# Reduced chi-sqr  =  1.662
# Prob(Noise)      <  3.08e-19   (~8.9 sigma)
# P_topo (ms)      =  714.524590887375  +/- 0.00019
# P'_topo (s/s)    =  -0                +/- 1.03e-10
# P''_topo (s/s^2) =  0                 +/- 4.67e-14
# P_bary (ms)      =  N/A
# P'_bary (s/s)    =  N/A
# P''_bary (s/s^2) =  N/A
# P_orb (s)        =  N/A
# asin(i)/c (s)    =  N/A
# eccentricity     =  N/A
# w (rad)          =  N/A
# T_peri           =  N/A
######################################################
   0  1145.013
   1  991.835
   2  754.2696
   3  489.7468
   4  423.4207
   5  472.0153
   6  386.7065
   7  309.3781
   8  361.1434
   9  347.6629
  10  480.571
  11  493.9862
  12  396.6624
  13  478.3317
  14  524.1621
  15  375.2513
  16  323.8067
  17  372.4264
  18  380.4522
  19  385.4335
  20  492.8334
  21  413.3268
  22  289.9406
  23  404.2389
  24  434.3987
  25  316.0464
  26  389.5399
  27  511.8324
  28  430.3285
  29  362.7205
  30  309.8332
  31  261.3178
  32  306.1176
  33  312.5988
  34  397.2933
  35  364.7662
  36  399.9272
  37  460.518
  38  437.5094
  39  470.5993
  40  436.0567
  41  338.9489
  42  318.5193
  43  281.6276
  44  295.2944
  45  255.334
  46  295.2416
  47  310.747
  48  319.4141
  49  292.9848
  50  207.6873
  51  178.4407
  52  235.6274
  53  337.6547
  54  406.8053
  55  334.2621
  56  217.2524
  57  285.0085
  58  242.4261
  59  338.6933
  60  352.8778
  61  328.2955
  62  307.7404
  63  308.0098
  64  260.7018
  65  227.3463
  66  241.3382
  67  291.9297
  68  360.0576
  69  479.1019
  70  434.9662
  71  383.9176
  72  347.6463
  73  293.9532
  74  261.3875
  75  301.994
  76  293.6147
  77  333.4539
  78  312.7425
  79  313.8279
  80  206.3615
  81  21.04042
  82  255.2169
  83  365.08
  84  236.3393
  85  259.6314
  86  211.6429
  87  267.2414
  88  279.1834
  89  338.6058
  90  265.3678
  91  206.4163
  92  259.2182
  93  309.3203
  94  249.5857
  95  239.4467
  96  333.0409
  97  456.4417
  98  477.32
  99  403.7179
 100  354.3226
 101  440.7704
 102  285.0569
 103  280.8079
 104  319.7229
 105  348.7625
 106  349.4122
 107  299.6942
 108  216.5544
 109  272.0074
 110  441.9004
 111  457.2062
 112  369.9183
 113  282.5493
 114  307.161
 115  324.9156
 116  317.7314
 117  240.0726
 118  117.303
 119  232.1795
 120  337.3075
 121  276.6041
 122  316.4578
 123  282.3838
 124  213.0211
 125  277.5365
 126  390.6705
 127  338.5084
 128  287.6876
 129  218.106
 130  202.8178
 131  196.6009
 132  233.6666
 133  209.8019
 134  200.5106
 135  315.6628
 136  348.0724
 137  363.7373
 138  291.6748
 139  177.2518
 140  139.9259
 141  116.1193
 142  225.6586
 143  243.892
 144  302.1855
 145  390.443
 146  269.1794
 147  230.9129
 148  158.4285
 149  176.1643
 150  207.6834
 151  234.7512
 152  221.0344
 153  309.8973
 154  266.5129
 155  152.4073
 156  211.8357
 157  225.1265
 158  280.3949
 159  377.5865
 160  338.9242
 161  283.8279
 162  209.0451
 163  214.9095
 164  234.3804
 165  308.2159
 166  368.8152
 167  339.4454
 168  277.6925
 169  253.0087
 170  217.0896
 171  110.2198
 172  242.6382
 173  391.5288
 174  442.172
 175  409.4182
 176  279.5963
 177  353.2993
 178  458.6864
 179  432.6317
 180  255.7685
 181  286.8997
 182  327.7233
 183  333.8557
 184  347.7904
 185  324.7369
 186  418.9962
 187  364.4818
 188  314.8078
 189  362.6709
 190  453.4513
 191  337.7058
 192  280.9466
 193  412.6406
 194  453.6299
 195  348.416
 196  424.6653
 197  427.6285
 198  379.5313
 199  294.4098
 200  353.1934
 201  324.5937
 202  346.3008
 203  216.0712
 204  235.3038
 205  255.6838
 206  206.7533
 207  322.1202
 208  300.2339
 209  483.6258
 210  394.3177
 211  450.2572
 212  387.0607
 213  445.1942
 214  464.3593
 215  252.4109
 216  254.719
 217  198.7014
 218  195.3107
 219  360.8827
 220  423.2607
 221  324.5541
 222  159.3013
 223  278.6331
 224  292.4438
 225  279.1667
 226  352.2488
 227  518.83
 228  314.5502
 229  167.16
 230  280.3006
 231  260.0228
 232  286.2835
 233  231.3699
 234  209.2467
 235  113.1798
 236  279.1568
 237  338.7242
 238  351.1485
 239  289.5287
 240  297.514
 241  404.6657
 242  405.1225
 243  318.6503
 244  398.8002
 245  438.4983
 246  387.4363
 247  274.3522
 248  298.8091
 249  193.0268
 250  331.765
 251  355.8157
 252  362.4227
 253  351.755
 254  387.0433
 255  516.5863
 256  395.5262
 257  419.9539
 258  326.1245
 259  239.6707
 260  477.0806
 261  271.9024
 262  344.1659
 263  314.4192
 264  192.0748
 265  321.8586
 266  368.5405
 267  439.0328
 268  452.5625
 269  408.2745
 270  306.4394
 271  351.1023
 272  323.157
 273  300.8042
 274  309.5597
 275  318.0379
 276  271.5613
 277  319.3181
 278  325.209
 279  249.2885
 280  202.0824
 281  186.678
 282  223.5191
 283  230.6489
 284  177.1615
 285  367.6626
 286  338.3075
 287  267.3592
 288  201.0187
 289  286.2185
 290  365.9117
 291  212.151
 292  284.7915
 293  345.5055
 294  291.3146
 295  197.9118
 296  233.4835
 297  186.0519
 298  202.2389
 299  380.1702
 300  412.4896
 301  380.9139
 302  294.3961
 303  293.2999
 304  351.6319
 305  350.529
 306  324.4491
 307  352.5006
 308  424.5857
 309  335.6743
 310  285.8835
 311  287.5724
 312  274.3809
 313  285.5833
 314  345.1865
 315  340.1247
 316  311.4698
 317  343.7454
 318  264.2381
 319  324.0475
 320  403.7393
 321  350.9935
 322  394.8889
 323  313.2527
 324  292.5316
 325  446.578
 326  392.2487
 327  378.7204
 328  275.5241
 329  246.719
 330  317.0428
 331  340.4028
 332  349.6423
 333  331.3886
 334  313.501
 335  324.0215
 336  321.9021
 337  252.3743
 338  285.5659
 339  222.8172
 340  396.905
 341  414.8578
 342  337.7854
 343  328.4918
 344  290.1119
 345  373.7643
 346  399.6847
 347  307.1632
 348  172.3864
 349  203.7459
 350  485.2278
 351  448.2986
 352  321.682
 353  334.306
 354  250.8546
 355  202.1809
 356  296.8525
 357  416.388
 358  378.7334
 359  340.7362
 360  298.6782
 361  334.1624
 362  250.7173
 363  262.2555
 364  308.6438
 365  336.6441
 366  311.0631
 367  381.3907
 368  436.7838
 369  418.7179
 370  427.8293
 371  330.4106
 372  288.4547
 373  414.9862
 374  517.2097
 375  378.8212
 376  392.3903
 377  401.1519
 378  289.7252
 379  301.9427
 380  446.5078
 381  363.1784
 382  569.3476
 383  547.519
 384  377.5064
 385  329.7321
 386  191.9557
 387  379.6739
 388  409.9973
 389  305.7318
 390  325.3395
 391  452.6855
 392  512.3236
 393  485.6449
 394  418.1114
 395  269.4157
 396  122.9965
 397  354.6224
 398  548.3886
 399  435.7137
 400  343.4611
 401  405.897
 402  575.4713
 403  439.9963
 404  232.7268
 405  374.4312
 406  437.2352
 407  457.9543
 408  478.4168
 409  361.1072
 410  363.8254
 411  431.8176
 412  454.3348
 413  437.6019
 414  352.2392
 415  346.9176
 416  448.5278
 417  408.2982
 418  367.4487
 419  406.7349
 420  363.5104
 421  339.5191
 422  324.2908
 423  313.0042
 424  282.9456
 425  314.1101
 426  333.0951
 427  275.7876
 428  233.8125
 429  235.9984
 430  213.9773
 431  216.0957
 432  302.5256
 433  305.5899
 434  442.8404
 435  334.2622
 436  246.1411
 437  365.2953
 438  313.0588
 439  282.2997
 440  338.5957
 441  355.5763
 442  352.7955
 443  304.1068
 444  268.5977
 445  290.0566
 446  425.3609
 447  404.7027
 448  394.8856
 449  499.8784
 450  446.9118
 451  426.8928
 452  288.0546
 453  284.5997
 454  325.2001
 455  255.4148
 456  253.7057
 457  281.0046
 458  326.4596
 459  275.5081
 460  264.5245
 461  285.8838
 462  196.2666
 463  256.3571
 464  459.4018
 465  402.3547
 466  280.6275
 467  292.1849
 468  272.2654
 469  230.5855
 470  376.1859
 471  308.493
 472  312.9399
 473  297.6766
 474  328.6478
 475  411.4507
 476  413.6142
 477  493.5358
 478  352.1977
 479  399.9883
 480  413.1779
 481  353.5523
 482  282.536
 483  351.1834
 484  331.0104
 485  315.3785
 486  376.7325
 487  325.5219
 488  187.9542
 489  218.1818
 490  431.0493
 491  518.4995
 492  444.6508
 493  424.2206
 494  392.0475
 495  484.4587
 496  387.9326
 497  328.8912
 498  307.8224
 499  435.2772
 500  509.3718
 501  427.1286
 502  423.308
 503  405.4311
 504  375.2037
 505  529.0591
 506  482.8708
 507  498.9927
 508  626.6636
 509  872.5326
 510  976.2296
 511  1008.762
