# Input file       =  1211255245.100422_cleaned.dat
# Candidate        =  PSR_0332+5434
# Telescope        =  AR
# Epoch_topo       =  58263.158149310439
# Epoch_bary       =  N/A
# T_sample         =  0.002
# Data Folded      =  7143424
# Data Avg         =  0.262042721085155
# Data StdDev      =  7.11583550706083 
# Profile Bins     =  256
# Profile Avg      =  7309.43053459318 
# Profile StdDev   =  1188.66406017126 
# Reduced chi-sqr  =  1.060
# Prob(Noise)      <  0.242   (~0.7 sigma)
# P_topo (ms)      =  714.523614123343  +/- 6.89e-05
# P'_topo (s/s)    =  -0                +/- 3.74e-11
# P''_topo (s/s^2) =  0                 +/- 1.69e-14
# P_bary (ms)      =  N/A
# P'_bary (s/s)    =  N/A
# P''_bary (s/s^2) =  N/A
# P_orb (s)        =  N/A
# asin(i)/c (s)    =  N/A
# eccentricity     =  N/A
# w (rad)          =  N/A
# T_peri           =  N/A
######################################################
   0  7365.364
   1  7444.619
   2  6887.323
   3  7152.553
   4  7695.45
   5  7634.35
   6  6630.079
   7  6718.407
   8  7003.876
   9  6646.488
  10  5988.792
  11  6620.292
  12  8780.775
  13  8439.169
  14  6638.01
  15  5773.429
  16  4831.488
  17  6009.691
  18  7324.016
  19  5299.691
  20  6993.161
  21  8283.312
  22  6375.047
  23  7805.289
  24  7307.009
  25  8167.543
  26  6954.601
  27  7282.693
  28  6528.299
  29  9144.19
  30  7931.545
  31  7860.333
  32  7359.493
  33  7657.308
  34  6709.297
  35  6704.377
  36  7078.329
  37  7223.107
  38  8622.535
  39  7350.797
  40  6388.036
  41  8270.686
  42  7397.335
  43  5817.899
  44  6582.727
  45  6801.424
  46  7164.411
  47  5398.195
  48  5176.831
  49  5410.875
  50  6925.309
  51  5634.021
  52  5121.364
  53  5509.977
  54  5237.501
  55  6042.859
  56  7346.619
  57  6091.008
  58  4828.074
  59  5969.614
  60  7355.642
  61  6169.831
  62  7387.184
  63  7942.112
  64  7063.584
  65  5717.769
  66  6865.974
  67  6867.279
  68  7027.76
  69  6350.077
  70  8038.136
  71  7998.803
  72  7428.867
  73  7055.139
  74  6906.924
  75  8881.586
  76  6301.52
  77  6335.658
  78  8347.974
  79  8543.924
  80  7842.77
  81  7595.157
  82  7149.5
  83  7606.473
  84  8094.274
  85  9230.241
  86  10013.72
  87  9925.04
  88  8859.707
  89  9812.188
  90  7056.281
  91  8325.237
  92  7351.054
  93  7568.917
  94  7419.883
  95  9040.55
  96  8545.965
  97  8517.765
  98  7597.605
  99  6722.505
 100  7022.137
 101  6964.771
 102  6422.307
 103  8860.844
 104  9405.515
 105  7724.42
 106  7697.219
 107  8564.354
 108  8566.828
 109  8076.149
 110  6053.782
 111  6581.713
 112  7368.144
 113  6838.939
 114  7232.511
 115  7415.971
 116  9245.181
 117  6938.833
 118  6660.85
 119  8387.404
 120  8542.405
 121  7040.387
 122  7707.283
 123  6995.248
 124  7752.524
 125  8140.776
 126  7311.179
 127  6880.263
 128  9576.491
 129  9301.108
 130  6144.321
 131  6381.662
 132  7594.656
 133  7130.448
 134  6460.191
 135  6038.128
 136  7135.326
 137  8608.503
 138  7593.076
 139  7365.463
 140  7218.671
 141  7998.333
 142  6656.546
 143  6491.531
 144  7513.816
 145  8565.586
 146  7510.604
 147  6578.973
 148  7819.369
 149  11622.86
 150  9883.679
 151  7329.778
 152  9301.003
 153  9041.536
 154  7470.926
 155  8866.198
 156  7165.842
 157  7446.748
 158  7534.647
 159  6511.323
 160  6195.156
 161  8609.999
 162  10332.3
 163  8635.893
 164  7760.64
 165  8692.809
 166  7229.333
 167  7000.446
 168  6772.599
 169  7430.08
 170  7724.091
 171  7014.136
 172  6738.856
 173  6718.015
 174  7763.005
 175  6815.392
 176  7508.437
 177  7514.312
 178  7934.087
 179  7247.291
 180  6746.344
 181  6225.671
 182  7505.482
 183  6688.554
 184  5802.229
 185  7483.581
 186  8389.813
 187  6031.006
 188  7101.857
 189  7055.228
 190  6420.362
 191  7350.561
 192  6768.708
 193  6000.847
 194  8565.232
 195  6980.916
 196  5690.257
 197  7420.248
 198  7830.406
 199  7007.162
 200  7085.176
 201  7562.373
 202  7669.695
 203  8362.088
 204  7124.656
 205  5945.874
 206  7522.851
 207  8374.482
 208  6151.435
 209  7739.639
 210  8490.742
 211  8081.487
 212  9322.064
 213  8099.988
 214  6175.322
 215  9149.078
 216  7870.715
 217  6237.006
 218  7459.381
 219  8894.219
 220  6614.355
 221  8651.221
 222  8379.119
 223  7072.937
 224  7127.658
 225  6820.685
 226  5393.693
 227  7975.199
 228  7423.868
 229  6888.812
 230  6122.417
 231  6682.179
 232  7037.729
 233  5290.811
 234  5060.966
 235  6169.085
 236  7703.017
 237  7178.765
 238  6026.834
 239  6283.918
 240  7640.596
 241  6025.763
 242  6753.27
 243  7526.156
 244  7252.692
 245  6630.229
 246  7132.404
 247  5641.618
 248  7081.984
 249  7179.132
 250  6639.215
 251  6877.622
 252  8560.451
 253  7408.333
 254  7871.305
 255  6617.813
