# Input file       =  1211184299.108801_cleaned.dat
# Candidate        =  PSR_0332+5434
# Telescope        =  AR
# Epoch_topo       =  58262.337015148158
# Epoch_bary       =  N/A
# T_sample         =  0.002
# Data Folded      =  7340032
# Data Avg         =  0.170131880734905
# Data StdDev      =  4.6442122696843  
# Profile Bins     =  512
# Profile Avg      =  2438.25186821689 
# Profile StdDev   =  556.065636627534 
# Reduced chi-sqr  =  0.818
# Prob(Noise)      <  0.999   (~0.0 sigma)
# P_topo (ms)      =  714.524442738478  +/- 0.000452
# P'_topo (s/s)    =  -0                +/- 2.38e-10
# P''_topo (s/s^2) =  0                 +/- 1.05e-13
# P_bary (ms)      =  N/A
# P'_bary (s/s)    =  N/A
# P''_bary (s/s^2) =  N/A
# P_orb (s)        =  N/A
# asin(i)/c (s)    =  N/A
# eccentricity     =  N/A
# w (rad)          =  N/A
# T_peri           =  N/A
######################################################
   0  2796.937
   1  2633.353
   2  2658.718
   3  2471.218
   4  2831.371
   5  2898.682
   6  2399.448
   7  2245.78
   8  1849.71
   9  2046.491
  10  2793.964
  11  2381.548
  12  2676.855
  13  2813.158
  14  2839.943
  15  2767.425
  16  1994.67
  17  2040.403
  18  2091.964
  19  2229.682
  20  2243.632
  21  2237.027
  22  2333.475
  23  2655.261
  24  2388.372
  25  2466.185
  26  2156.55
  27  1996.697
  28  2197.252
  29  2103.106
  30  1821.119
  31  1890.637
  32  1907.072
  33  1825.047
  34  1818.288
  35  2106.85
  36  2173.357
  37  2367.879
  38  2534.914
  39  2792.697
  40  2582.675
  41  2356.909
  42  2360.588
  43  2783.535
  44  2738.088
  45  2434.494
  46  2620.438
  47  2684.52
  48  2404.255
  49  2520.857
  50  2508.464
  51  2250.827
  52  2231.909
  53  2291.681
  54  2524.583
  55  2577.737
  56  2431.845
  57  2817.244
  58  2935.536
  59  2926.829
  60  2544.319
  61  2233.838
  62  2282.453
  63  2397.673
  64  2429.487
  65  2703.376
  66  2891.025
  67  2866.425
  68  2593.678
  69  2752.637
  70  2880.874
  71  2802.562
  72  2736.986
  73  2588.624
  74  2698.357
  75  2765.781
  76  2749.273
  77  2597.493
  78  2640.818
  79  2902.188
  80  2930.464
  81  2795.4
  82  2695.174
  83  2661.748
  84  2639.46
  85  2690.885
  86  2802.563
  87  2550.058
  88  2345.444
  89  2432.297
  90  2297.572
  91  2576.24
  92  2573.686
  93  2530.072
  94  2200.599
  95  2205.069
  96  1964.321
  97  2274.718
  98  2234.911
  99  2111.487
 100  1793.775
 101  2260.073
 102  2380.763
 103  2652.788
 104  2582.941
 105  2487.178
 106  2654.902
 107  2462.263
 108  2339.371
 109  2271.993
 110  2328.53
 111  2485.726
 112  2344.517
 113  2369.264
 114  2306.193
 115  2371.064
 116  2346.531
 117  2194.036
 118  1912.652
 119  1497.827
 120  1856.954
 121  2303.223
 122  2514.653
 123  2284.447
 124  2176.827
 125  2011.271
 126  2060.161
 127  2047.817
 128  2228.521
 129  2211.544
 130  2167.763
 131  1909.466
 132  2025.447
 133  2009.929
 134  1952.745
 135  2368.579
 136  2518.598
 137  2316.183
 138  2045.659
 139  2400.843
 140  2387.112
 141  2532.218
 142  2449.552
 143  2471.597
 144  2299.705
 145  2402.897
 146  2633.692
 147  2447.169
 148  2240.618
 149  2112.889
 150  2086.455
 151  2384.472
 152  2658.712
 153  2830.226
 154  2757.669
 155  2511.995
 156  1923.435
 157  1953.386
 158  2174.563
 159  2432.956
 160  2228.659
 161  2212.552
 162  2123.998
 163  2211.808
 164  2065.145
 165  1654.796
 166  1895.283
 167  1785.522
 168  2045.012
 169  2038.691
 170  1816.827
 171  1711.571
 172  1920.766
 173  2198.639
 174  2102.111
 175  1979.282
 176  2090.392
 177  2426.868
 178  2363.753
 179  2276.323
 180  1941.035
 181  2024.374
 182  2223.873
 183  2099.942
 184  1952.904
 185  2167.562
 186  2526.638
 187  2650.885
 188  2620.542
 189  2590.103
 190  2413.914
 191  2544.575
 192  2474.524
 193  2551.822
 194  2585.379
 195  2541.083
 196  2624.873
 197  2173.155
 198  2123.536
 199  2056.714
 200  2095.222
 201  2199.674
 202  2135.219
 203  2122.328
 204  2512.126
 205  2186.004
 206  2352.848
 207  2689.081
 208  2712.875
 209  2688.221
 210  2793.807
 211  2550.267
 212  2474.356
 213  2644.16
 214  2748.403
 215  2791.914
 216  2704.695
 217  2779.986
 218  2722.786
 219  2352.407
 220  2651.685
 221  2696.348
 222  2511.844
 223  2196.395
 224  2278.547
 225  2874.574
 226  2905.033
 227  2425.579
 228  2357.332
 229  2472.567
 230  2764.688
 231  2557.956
 232  2363.277
 233  2374.54
 234  2341.986
 235  2544.351
 236  2320.402
 237  2361.096
 238  2527.659
 239  2316.468
 240  2299.67
 241  2344.508
 242  2544.083
 243  2660.867
 244  2458.055
 245  2240.781
 246  2373.406
 247  2406.989
 248  2121.32
 249  2315.132
 250  2353.817
 251  2295.526
 252  1888.619
 253  1829.311
 254  1739.86
 255  1776.014
 256  2049.696
 257  2199.922
 258  2113.588
 259  1661.641
 260  1597.792
 261  1512.551
 262  1844.184
 263  1894.927
 264  2049.402
 265  2038.675
 266  1978.446
 267  2133.13
 268  2137.972
 269  2231.362
 270  2212.645
 271  2167.164
 272  2175.49
 273  2118.676
 274  2099.057
 275  2200.034
 276  2322.901
 277  2207.065
 278  1961.119
 279  2393.359
 280  2276.59
 281  2168.674
 282  2003.777
 283  2243.797
 284  2488.166
 285  2235.907
 286  2054.387
 287  1846.643
 288  1911.225
 289  2138.91
 290  2525.209
 291  2555.046
 292  2453.207
 293  2265.134
 294  2634.059
 295  3047.711
 296  3412.016
 297  3683.427
 298  4214.02
 299  4562.273
 300  4443.114
 301  3951.369
 302  3325.87
 303  3069.684
 304  2689.167
 305  2289.789
 306  2324.98
 307  2073.265
 308  2388.704
 309  2412.052
 310  2718.787
 311  3015.893
 312  2820.86
 313  2643.446
 314  2563.435
 315  2571.875
 316  2754.47
 317  2339.218
 318  2636.591
 319  2687.332
 320  2705.676
 321  2821.082
 322  2795.592
 323  2535.326
 324  2435.874
 325  2637.104
 326  2389.742
 327  2128.594
 328  2518.277
 329  2574.689
 330  2158.761
 331  2115.147
 332  1981.082
 333  1805.599
 334  1869.973
 335  2120.801
 336  2494.779
 337  2148.324
 338  2020.612
 339  1874.659
 340  1934.971
 341  2232.07
 342  2141.107
 343  2496.298
 344  2385.114
 345  2284.128
 346  2152.496
 347  2210.075
 348  2164.402
 349  2302.867
 350  2432.706
 351  2465.761
 352  2347.86
 353  2362.003
 354  2565.93
 355  2570.573
 356  2433.535
 357  2451.86
 358  2093.174
 359  2178.511
 360  1871.833
 361  2165.584
 362  2836.924
 363  2856.45
 364  2741.837
 365  1940.29
 366  2014.646
 367  2441.427
 368  2752.399
 369  2691.74
 370  2668.341
 371  2792.281
 372  2919.681
 373  2989.673
 374  2625.702
 375  2525.524
 376  2465.716
 377  2479.91
 378  2488.825
 379  2467.936
 380  2361.038
 381  2405.226
 382  2450.849
 383  2195.196
 384  1891.138
 385  1855.067
 386  2147.301
 387  1802.016
 388  1921.665
 389  2210.534
 390  2377.695
 391  2179.274
 392  2333.004
 393  2660.743
 394  2564.056
 395  2502.245
 396  2353.165
 397  2535.765
 398  2810.443
 399  2548.04
 400  2865.507
 401  2583.608
 402  2395.402
 403  2316.856
 404  2513.493
 405  2585.889
 406  2496.314
 407  2667.528
 408  2713.498
 409  2715.435
 410  2309.409
 411  2557.563
 412  2673.306
 413  2980.62
 414  2989.437
 415  2842.629
 416  2605.863
 417  2397.133
 418  2616.079
 419  2719.431
 420  2712.463
 421  2500.317
 422  2767.217
 423  2969.18
 424  2939.984
 425  2753.643
 426  2860.247
 427  2821.629
 428  2629.541
 429  2784.024
 430  2638.508
 431  2671.384
 432  2736.468
 433  2662.77
 434  2673.273
 435  2982.054
 436  2678.555
 437  2502.037
 438  2719.916
 439  2800.863
 440  2423.884
 441  2532.577
 442  2581.624
 443  2377.195
 444  2164.834
 445  2272.442
 446  2034.905
 447  1803.162
 448  2437.539
 449  2450.716
 450  2454.293
 451  2444.148
 452  2368.14
 453  2504.449
 454  2585.194
 455  2715.33
 456  2541.555
 457  2378.069
 458  2666.87
 459  2841
 460  2758.116
 461  2638.167
 462  2419.218
 463  2052.522
 464  2102.267
 465  2516.192
 466  2317.2
 467  2462.093
 468  2424.736
 469  2354.145
 470  2344.213
 471  1888.127
 472  2078.286
 473  2439.939
 474  2422.686
 475  2270.736
 476  2879.049
 477  2887.114
 478  2861.963
 479  3001.152
 480  2866.291
 481  2650.914
 482  2270.693
 483  2487.879
 484  2297.761
 485  2336.617
 486  2804.236
 487  3315.685
 488  2925.995
 489  2413.093
 490  2711.979
 491  2590.443
 492  2379.05
 493  2556.286
 494  2555.116
 495  2868.293
 496  2312.334
 497  2305.159
 498  2535.706
 499  2768.21
 500  2814.801
 501  2850.054
 502  2939.798
 503  3019.868
 504  3008.79
 505  3310.152
 506  2859.842
 507  3106.738
 508  3140.564
 509  3146.454
 510  3188.294
 511  3127.539
