# Input file       =  1211370939.102914_cleaned.dat
# Candidate        =  PSR_0332+5434
# Telescope        =  AR
# Epoch_topo       =  58264.497200265207
# Epoch_bary       =  N/A
# T_sample         =  0.002
# Data Folded      =  7340032
# Data Avg         =  0.235315017786758
# Data StdDev      =  4.85503922455277 
# Profile Bins     =  256
# Profile Avg      =  6747.11769212209 
# Profile StdDev   =  822.094489192353 
# Reduced chi-sqr  =  1.120
# Prob(Noise)      <  0.0918   (~1.3 sigma)
# P_topo (ms)      =  714.522651894207  +/- 0.000279
# P'_topo (s/s)    =  -0                +/- 1.47e-10
# P''_topo (s/s^2) =  0                 +/- 6.5e-14
# P_bary (ms)      =  N/A
# P'_bary (s/s)    =  N/A
# P''_bary (s/s^2) =  N/A
# P_orb (s)        =  N/A
# asin(i)/c (s)    =  N/A
# eccentricity     =  N/A
# w (rad)          =  N/A
# T_peri           =  N/A
######################################################
   0  7019.403
   1  6578.901
   2  6974.69
   3  6475.388
   4  6674.874
   5  6345.883
   6  6705.085
   7  6633.523
   8  7489.297
   9  7175.083
  10  6732.21
  11  6818.037
  12  7334.247
  13  6669.197
  14  6733.374
  15  7015.041
  16  7026.695
  17  7365.511
  18  7602.142
  19  7287.207
  20  7894.522
  21  7270.387
  22  8243.322
  23  7548.427
  24  6956.778
  25  6735.882
  26  6885.459
  27  6755.058
  28  6187.876
  29  6427.653
  30  7122.974
  31  7052.287
  32  7171.541
  33  7223.177
  34  7173.499
  35  7453.523
  36  7334.04
  37  7458.52
  38  7365.324
  39  6925.782
  40  7625.167
  41  7607.759
  42  7415.949
  43  7789.554
  44  8351.89
  45  7528.737
  46  7245.083
  47  7897.133
  48  7257.654
  49  6595.696
  50  6278.913
  51  6188.522
  52  6424.149
  53  7118.162
  54  7724.661
  55  6144.237
  56  7458.635
  57  6841.738
  58  6680.44
  59  6922.398
  60  7333.315
  61  7866.452
  62  7528.965
  63  7340.689
  64  8302.216
  65  7544.075
  66  7226.338
  67  7008.595
  68  6717.451
  69  7133.026
  70  7198.023
  71  7102.679
  72  6997.046
  73  7736.162
  74  7471.439
  75  6880.654
  76  7469.872
  77  7302.452
  78  7506.9
  79  6921.623
  80  7444.958
  81  6821.459
  82  6789.759
  83  7906.888
  84  6800.181
  85  7482.414
  86  7925.105
  87  7054.034
  88  6614.853
  89  6754.323
  90  5764.811
  91  6535.01
  92  6045.95
  93  6415.121
  94  5662.959
  95  6150.908
  96  6266.616
  97  6847.863
  98  6690.156
  99  6151.543
 100  6318.081
 101  7145.146
 102  6309.92
 103  6537.667
 104  7523.253
 105  6858.954
 106  6795.875
 107  6364.202
 108  6670.815
 109  6490.41
 110  6528.816
 111  6647.28
 112  6181.178
 113  5496.976
 114  6478.101
 115  5907.172
 116  6195.179
 117  7010.118
 118  7243.378
 119  7419.935
 120  7371.156
 121  7990.621
 122  7768.773
 123  8100.943
 124  7663.371
 125  7798.612
 126  7867.344
 127  7454.98
 128  7390.091
 129  6812.517
 130  6306.425
 131  7325.847
 132  6090.529
 133  6742.417
 134  6688.222
 135  6218.565
 136  6296.345
 137  5814.691
 138  6152.978
 139  7254.193
 140  6422.173
 141  6641.195
 142  6430.653
 143  6671.794
 144  6900.507
 145  6724.391
 146  8029.855
 147  7496.87
 148  8529.679
 149  9951.771
 150  10291.86
 151  8217.8
 152  6617.812
 153  6258.961
 154  5732.234
 155  5984.158
 156  6205.612
 157  6199.352
 158  5005.235
 159  5635.279
 160  6300.808
 161  5757.362
 162  6142.223
 163  5814.384
 164  6493.519
 165  5842.736
 166  6636.911
 167  6103.206
 168  6512.864
 169  6237.862
 170  7201.482
 171  6454.267
 172  5947.471
 173  6356.976
 174  5880.694
 175  5770.954
 176  5839.248
 177  5633.116
 178  5502.526
 179  5151.848
 180  5258.395
 181  6220.991
 182  7214.287
 183  6830.958
 184  6005.976
 185  6011.9
 186  6626.655
 187  6310.469
 188  6543.782
 189  6218.861
 190  7386.822
 191  7073.226
 192  6484.099
 193  6492.775
 194  6601.26
 195  5818.879
 196  6210.194
 197  5743.744
 198  6098.359
 199  6153.688
 200  6185.124
 201  6040.038
 202  6476.631
 203  6917.688
 204  7427.167
 205  7087.771
 206  7051.404
 207  7778.507
 208  8034.969
 209  7343.355
 210  7231.425
 211  7522.749
 212  6963.785
 213  7739.556
 214  7627.171
 215  6774.52
 216  6387.464
 217  6224.409
 218  5938.914
 219  6789.746
 220  5903.649
 221  6089.244
 222  5825.668
 223  5632.716
 224  5574.038
 225  6201.895
 226  5491.507
 227  6298.053
 228  6631.859
 229  6682.474
 230  6723.222
 231  6511.343
 232  6148.149
 233  6822.377
 234  6770.794
 235  6997.005
 236  6218.902
 237  6263.214
 238  6152.006
 239  5924.067
 240  5958.887
 241  5288.809
 242  5497.815
 243  5370.176
 244  5317.212
 245  5719.746
 246  6057.729
 247  5721.639
 248  6307.294
 249  5249.285
 250  6104.039
 251  6250.97
 252  7025.618
 253  6271.717
 254  6117.593
 255  6883.8
