# Input file       =  1211700586.108932-PSRB0329-2ms-sampling-dd.dat
# Candidate        =  PSR_0332+5434
# Telescope        =  AR
# Epoch_topo       =  58268.312559131155
# Epoch_bary       =  N/A
# T_sample         =  0.002
# Data Folded      =  7340032
# Data Avg         =  -1.23190039168169e-09
# Data StdDev      =  3.97145528064999 
# Profile Bins     =  512
# Profile Avg      =  1.15030238293711 
# Profile StdDev   =  475.514399586765 
# Reduced chi-sqr  =  0.706
# Prob(Noise)      <  1   (~0.0 sigma)
# P_topo (ms)      =  714.518586638129  +/- 0.000135
# P'_topo (s/s)    =  -0                +/- 7.12e-11
# P''_topo (s/s^2) =  0                 +/- 3.14e-14
# P_bary (ms)      =  N/A
# P'_bary (s/s)    =  N/A
# P''_bary (s/s^2) =  N/A
# P_orb (s)        =  N/A
# asin(i)/c (s)    =  N/A
# eccentricity     =  N/A
# w (rad)          =  N/A
# T_peri           =  N/A
######################################################
   0  123.4189
   1  -168.469
   2  -44.14212
   3  -54.4731
   4  34.24421
   5  200.4334
   6  137.6254
   7  8.735003
   8  -94.95921
   9  280.5167
  10  66.03352
  11  -90.88428
  12  209.7367
  13  64.083
  14  -54.41256
  15  20.77258
  16  126.6646
  17  360.4282
  18  368.1823
  19  361.5695
  20  -32.20574
  21  -76.46605
  22  -47.19052
  23  -375.0245
  24  -24.5459
  25  -59.68073
  26  -235.4408
  27  -268.0165
  28  -42.83376
  29  -170.2555
  30  -311.2259
  31  -109.4831
  32  -141.5441
  33  -179.3833
  34  -518.116
  35  -569.9941
  36  -389.1585
  37  64.90402
  38  178.1049
  39  -69.21558
  40  -116.5587
  41  -52.91665
  42  -136.6135
  43  -332.2496
  44  -416.2091
  45  -451.1589
  46  -315.8062
  47  -198.3494
  48  26.52398
  49  80.27219
  50  -29.71669
  51  -52.20693
  52  -157.6548
  53  -253.8346
  54  151.6746
  55  128.1454
  56  -216.6787
  57  -513.4706
  58  -207.9496
  59  4.271779
  60  -83.013
  61  -47.56013
  62  139.757
  63  4.588658
  64  -44.75713
  65  440.8947
  66  444.9401
  67  259.7825
  68  252.3088
  69  162.0742
  70  82.07211
  71  -52.90072
  72  -23.06474
  73  15.10848
  74  349.4981
  75  247.3159
  76  -117.5031
  77  -22.25536
  78  -229.2901
  79  -315.8865
  80  48.8198
  81  140.2678
  82  -235.682
  83  140.503
  84  222.9244
  85  -397.8656
  86  -470.0205
  87  -301.5992
  88  -166.9232
  89  -412.7031
  90  -207.1328
  91  -156.9227
  92  -292.8108
  93  -514.9907
  94  -458.011
  95  -100.9347
  96  -76.33157
  97  -210.5107
  98  87.83228
  99  44.88557
 100  -392.0311
 101  -436.5447
 102  -44.48897
 103  -263.4978
 104  -447.6748
 105  -185.8796
 106  -115.4348
 107  -168.518
 108  -53.45974
 109  -31.31146
 110  213.7429
 111  240.1422
 112  60.2066
 113  -237.7143
 114  -414.7104
 115  -391.3911
 116  -104.6909
 117  -39.88327
 118  -409.6607
 119  -614.9477
 120  -489.6061
 121  -394.9345
 122  -477.7262
 123  -357.998
 124  287.7937
 125  175.3416
 126  -174.5278
 127  -178.6574
 128  172.2014
 129  -76.7759
 130  80.28116
 131  229.8124
 132  241.7726
 133  83.49337
 134  269.1324
 135  -29.55959
 136  -223.4729
 137  -222.1648
 138  -83.63943
 139  117.0457
 140  174.9994
 141  122.9342
 142  113.5225
 143  66.72659
 144  -218.3402
 145  -232.8656
 146  21.41252
 147  -112.4817
 148  -22.69865
 149  -33.06068
 150  172.1465
 151  18.36329
 152  59.98911
 153  155.0868
 154  188.8976
 155  173.5046
 156  119.2438
 157  29.40785
 158  460.9574
 159  67.35806
 160  -183.0503
 161  -315.423
 162  -158.4107
 163  39.62319
 164  342.6243
 165  104.368
 166  139.7864
 167  147.3301
 168  85.38699
 169  368.904
 170  157.7498
 171  -37.03761
 172  -97.18079
 173  127.9218
 174  271.2153
 175  277.4314
 176  297.3442
 177  320.1514
 178  75.91284
 179  -62.72615
 180  -22.71517
 181  58.8055
 182  144.045
 183  -236.7881
 184  143.5995
 185  237.4382
 186  -205.8378
 187  -698.04
 188  -461.9071
 189  3.663645
 190  -76.10669
 191  117.2364
 192  123.2353
 193  348.9954
 194  -13.62214
 195  -263.15
 196  -259.6424
 197  -11.62226
 198  -2.939059
 199  -31.14118
 200  -63.58868
 201  -184.8838
 202  -46.23175
 203  -269.4206
 204  -112.8571
 205  -81.99815
 206  49.4822
 207  -17.29249
 208  -210.4564
 209  -187.4647
 210  -249.7749
 211  -106.3623
 212  -134.3917
 213  -114.2428
 214  233.5478
 215  580.796
 216  118.4635
 217  40.15428
 218  -194.3952
 219  -153.5658
 220  -19.88343
 221  302.2756
 222  542.4745
 223  389.1311
 224  106.5211
 225  95.51795
 226  286.4203
 227  -123.1557
 228  124.913
 229  -65.25935
 230  287.2217
 231  151.7526
 232  183.2723
 233  204.1128
 234  -181.6472
 235  68.61942
 236  69.47017
 237  101.8584
 238  -4.482653
 239  -244.4265
 240  120.9456
 241  142.1402
 242  -303.4774
 243  -153.058
 244  -264.1709
 245  57.68425
 246  169.0892
 247  359.8621
 248  338.5697
 249  202.5461
 250  178.3157
 251  439.2524
 252  139.9154
 253  164.6594
 254  -97.00725
 255  257.5876
 256  456.8372
 257  158.409
 258  80.62907
 259  -147.8569
 260  -83.82928
 261  40.43117
 262  118.4515
 263  -115.2968
 264  108.5762
 265  -107.9288
 266  -90.44864
 267  -76.10343
 268  -310.9418
 269  -358.3661
 270  -157.6793
 271  -82.30443
 272  -8.87526
 273  262.7918
 274  28.51327
 275  201.8278
 276  268.8629
 277  -360.6017
 278  -249.9817
 279  -160.6072
 280  267.4066
 281  269.653
 282  207.0414
 283  200.4284
 284  86.6029
 285  61.94643
 286  13.04663
 287  130.4496
 288  184.5414
 289  27.60633
 290  282.2997
 291  167.7316
 292  575.9739
 293  45.38579
 294  75.16626
 295  318.7691
 296  378.5051
 297  489.3697
 298  344.2249
 299  565.2462
 300  162.7974
 301  58.26036
 302  558.2128
 303  278.8764
 304  21.94402
 305  343.7638
 306  560.1364
 307  534.865
 308  137.9253
 309  -140.6948
 310  -419.289
 311  -291.8745
 312  -28.24205
 313  125.5905
 314  424.2743
 315  495.4586
 316  184.4969
 317  228.7677
 318  175.9773
 319  411.5638
 320  336.7535
 321  533.1022
 322  483.0685
 323  57.11519
 324  84.34467
 325  -58.00325
 326  72.72456
 327  71.07238
 328  67.9577
 329  448.2708
 330  323.9276
 331  -225.1188
 332  -273.8251
 333  106.4102
 334  36.43032
 335  74.71019
 336  571.119
 337  395.5615
 338  351.382
 339  391.8741
 340  100.4452
 341  143.122
 342  210.3848
 343  277.3763
 344  172.0738
 345  223.2818
 346  55.44955
 347  25.41767
 348  -180.5829
 349  -282.2875
 350  -93.59943
 351  310.7638
 352  297.8104
 353  347.847
 354  641.4801
 355  1437.652
 356  2042.309
 357  1706.964
 358  1019.042
 359  502.1893
 360  173.3771
 361  199.5722
 362  4.341825
 363  -98.95412
 364  156.2205
 365  194.151
 366  51.60261
 367  -8.635486
 368  -119.3046
 369  -323.5288
 370  -58.45744
 371  -78.16203
 372  -65.88734
 373  175.4916
 374  83.74257
 375  21.53567
 376  -65.20428
 377  -83.04113
 378  -13.87736
 379  -14.27221
 380  251.2125
 381  -120.8565
 382  -8.684944
 383  -52.65053
 384  -141.8781
 385  -13.07286
 386  -172.7288
 387  162.7965
 388  -47.91492
 389  -193.5768
 390  -17.58619
 391  -180.2451
 392  -338.7637
 393  81.96954
 394  137.4778
 395  249.6662
 396  -138.4425
 397  53.25778
 398  142.7608
 399  -63.6232
 400  -362.4548
 401  -126.9999
 402  98.7228
 403  -154.5635
 404  -301.3325
 405  35.60062
 406  19.06394
 407  -248.6555
 408  -492.2285
 409  -371.529
 410  -459.1576
 411  -578.0111
 412  -23.58102
 413  194.1522
 414  -178.3152
 415  -266.3221
 416  -275.6807
 417  -174.8019
 418  -405.985
 419  -287.3832
 420  29.92944
 421  -373.3055
 422  -470.7913
 423  -242.8078
 424  -125.0128
 425  -319.4009
 426  -508.7057
 427  -227.0778
 428  -319.6545
 429  -389.0036
 430  -35.50274
 431  -462.9174
 432  -650.629
 433  -694.7374
 434  -544.0587
 435  -223.3084
 436  -437.2794
 437  -530.568
 438  -343.0072
 439  20.27044
 440  42.04005
 441  -154.0973
 442  -429.6039
 443  -681.7154
 444  -396.8069
 445  -463.0311
 446  -429.6245
 447  -273.4111
 448  -301.7228
 449  -231.2979
 450  -335.4666
 451  -70.0109
 452  -355.6472
 453  -345.9006
 454  -136.3614
 455  20.20769
 456  32.48542
 457  52.35608
 458  -179.8207
 459  -526.5944
 460  -423.7073
 461  -416.3896
 462  -209.3362
 463  -101.8605
 464  -58.4682
 465  67.45784
 466  101.4781
 467  291.4219
 468  249.0432
 469  325.2783
 470  -82.1424
 471  28.83986
 472  45.42926
 473  -133.3089
 474  93.21925
 475  0.1125091
 476  36.42055
 477  -86.85415
 478  -186.2406
 479  -182.3755
 480  -268.8325
 481  -313.6899
 482  -374.5921
 483  -277.1352
 484  -169.3238
 485  424.0168
 486  122.4999
 487  84.07469
 488  -156.951
 489  -105.5922
 490  228.8993
 491  160.0257
 492  -13.61802
 493  120.0742
 494  215.2665
 495  470.1732
 496  176.6094
 497  290.0348
 498  195.3755
 499  -78.95284
 500  -71.03088
 501  372.5385
 502  122.0916
 503  236.1198
 504  607.366
 505  494.7788
 506  -121.3136
 507  -134.1391
 508  66.54551
 509  76.7205
 510  477.5682
 511  575.4023
