# Input file       =  1211872896.115322_cleaned.dat
# Candidate        =  PSR_0332+5434
# Telescope        =  AR
# Epoch_topo       =  58270.306887908824
# Epoch_bary       =  N/A
# T_sample         =  0.002
# Data Folded      =  7340032
# Data Avg         =  0.024545570273626
# Data StdDev      =  1.0001283338563  
# Profile Bins     =  512
# Profile Avg      =  351.883653692848 
# Profile StdDev   =  119.748402179051 
# Reduced chi-sqr  =  1.103
# Prob(Noise)      <  0.0534   (~1.6 sigma)
# P_topo (ms)      =  714.516642528348  +/- 0.00054
# P'_topo (s/s)    =  -0                +/- 2.85e-10
# P''_topo (s/s^2) =  0                 +/- 1.26e-13
# P_bary (ms)      =  N/A
# P'_bary (s/s)    =  N/A
# P''_bary (s/s^2) =  N/A
# P_orb (s)        =  N/A
# asin(i)/c (s)    =  N/A
# eccentricity     =  N/A
# w (rad)          =  N/A
# T_peri           =  N/A
######################################################
   0  828.473
   1  719.8383
   2  641.6938
   3  637.9439
   4  491.164
   5  414.047
   6  350.8474
   7  397.9902
   8  357.0544
   9  297.3765
  10  260.7484
  11  369.5589
  12  393.5063
  13  275.1868
  14  289.1454
  15  308.4161
  16  317.3401
  17  382.7445
  18  373.144
  19  397.3798
  20  328.9904
  21  307.3898
  22  427.5205
  23  349.6158
  24  323.6406
  25  357.8974
  26  309.465
  27  286.2798
  28  372.9658
  29  407.4639
  30  370.5425
  31  256.7493
  32  181.6963
  33  255.3241
  34  368.8047
  35  317.0042
  36  197.6561
  37  258.5243
  38  375.514
  39  441.5576
  40  366.3389
  41  304.1337
  42  308.2815
  43  292.6785
  44  401.8246
  45  263.3942
  46  303.9304
  47  341.907
  48  133.0256
  49  162.543
  50  188.4757
  51  256.3095
  52  387.1977
  53  377.74
  54  370.7703
  55  505.4419
  56  381.3834
  57  313.0143
  58  353.1636
  59  456.4251
  60  502.1681
  61  341.9635
  62  324.6395
  63  477.9523
  64  419.4831
  65  382.2609
  66  374.4159
  67  299.9839
  68  275.2817
  69  261.6781
  70  301.1054
  71  369.5669
  72  218.4773
  73  360.6627
  74  349.4994
  75  305.1163
  76  328.4998
  77  313.5943
  78  318.0719
  79  409.0947
  80  428.9637
  81  322.6353
  82  335.3192
  83  395.7446
  84  298.7626
  85  280.921
  86  241.3178
  87  251.7681
  88  325.6897
  89  447.9377
  90  290.8008
  91  242.1482
  92  204.8499
  93  238.6582
  94  320.6955
  95  262.0496
  96  269.729
  97  303.3518
  98  363.2796
  99  263.1146
 100  193.1547
 101  255.2524
 102  300.7514
 103  258.7646
 104  286.5944
 105  383.4712
 106  352.3093
 107  266.4213
 108  273.3126
 109  376.0927
 110  327.66
 111  277.368
 112  252.359
 113  331.5126
 114  330.1359
 115  243.9237
 116  319.2356
 117  410.3854
 118  417.9725
 119  297.1158
 120  162.822
 121  309.6532
 122  307.2818
 123  336.3076
 124  413.8054
 125  294.1727
 126  379.5764
 127  222.9815
 128  251.7168
 129  284.0713
 130  260.2014
 131  390.041
 132  386.5999
 133  279.9395
 134  272.6599
 135  287.5937
 136  275.0756
 137  251.3254
 138  261.9354
 139  283.6232
 140  181.0589
 141  252.7528
 142  320.9237
 143  272.4478
 144  245.5816
 145  232.3404
 146  256.772
 147  224.7621
 148  318.0036
 149  338.7675
 150  305.6872
 151  305.2786
 152  361.813
 153  286.3679
 154  350.2197
 155  431.7356
 156  387.5639
 157  373.6886
 158  469.0401
 159  410.6226
 160  346.657
 161  405.526
 162  362.9985
 163  391.7667
 164  456.8457
 165  450.0971
 166  295.0883
 167  323.466
 168  353.6806
 169  335.9853
 170  291.0482
 171  431.3426
 172  422.4587
 173  355.4625
 174  348.1494
 175  370.8937
 176  472.5795
 177  468.5571
 178  354.5538
 179  333.719
 180  365.5337
 181  327.7279
 182  362.2747
 183  387.5292
 184  472.7252
 185  375.0212
 186  283.6852
 187  300.7477
 188  372.9606
 189  393.3566
 190  475.2686
 191  497.8465
 192  408.8329
 193  419.3586
 194  412.1559
 195  483.5577
 196  370.0102
 197  328.0149
 198  311.1007
 199  348.7714
 200  410.0545
 201  509.2859
 202  519.8253
 203  474.8239
 204  434.4799
 205  382.0311
 206  427.3024
 207  401.3674
 208  424.6586
 209  493.6142
 210  505.1165
 211  378.2395
 212  462.6763
 213  492.9777
 214  510.3648
 215  555.9335
 216  479.2045
 217  478.6663
 218  530.3554
 219  534.925
 220  537.4089
 221  476.7117
 222  422.7651
 223  446.6473
 224  434.7344
 225  390.1935
 226  374.975
 227  481.0979
 228  473.904
 229  370.5962
 230  456.7719
 231  514.447
 232  494.8666
 233  477.8021
 234  429.7348
 235  308.174
 236  294.5035
 237  405.0052
 238  471.9323
 239  448.0396
 240  398.0685
 241  428.7792
 242  447.1199
 243  420.2545
 244  349.9355
 245  464.0808
 246  613.4656
 247  548.8367
 248  364.5709
 249  317.7577
 250  316.9609
 251  403.4478
 252  429.0288
 253  466.5209
 254  394.8152
 255  330.4371
 256  411.4669
 257  476.0398
 258  389.4886
 259  384.223
 260  417.143
 261  378.3598
 262  380.3149
 263  230.7538
 264  163.6824
 265  219.6356
 266  303.636
 267  252.7107
 268  301.9341
 269  252.6055
 270  398.3767
 271  412.6343
 272  378.4656
 273  318.1984
 274  342.1453
 275  371.9886
 276  382.1601
 277  346.6223
 278  350.6728
 279  315.6407
 280  310.4865
 281  245.8585
 282  261.1166
 283  308.6649
 284  326.9462
 285  220.5047
 286  294.8715
 287  427.8504
 288  373.261
 289  273.3176
 290  373.2506
 291  393.7197
 292  305.9148
 293  333.9366
 294  291.0649
 295  309.5808
 296  299.5647
 297  359.1635
 298  359.2701
 299  236.2197
 300  310.6596
 301  359.338
 302  369.4386
 303  424.4463
 304  392.8466
 305  385.5111
 306  365.8511
 307  340.5866
 308  219.8081
 309  191.156
 310  299.0785
 311  378.0605
 312  311.8948
 313  341.1536
 314  337.7201
 315  374.4318
 316  329.5795
 317  391.4922
 318  437.682
 319  332.7899
 320  176.7147
 321  255.6168
 322  407.6446
 323  401.2251
 324  448.3742
 325  418.7607
 326  461.4173
 327  538.0936
 328  516.5587
 329  468.2277
 330  435.5644
 331  440.9011
 332  375.6973
 333  333.018
 334  404.7825
 335  442.2921
 336  390.8516
 337  437.8401
 338  426.1982
 339  347.5664
 340  376.6136
 341  337.9034
 342  410.2001
 343  387.786
 344  288.2129
 345  308.0543
 346  382.847
 347  354.0292
 348  309.2305
 349  384.029
 350  444.6464
 351  424.9075
 352  293.6196
 353  318.1577
 354  281.2293
 355  422.2505
 356  402.343
 357  336.6587
 358  344.3423
 359  251.451
 360  205.5223
 361  312.4167
 362  233.2299
 363  263.1482
 364  317.1137
 365  354.0432
 366  243.9039
 367  270.5968
 368  358.7803
 369  379.3933
 370  274.9899
 371  368.7285
 372  397.7096
 373  388.3851
 374  367.2959
 375  331.4544
 376  253.7697
 377  223.7349
 378  243.1969
 379  275.3529
 380  172.0531
 381  192.9064
 382  282.5091
 383  348.1335
 384  328.9132
 385  377.236
 386  327.4149
 387  182.9795
 388  249.1626
 389  349.4047
 390  411.6538
 391  385.8501
 392  374.5489
 393  319.4489
 394  299.836
 395  404.777
 396  373.5705
 397  230.7195
 398  273.5447
 399  368.4599
 400  308.5605
 401  290.2836
 402  320.5772
 403  310.6031
 404  279.7211
 405  371.6848
 406  442.3014
 407  327.4252
 408  288.8169
 409  273.125
 410  318.0502
 411  315.38
 412  255.7993
 413  256.8578
 414  276.9987
 415  336.5604
 416  353.5414
 417  228.3206
 418  272.204
 419  386.8682
 420  338.6462
 421  320.7112
 422  410.9319
 423  454.5558
 424  339.1616
 425  335.9098
 426  448.6662
 427  224.2691
 428  204.8863
 429  340.3722
 430  342.418
 431  297.6124
 432  265.3578
 433  309.1875
 434  294.2603
 435  326.0822
 436  250.4196
 437  257.1483
 438  343.1053
 439  299.0929
 440  306.7809
 441  389.9709
 442  311.4242
 443  218.6924
 444  279.9229
 445  284.0542
 446  244.4169
 447  211.4783
 448  232.9721
 449  299.1575
 450  323.7788
 451  207.9533
 452  286.5092
 453  332.8595
 454  292.4924
 455  250.9687
 456  384.0172
 457  414.3892
 458  362.963
 459  347.9261
 460  465.0418
 461  431.8588
 462  341.0778
 463  294.3944
 464  384.2582
 465  374.0064
 466  355.3549
 467  367.5006
 468  341.5338
 469  353.1623
 470  444.9177
 471  407.6803
 472  313.9879
 473  379.8424
 474  387.5711
 475  240.0684
 476  241.6415
 477  335.0233
 478  404.0594
 479  322.3527
 480  329.4308
 481  376.0966
 482  328.7848
 483  272.7019
 484  275.2121
 485  403.4904
 486  407.6157
 487  299.1345
 488  328.2274
 489  297.5093
 490  283.5222
 491  396.8746
 492  382.4782
 493  272.9068
 494  296.8356
 495  415.0608
 496  307.6606
 497  262.7138
 498  349.4502
 499  390.292
 500  281.3356
 501  217.7144
 502  327.2686
 503  396.7233
 504  309.3405
 505  372.5819
 506  471.3714
 507  549.1302
 508  623.9504
 509  638.1172
 510  772.4421
 511  909.5043
