# Input file       =  1211872896.115322_cleaned.dat
# Candidate        =  PSR_0332+5434
# Telescope        =  AR
# Epoch_topo       =  58270.306887908824
# Epoch_bary       =  N/A
# T_sample         =  0.002
# Data Folded      =  7340032
# Data Avg         =  0.024545570273626
# Data StdDev      =  1.0001283338563  
# Profile Bins     =  512
# Profile Avg      =  351.883654001642 
# Profile StdDev   =  119.748402179051 
# Reduced chi-sqr  =  1.102
# Prob(Noise)      <  0.0546   (~1.6 sigma)
# P_topo (ms)      =  714.516643280556  +/- 0.000542
# P'_topo (s/s)    =  -0                +/- 2.86e-10
# P''_topo (s/s^2) =  0                 +/- 1.26e-13
# P_bary (ms)      =  N/A
# P'_bary (s/s)    =  N/A
# P''_bary (s/s^2) =  N/A
# P_orb (s)        =  N/A
# asin(i)/c (s)    =  N/A
# eccentricity     =  N/A
# w (rad)          =  N/A
# T_peri           =  N/A
######################################################
   0  354.7916
   1  403.1283
   2  460.1385
   3  304.7145
   4  366.7021
   5  400.1109
   6  278.5186
   7  220.4079
   8  303.1642
   9  405.7157
  10  339.283
  11  325.1182
  12  355.91
  13  355.9775
  14  284.7102
  15  270.8299
  16  355.2149
  17  440.159
  18  302.3239
  19  338.3152
  20  304.5959
  21  278.0878
  22  360.0707
  23  401.3672
  24  303.0069
  25  278.262
  26  384.1588
  27  358.2597
  28  233.364
  29  340.8662
  30  391.1844
  31  319.9893
  32  214.5117
  33  296.0714
  34  392.2589
  35  338.6635
  36  335.2711
  37  456.7012
  38  514.8105
  39  611.4351
  40  634.0472
  41  719.0532
  42  909.9583
  43  848.3257
  44  758.0174
  45  641.1168
  46  653.7791
  47  521.1266
  48  440.5923
  49  341.7103
  50  398.4333
  51  355.783
  52  331.4794
  53  259.3071
  54  336.6237
  55  414.1802
  56  288.5416
  57  290.7868
  58  290.1184
  59  326.2563
  60  350.6389
  61  391.4459
  62  383.1732
  63  362.4625
  64  283.3009
  65  416.0519
  66  375.8269
  67  324.8416
  68  344.1999
  69  337.9284
  70  275.7281
  71  349.0128
  72  406.4119
  73  384.2895
  74  283.8815
  75  206.519
  76  205.0516
  77  360.1278
  78  344.605
  79  221.4532
  80  229.9068
  81  344.144
  82  428.6991
  83  392.2809
  84  311.9007
  85  315.7444
  86  277.1628
  87  394.9293
  88  306.6223
  89  269.9821
  90  358.2347
  91  180.3579
  92  129.3365
  93  200.2653
  94  224.1456
  95  364.605
  96  391.4469
  97  347.7387
  98  492.2362
  99  427.3594
 100  312.9804
 101  341.0893
 102  425.1979
 103  516.527
 104  375.9988
 105  302.0205
 106  436.2904
 107  456.7922
 108  379.1542
 109  383.5704
 110  325.2092
 111  269.2401
 112  276.5953
 113  261.2451
 114  393.1364
 115  231.7548
 116  328.9251
 117  360.7106
 118  318.1073
 119  313.6093
 120  327.4769
 121  295.9668
 122  381.7954
 123  444.3623
 124  345.8548
 125  315.6525
 126  393.215
 127  324.7159
 128  290.9589
 129  251.205
 130  245.9926
 131  289.1417
 132  439.1573
 133  340.9922
 134  233.4273
 135  224.9645
 136  208.5492
 137  315.5691
 138  277.9375
 139  261.2625
 140  289.5732
 141  354.7789
 142  307.7067
 143  185.8329
 144  249.1745
 145  287.4129
 146  281.5856
 147  259.0346
 148  360.9312
 149  376.9845
 150  274.7472
 151  264.7661
 152  355.5256
 153  353.4729
 154  286.2163
 155  262.7274
 156  294.3148
 157  351.2428
 158  245.449
 159  304.5425
 160  382.8004
 161  435.6971
 162  339.4217
 163  179.7994
 164  252.1152
 165  331.4016
 166  300.157
 167  431.1719
 168  306.6868
 169  369.4909
 170  263.6345
 171  224.7591
 172  288.5204
 173  256.3129
 174  342.7388
 175  427.0378
 176  285.215
 177  280.4307
 178  281.1181
 179  281.1031
 180  262.3925
 181  249.6944
 182  286.4951
 183  204.2946
 184  203.2935
 185  334.5015
 186  269.5
 187  274.9666
 188  216.567
 189  259.1998
 190  218.6342
 191  306.3861
 192  334.4504
 193  312.6016
 194  304.4158
 195  356.9855
 196  318.5968
 197  307.2736
 198  429.1591
 199  392.8974
 200  367.0783
 201  437.7418
 202  451.7052
 203  335.2639
 204  404.5012
 205  373.2551
 206  387.5629
 207  433.8993
 208  477.8608
 209  312.9341
 210  295.5558
 211  352.7504
 212  353.8861
 213  284.0329
 214  410.3807
 215  425.773
 216  381.5715
 217  338.8136
 218  361.1678
 219  440.6331
 220  497.7159
 221  372.9041
 222  324.3156
 223  361.8498
 224  344.5723
 225  351.997
 226  385.2138
 227  449.1836
 228  412.9973
 229  300.9257
 230  280.7713
 231  364.0288
 232  382.0998
 233  445.2328
 234  508.8751
 235  424.6777
 236  427.058
 237  398.7101
 238  484.6232
 239  394.6751
 240  340.7092
 241  307.8547
 242  332.8091
 243  402.0491
 244  471.0259
 245  547.6208
 246  461.2718
 247  462.7598
 248  372.6042
 249  418.2426
 250  410.1949
 251  411.7188
 252  470.7922
 253  527.0105
 254  403.8486
 255  429.1069
 256  512.228
 257  475.4411
 258  558.4534
 259  504.2819
 260  466.7794
 261  524.112
 262  535.0323
 263  542.9268
 264  495.1335
 265  434.8518
 266  429.5707
 267  454.3169
 268  394.8444
 269  365.2065
 270  457.8953
 271  494.8579
 272  382.105
 273  419.3787
 274  508.5928
 275  504.3826
 276  483.8863
 277  449.4308
 278  336.8552
 279  284.9494
 280  375.6736
 281  455.373
 282  473.6047
 283  384.4274
 284  433.4821
 285  447.6733
 286  429.1508
 287  374.888
 288  402.2474
 289  587.0566
 290  586.187
 291  404.8319
 292  315.8101
 293  319.8564
 294  387.1675
 295  428.4756
 296  454.3141
 297  425.334
 298  332.6208
 299  386.4508
 300  474.5546
 301  405.0676
 302  379.6613
 303  409.0988
 304  381.0664
 305  393.7687
 306  268.277
 307  180.7475
 308  190.5849
 309  307.2199
 310  257.1348
 311  292.545
 312  246.1658
 313  358.091
 314  422.3429
 315  393.2255
 316  319.4717
 317  346.4884
 318  348.7556
 319  389.0255
 320  358.1695
 321  346.688
 322  329.7131
 323  311.1906
 324  261.8298
 325  248.7765
 326  293.1379
 327  338.981
 328  242.8114
 329  261.8281
 330  398.4284
 331  410.8828
 332  277.7784
 333  340.4518
 334  412.2559
 335  308.348
 336  334.9829
 337  304.5323
 338  300.392
 339  304.8951
 340  337.0829
 341  377.2563
 342  257.7314
 343  271.408
 344  369.6874
 345  356.2565
 346  411.5553
 347  412.2001
 348  383.5111
 349  371.3449
 350  355.285
 351  251.3215
 352  179.3026
 353  269.3376
 354  365.6161
 355  336.0319
 356  332.0724
 357  340.0385
 358  357.0371
 359  337.3988
 360  368.366
 361  431.6188
 362  388.3638
 363  195.3503
 364  226.1351
 365  381.1247
 366  406.4393
 367  422.0487
 368  443.797
 369  423.3063
 370  544.1705
 371  512.2351
 372  486.7713
 373  434.8151
 374  454.4355
 375  385.5638
 376  341.427
 377  360.8873
 378  468.7229
 379  390.6151
 380  428.804
 381  440.0046
 382  358.4501
 383  363.9567
 384  352.2393
 385  374.7145
 386  431.4589
 387  293.4167
 388  292.6546
 389  361.1258
 390  387.0564
 391  304.6551
 392  355.328
 393  434.1831
 394  446.4872
 395  318.1925
 396  321.7627
 397  275.246
 398  375.3061
 399  434.5701
 400  335.0026
 401  356.3348
 402  268.7401
 403  208.1076
 404  287.546
 405  268.4387
 406  233.6168
 407  306.1201
 408  355.7669
 409  281.7867
 410  242.2585
 411  330.6039
 412  399.4291
 413  292.9556
 414  345.4826
 415  391.1751
 416  389.7872
 417  366.9827
 418  346.5128
 419  261.1672
 420  241.0137
 421  226.3843
 422  281.6378
 423  205.1877
 424  174.0302
 425  255.9359
 426  345.2432
 427  328.2867
 428  372.066
 429  354.7258
 430  209.8737
 431  213.5524
 432  316.7115
 433  407.2136
 434  392.7993
 435  389.6315
 436  332.3591
 437  288.0629
 438  377.6483
 439  410.3874
 440  249.4273
 441  241.5084
 442  354.1378
 443  341.1758
 444  281.4473
 445  315.0208
 446  306.5275
 447  291.7253
 448  348.5117
 449  436.3784
 450  368.092
 451  281.905
 452  277.3778
 453  294.9957
 454  323.791
 455  274.8389
 456  241.0888
 457  290.4855
 458  297.149
 459  396.8915
 460  236.4161
 461  257.4177
 462  351.5798
 463  365.487
 464  310.2892
 465  379.0533
 466  467.5399
 467  364.1341
 468  311.1962
 469  443.2919
 470  297.3191
 471  170.5683
 472  327.5679
 473  341.2533
 474  319.9826
 475  251.2814
 476  314.6945
 477  272.1164
 478  345.8265
 479  258.3195
 480  253.2888
 481  319.2429
 482  330.0618
 483  281.3736
 484  382.7123
 485  337.5319
 486  230.5162
 487  268.1403
 488  280.33
 489  267.114
 490  208.8811
 491  222.3799
 492  271.0414
 493  350.562
 494  215.7522
 495  255.4113
 496  337.6714
 497  315.6585
 498  246.9513
 499  338.3172
 500  421.1375
 501  389.1935
 502  331.0924
 503  441.7931
 504  439.6985
 505  365.1219
 506  294.4621
 507  369.1711
 508  384.4089
 509  356.8729
 510  368.7868
 511  340.4327
