# Input file       =  1211442149.106837_cleaned.dat
# Candidate        =  PSR_0332+5434
# Telescope        =  AR
# Epoch_topo       =  58265.321390125428
# Epoch_bary       =  N/A
# T_sample         =  0.002
# Data Folded      =  7340032
# Data Avg         =  0.203604507446081
# Data StdDev      =  4.9006948575797  
# Profile Bins     =  512
# Profile Avg      =  2918.88695741388 
# Profile StdDev   =  586.775075654021 
# Reduced chi-sqr  =  1.265
# Prob(Noise)      <  4.25e-05   (~3.9 sigma)
# P_topo (ms)      =  714.521509493701  +/- 0.000719
# P'_topo (s/s)    =  -0                +/- 3.79e-10
# P''_topo (s/s^2) =  0                 +/- 1.67e-13
# P_bary (ms)      =  N/A
# P'_bary (s/s)    =  N/A
# P''_bary (s/s^2) =  N/A
# P_orb (s)        =  N/A
# asin(i)/c (s)    =  N/A
# eccentricity     =  N/A
# w (rad)          =  N/A
# T_peri           =  N/A
######################################################
   0  3206.138
   1  3031.542
   2  3487.951
   3  3072.192
   4  2958.032
   5  2683.489
   6  2869.238
   7  2882.649
   8  2800.901
   9  3126.655
  10  2844.553
  11  3003.845
  12  3229.545
  13  3333.192
  14  3489.513
  15  3501.524
  16  3618.166
  17  3628.802
  18  3570.531
  19  3522.546
  20  3599.265
  21  4208.535
  22  3941.408
  23  3550.508
  24  3542.866
  25  3836.322
  26  3840.963
  27  3725.584
  28  3516.54
  29  2989.529
  30  3217.544
  31  3266.853
  32  3689.466
  33  3453.492
  34  3553.905
  35  3344.401
  36  3193.04
  37  3212.607
  38  3023.761
  39  3287.188
  40  3351.671
  41  3566.46
  42  3317.515
  43  3045.419
  44  3059.232
  45  3317.48
  46  3202.979
  47  3128.757
  48  3537.224
  49  3323.541
  50  2910.223
  51  3179.956
  52  3374.756
  53  3101.781
  54  3146.346
  55  3314.045
  56  2986.651
  57  3047.084
  58  3605.929
  59  3349.627
  60  3019.38
  61  2962.767
  62  2629.668
  63  2593.309
  64  2622.91
  65  3171.595
  66  3075.613
  67  3233.232
  68  3268.322
  69  3068.72
  70  2925.86
  71  2943.916
  72  3228.006
  73  2885.053
  74  2664.095
  75  2589.461
  76  2742.259
  77  2698.354
  78  2758.552
  79  2702.206
  80  2222.142
  81  2840.668
  82  2795.491
  83  2881.585
  84  2784.532
  85  3109.042
  86  2867.254
  87  2594.538
  88  2444.898
  89  2960.583
  90  3015.973
  91  3165.275
  92  3432.438
  93  3312.158
  94  2970.244
  95  3227.688
  96  3384.894
  97  3297.554
  98  3517.992
  99  3677.558
 100  3379.01
 101  3017.867
 102  2831.633
 103  3117.498
 104  2626.575
 105  2591.594
 106  2855.631
 107  3011.106
 108  2724.897
 109  2466.294
 110  2887.553
 111  2811.75
 112  2231.439
 113  2397.026
 114  2575.447
 115  2570.633
 116  2573.583
 117  2335.976
 118  2476.872
 119  2507.894
 120  2471.665
 121  2753.787
 122  2586.598
 123  2434.097
 124  2228.283
 125  2265.528
 126  2384.013
 127  2285.1
 128  1966.04
 129  1946.874
 130  2223.44
 131  2557.161
 132  2596.705
 133  2306.427
 134  2519.692
 135  2407.761
 136  2225.985
 137  2170.466
 138  2444.593
 139  2701.091
 140  2317.637
 141  2274.787
 142  2258.653
 143  2377.82
 144  2583.274
 145  2697.641
 146  2904.76
 147  2544.116
 148  2364.186
 149  2193.516
 150  2476.364
 151  2441.354
 152  2251.881
 153  2382.115
 154  2478.761
 155  2391.527
 156  2252.033
 157  2654.401
 158  2663.133
 159  2484.189
 160  2693.993
 161  2173.867
 162  2274.212
 163  2413.162
 164  2597.918
 165  2384.066
 166  1800.617
 167  2035.126
 168  2415.016
 169  2442.264
 170  2387.397
 171  2266.305
 172  2662.625
 173  2718.817
 174  2742.692
 175  2278.217
 176  2255.143
 177  2323.367
 178  2425.457
 179  2089.117
 180  2230.614
 181  2437.69
 182  2581.633
 183  2590.926
 184  2680.058
 185  2663.711
 186  2839.88
 187  2617.008
 188  2552.14
 189  2407.362
 190  2391.281
 191  2344.958
 192  2190.923
 193  2311.123
 194  2422.415
 195  2258.58
 196  2657.642
 197  2700.646
 198  2748.147
 199  2441.363
 200  2719.567
 201  2760.919
 202  2677.762
 203  2819.963
 204  2772.989
 205  2607.953
 206  2492.261
 207  2734.141
 208  2598.819
 209  2358.021
 210  2530.871
 211  2691.644
 212  2462.522
 213  2633.839
 214  2640.202
 215  2535.83
 216  2615.851
 217  2998.854
 218  2856.279
 219  2464.802
 220  2847.746
 221  2960.397
 222  2958.098
 223  3087.229
 224  3195.053
 225  2997.295
 226  2966.843
 227  2920.703
 228  2948.618
 229  2852.511
 230  2565.174
 231  2316.974
 232  2730.425
 233  2633.911
 234  2540.511
 235  2904.126
 236  2920.638
 237  2653.004
 238  2538.842
 239  2161.568
 240  2342.921
 241  2268.86
 242  2569.207
 243  2288.414
 244  2343.419
 245  2388.602
 246  2215.597
 247  2136.566
 248  2148.047
 249  2486.517
 250  2779.112
 251  2534.424
 252  2310.399
 253  2334.216
 254  2505.852
 255  2561.464
 256  2254.013
 257  2166.327
 258  2440.784
 259  2125.287
 260  2094.993
 261  1978.285
 262  2102.729
 263  2266.506
 264  2349.413
 265  2533.886
 266  2403.01
 267  2231.427
 268  2465.879
 269  2399.889
 270  2348.115
 271  2122.29
 272  2390.701
 273  2345.02
 274  2218.459
 275  2495.111
 276  2540.916
 277  2731.257
 278  2520.573
 279  2653.233
 280  2182.442
 281  2201.571
 282  2322.872
 283  2240.586
 284  2062.271
 285  2143.337
 286  2661.927
 287  2918.207
 288  2302.126
 289  2189.648
 290  2063.986
 291  2270.294
 292  2294.283
 293  2484.741
 294  2150.173
 295  2335.4
 296  2402.001
 297  2425.406
 298  2471.917
 299  2766.903
 300  2713.803
 301  2674.7
 302  2539.401
 303  2937.267
 304  2401.88
 305  2554.222
 306  3146.242
 307  3446.815
 308  3011.626
 309  2846.768
 310  3071.969
 311  2726.537
 312  2544.813
 313  2618.129
 314  2863.527
 315  3148.835
 316  3475.047
 317  3534.605
 318  3488.579
 319  3432.246
 320  3135.455
 321  3158.934
 322  2816.971
 323  2857.901
 324  3127.64
 325  3043.402
 326  3285.881
 327  3023.478
 328  3106.048
 329  2985.476
 330  2850.686
 331  2700.781
 332  2819.917
 333  3054.039
 334  3150.536
 335  3068.052
 336  2888.529
 337  2740.301
 338  2936.803
 339  2822.022
 340  3079.538
 341  2942.427
 342  2781.381
 343  2955.21
 344  3370.676
 345  3332.036
 346  3578.928
 347  3656.24
 348  4017.137
 349  4123.449
 350  4485.567
 351  4689.979
 352  4686.675
 353  4569.25
 354  3809.166
 355  3314.567
 356  2948.106
 357  2989.375
 358  2827.346
 359  3005.912
 360  3229.026
 361  3242.645
 362  3291.217
 363  3103.556
 364  2791.895
 365  2639.471
 366  2980.539
 367  3070.791
 368  3428.58
 369  3063.122
 370  2335.857
 371  2479.448
 372  2954.379
 373  3186.177
 374  3260.075
 375  3262.12
 376  3135.537
 377  3070.597
 378  3036.33
 379  3282.746
 380  3652.312
 381  3510.6
 382  3418.386
 383  2978.199
 384  3117.271
 385  3464.131
 386  3586.361
 387  3776.817
 388  3535.826
 389  3151.366
 390  3429.058
 391  3510.175
 392  3370.974
 393  3545
 394  3503.181
 395  3614.961
 396  3878.019
 397  3837.036
 398  3373.378
 399  3732.835
 400  3766.313
 401  3552.152
 402  3562.83
 403  3746.42
 404  3567.849
 405  3242.178
 406  3645.463
 407  3540.792
 408  3558.6
 409  3381.345
 410  3418.794
 411  3280.831
 412  3251.621
 413  3101.567
 414  2881.473
 415  3114.334
 416  2626.684
 417  2676.249
 418  2646.251
 419  2580.803
 420  2972.737
 421  2835.119
 422  2870.056
 423  2928.798
 424  2841.762
 425  2651.728
 426  2600.065
 427  2606.526
 428  2779.244
 429  3126.084
 430  2847.255
 431  2697.782
 432  2898.447
 433  2824.014
 434  3081.61
 435  3045.411
 436  2601.448
 437  2838.302
 438  3257.091
 439  3453.292
 440  3118.683
 441  3190.401
 442  3724.339
 443  3464.244
 444  3320.902
 445  3357.985
 446  3213.379
 447  3178.467
 448  3273.89
 449  3952.266
 450  3816.75
 451  3695.692
 452  3512.356
 453  3511.359
 454  3562.86
 455  3355.082
 456  3432.011
 457  3472.263
 458  3444.591
 459  3447.425
 460  3194.281
 461  2828.315
 462  2945.554
 463  3160.891
 464  3185.982
 465  3067.278
 466  2868.012
 467  3062.772
 468  2981.615
 469  3345.16
 470  3359.946
 471  3245.788
 472  3432.774
 473  3400.965
 474  3088.179
 475  2742.2
 476  3143.098
 477  3219.56
 478  3332.032
 479  3357.346
 480  3333.442
 481  3444.082
 482  3125.927
 483  3051.542
 484  3519.838
 485  3553.793
 486  3496.942
 487  3464.094
 488  2947.38
 489  3338.215
 490  3409.9
 491  3226.413
 492  3309.55
 493  3360.103
 494  3412.933
 495  3211.42
 496  3372.463
 497  3433.36
 498  3423.471
 499  3506.376
 500  3320.108
 501  3328.062
 502  3365.808
 503  3118.872
 504  3084.948
 505  3100.826
 506  2820.78
 507  2766.712
 508  2736.377
 509  2909.141
 510  3045.205
 511  3416.183
