# Input file       =  1211356001.104333_cleaned.dat
# Candidate        =  PSR_0332+5434
# Telescope        =  AR
# Epoch_topo       =  58264.324306763112
# Epoch_bary       =  N/A
# T_sample         =  0.002
# Data Folded      =  7340032
# Data Avg         =  0.289559996188992
# Data StdDev      =  5.94386200038994 
# Profile Bins     =  512
# Profile Avg      =  4151.93214674528 
# Profile StdDev   =  711.676645111166 
# Reduced chi-sqr  =  1.033
# Prob(Noise)      <  0.295   (~0.5 sigma)
# P_topo (ms)      =  714.522485704634  +/- 0.00024
# P'_topo (s/s)    =  -0                +/- 1.27e-10
# P''_topo (s/s^2) =  0                 +/- 5.59e-14
# P_bary (ms)      =  N/A
# P'_bary (s/s)    =  N/A
# P''_bary (s/s^2) =  N/A
# P_orb (s)        =  N/A
# asin(i)/c (s)    =  N/A
# eccentricity     =  N/A
# w (rad)          =  N/A
# T_peri           =  N/A
######################################################
   0  4923.377
   1  4944.16
   2  4730.878
   3  4738.91
   4  4861.097
   5  4742.151
   6  4757.099
   7  5268.371
   8  4782.068
   9  4800.041
  10  4253.242
  11  4397.087
  12  4808.144
  13  4733.23
  14  4568.232
  15  4243.443
  16  4238.277
  17  4352.142
  18  4868.869
  19  4579.567
  20  4140.664
  21  4092.796
  22  4961.052
  23  4865.479
  24  4379.655
  25  4425.624
  26  4403.462
  27  4165.552
  28  4260.896
  29  4098.853
  30  4377.694
  31  4608.389
  32  4644.074
  33  4720.916
  34  4728.853
  35  5093.612
  36  4956.066
  37  4927.276
  38  4860.558
  39  5084.993
  40  4669.677
  41  4635.67
  42  4674.865
  43  4810.003
  44  4637.18
  45  4171.067
  46  4781.09
  47  4976.215
  48  4754.771
  49  4223.919
  50  4135.65
  51  4123.588
  52  3928.438
  53  4354.729
  54  4467.514
  55  4843.429
  56  4768.308
  57  3856.167
  58  3639.665
  59  3869.954
  60  4014.791
  61  4288.713
  62  4136.735
  63  4312.065
  64  3726.688
  65  3699.92
  66  4146.551
  67  4234.097
  68  3994.162
  69  3909.239
  70  4345.494
  71  4204.837
  72  4411.693
  73  4556.617
  74  4727.938
  75  4592.986
  76  5353.37
  77  5163.323
  78  4893.434
  79  4684.554
  80  4410.193
  81  4510.713
  82  4271.079
  83  4702.734
  84  4723.128
  85  4361.77
  86  4269.652
  87  4622.294
  88  4981.17
  89  4444.233
  90  4771.801
  91  3909.8
  92  3727.194
  93  4105.524
  94  4857.819
  95  4474.295
  96  3753.78
  97  3722.191
  98  3944.871
  99  4148.94
 100  4546.511
 101  4458.151
 102  4213.431
 103  3871.845
 104  3960.224
 105  3962.371
 106  4045.05
 107  4338.987
 108  4486.563
 109  4266.754
 110  4651.454
 111  4181.627
 112  3649.62
 113  4314.083
 114  4255.888
 115  4168.104
 116  4288.078
 117  4639.984
 118  4219.001
 119  4044.041
 120  4452.008
 121  4667.975
 122  4448.676
 123  3981.356
 124  3607.807
 125  3377.906
 126  3297.359
 127  3732.386
 128  4013.157
 129  4108.328
 130  4018.889
 131  3865.258
 132  4187.849
 133  4355.004
 134  4726.099
 135  4176.733
 136  4237.799
 137  3731.749
 138  4310.25
 139  4210.703
 140  4286.353
 141  4302.95
 142  4365.326
 143  4718.933
 144  4550.141
 145  4070.49
 146  4205.11
 147  4490.021
 148  4471.633
 149  4366.826
 150  4665.736
 151  4938.4
 152  4765.143
 153  4909.292
 154  4980.606
 155  4952.53
 156  4861.575
 157  4644.505
 158  4286.328
 159  4193.277
 160  3703.766
 161  4174.751
 162  4890.969
 163  4767.7
 164  4938.84
 165  4486.477
 166  4515.368
 167  5028.757
 168  5223.01
 169  4628.458
 170  4415.004
 171  4354.105
 172  4847.719
 173  4758.374
 174  4199.417
 175  3692.84
 176  4306.212
 177  4281.804
 178  4828.554
 179  4715.662
 180  4366.9
 181  3666.797
 182  3370.624
 183  3418.881
 184  3649.037
 185  4378.947
 186  3894.069
 187  3166.543
 188  3010.296
 189  3654.669
 190  3466.795
 191  3445.631
 192  3884.011
 193  3243.881
 194  3244.639
 195  3243.038
 196  3481.843
 197  3446.06
 198  3636.363
 199  3562.859
 200  3568.321
 201  3910.404
 202  3687.824
 203  3329.76
 204  3517.95
 205  3341.826
 206  4269.542
 207  4152.812
 208  4000.852
 209  3509.87
 210  3762.269
 211  4115.004
 212  4152.021
 213  4115.647
 214  3711.175
 215  3718.728
 216  3904.875
 217  4230.588
 218  4276.391
 219  4108.006
 220  3626.84
 221  3633.928
 222  3746.209
 223  3804.057
 224  3975.603
 225  3808.86
 226  3745.266
 227  3415.45
 228  3139.568
 229  3849.493
 230  3486.6
 231  3259.49
 232  2897.156
 233  3097.638
 234  3711.025
 235  2932.387
 236  3520.592
 237  3482.046
 238  3394.324
 239  3347.197
 240  3321.913
 241  3441.736
 242  4072.625
 243  3982.916
 244  3865.601
 245  3898.145
 246  3680.673
 247  4146.372
 248  4347.301
 249  4626.619
 250  4600.43
 251  4498.88
 252  4459.002
 253  4203.656
 254  4337.747
 255  4449.952
 256  4260.914
 257  4460.221
 258  4249.684
 259  4026.866
 260  3842.232
 261  3606.051
 262  4178.266
 263  4237.43
 264  4195.353
 265  4445.639
 266  4567.022
 267  3915.871
 268  3613.004
 269  3926.348
 270  4404.71
 271  4787.229
 272  5201.428
 273  4577.944
 274  3625.49
 275  3367.349
 276  4029.843
 277  4399.773
 278  4534.09
 279  4966.182
 280  3978.74
 281  3625.645
 282  3724.14
 283  4264.555
 284  4315.724
 285  4236.796
 286  4536.445
 287  3681.86
 288  3935.013
 289  4657.872
 290  4404.523
 291  4084.332
 292  4184.673
 293  4097.89
 294  4009.75
 295  4458.991
 296  5420.839
 297  5443.587
 298  5567.637
 299  5922.764
 300  5917.358
 301  5433.833
 302  5277.479
 303  4868.686
 304  3967.111
 305  3658.388
 306  3832.473
 307  4411.764
 308  4112.489
 309  3497.165
 310  3238.83
 311  4118.233
 312  4659.537
 313  4387.66
 314  3861.204
 315  3344.723
 316  3600.908
 317  3798.625
 318  3918.004
 319  4262.525
 320  3757.658
 321  3933.141
 322  3896.105
 323  3768.143
 324  3502.759
 325  3171.269
 326  3620.451
 327  3703.113
 328  3839.546
 329  3467.933
 330  2930.531
 331  3685.132
 332  4596.392
 333  4779.537
 334  4905.944
 335  4580.97
 336  4345.82
 337  4555.77
 338  4676.98
 339  4853.741
 340  4533.698
 341  4426.452
 342  4911.109
 343  4772.152
 344  4599.785
 345  4792.828
 346  4955.717
 347  5337.007
 348  4757.767
 349  4096.77
 350  3787.213
 351  3827.641
 352  4134.383
 353  4878.038
 354  4397.257
 355  3992.464
 356  3736.787
 357  3447.384
 358  3486.277
 359  3591.116
 360  3967.271
 361  4056.083
 362  4492.043
 363  4489.087
 364  4894.539
 365  3923.558
 366  4257.777
 367  4506.738
 368  4766.353
 369  4240.974
 370  3765.926
 371  4118.221
 372  4476.395
 373  4343.546
 374  3972.208
 375  3754.312
 376  3521.888
 377  4164.812
 378  4349.796
 379  4712.575
 380  4832.159
 381  5018.337
 382  4399.873
 383  3899.638
 384  3486.835
 385  4118.437
 386  4383.856
 387  4510.06
 388  4424.511
 389  4258.877
 390  3710.099
 391  3953.322
 392  4476.884
 393  4417.828
 394  3770.836
 395  3775.439
 396  3914.173
 397  3224.702
 398  2994.833
 399  3407.686
 400  3034.336
 401  3127.521
 402  3547.406
 403  3713.631
 404  3623.897
 405  3313.284
 406  3133.66
 407  3012.489
 408  3678.931
 409  3918.64
 410  3709.013
 411  3925.271
 412  3640.39
 413  3936.566
 414  4571.326
 415  4534.47
 416  4439.947
 417  3919.959
 418  3859.339
 419  4465.949
 420  4619.578
 421  4443.267
 422  4872.765
 423  4276.73
 424  3899.083
 425  4083.65
 426  3942.538
 427  4015.312
 428  4034.639
 429  3884.243
 430  4086.442
 431  4356.945
 432  4290.477
 433  5100.157
 434  4698.243
 435  4683.498
 436  4355.433
 437  4247.242
 438  4523.446
 439  4428.031
 440  4440.192
 441  4035.509
 442  3920.482
 443  3536.188
 444  3975.913
 445  3762.117
 446  3704.738
 447  3628.422
 448  4238.707
 449  3774.981
 450  3954.053
 451  3847.51
 452  3983.656
 453  3717.488
 454  3265.48
 455  3867.57
 456  3775.011
 457  3250.35
 458  3136.969
 459  3380.103
 460  3496.88
 461  4243.324
 462  4820.382
 463  4430.885
 464  3962.795
 465  3734.397
 466  3234.353
 467  3731.258
 468  4494.571
 469  4325.163
 470  3500.69
 471  3507.143
 472  3513.073
 473  3744.23
 474  4299.085
 475  3846.015
 476  3586.313
 477  3443.214
 478  3807.251
 479  3801.101
 480  3733.434
 481  3950.126
 482  3405.713
 483  3135.826
 484  3548.974
 485  3573.938
 486  3926.259
 487  3547.381
 488  3432.151
 489  3551.824
 490  3684.389
 491  2883.731
 492  3258.268
 493  3560.295
 494  3917.51
 495  3845.49
 496  3894.157
 497  4015.337
 498  4043.463
 499  3891.866
 500  3810.06
 501  3694.942
 502  3744.238
 503  3887.653
 504  4322.697
 505  4804.442
 506  4541.294
 507  4705.833
 508  4601.136
 509  4244.36
 510  4479.048
 511  4470.939
