# Input file       =  1211341354.116035_cleaned.dat
# Candidate        =  PSR_0332+5434
# Telescope        =  AR
# Epoch_topo       =  58264.154781435587
# Epoch_bary       =  N/A
# T_sample         =  0.002
# Data Folded      =  7208960
# Data Avg         =  0.135277663962915
# Data StdDev      =  4.78388677239244 
# Profile Bins     =  256
# Profile Avg      =  3809.34068953964 
# Profile StdDev   =  802.781244084694 
# Reduced chi-sqr  =  1.059
# Prob(Noise)      <  0.249   (~0.7 sigma)
# P_topo (ms)      =  714.522638290903  +/- 5.76e-05
# P'_topo (s/s)    =  -0                +/- 3.09e-11
# P''_topo (s/s^2) =  0                 +/- 1.39e-14
# P_bary (ms)      =  N/A
# P'_bary (s/s)    =  N/A
# P''_bary (s/s^2) =  N/A
# P_orb (s)        =  N/A
# asin(i)/c (s)    =  N/A
# eccentricity     =  N/A
# w (rad)          =  N/A
# T_peri           =  N/A
######################################################
   0  4513.193
   1  4354.412
   2  3822.516
   3  2608.147
   4  3319.994
   5  3963.939
   6  3776.746
   7  4075.49
   8  3606.033
   9  4527.955
  10  3752.194
  11  3825.258
  12  3483.477
  13  4307.362
  14  4199.7
  15  4645.277
  16  4425.94
  17  4730.537
  18  3440.914
  19  3962.566
  20  3532.65
  21  5246.033
  22  4569.372
  23  4527.274
  24  4145.086
  25  5295.286
  26  4695.01
  27  3807.034
  28  4591.159
  29  3694.019
  30  3463.696
  31  5010.573
  32  4042.254
  33  4325.196
  34  3668.598
  35  3662.22
  36  4470.439
  37  4564.261
  38  3934.899
  39  4535.297
  40  4590.732
  41  4373.399
  42  5302.741
  43  4008.467
  44  4398.609
  45  4558.886
  46  4783.304
  47  3772.614
  48  3561.09
  49  3838.6
  50  5116.568
  51  3387.559
  52  2989.856
  53  3532.941
  54  4756.632
  55  3283.995
  56  4037.113
  57  4029.529
  58  4672.058
  59  3880.777
  60  3433.895
  61  3363.48
  62  4209.809
  63  5285.023
  64  3823.139
  65  3609.475
  66  4608.809
  67  4139.598
  68  3497.906
  69  4064.313
  70  3258.089
  71  3431.298
  72  4027.196
  73  4142.808
  74  3353.781
  75  3036.132
  76  2301.441
  77  3826.964
  78  3585.814
  79  3371.726
  80  2967.933
  81  3706.208
  82  3111.343
  83  4301.873
  84  2763.765
  85  3324.047
  86  2916.523
  87  3594.424
  88  3010.907
  89  2959.295
  90  3919.96
  91  4230.902
  92  3044.607
  93  3084.512
  94  2696.274
  95  4305.483
  96  4153.86
  97  3154.306
  98  2586.475
  99  3511.965
 100  4443.935
 101  2855.086
 102  2396.358
 103  2609.603
 104  3745.926
 105  3435.134
 106  3326.728
 107  3670.829
 108  3142.419
 109  3204.269
 110  3209.26
 111  2761.288
 112  3444.436
 113  3849.907
 114  3801.984
 115  3419.949
 116  4250.366
 117  2355.887
 118  3063.853
 119  3131.446
 120  4151.476
 121  3122.195
 122  3870.029
 123  3342.8
 124  4225.091
 125  2834.765
 126  3440.737
 127  2917.516
 128  4484.091
 129  4018.471
 130  3979.783
 131  3466.062
 132  4596.361
 133  4198.454
 134  3156.501
 135  3379.887
 136  4181.405
 137  3861.144
 138  3257.726
 139  3899.668
 140  4471.161
 141  4918.344
 142  3158.885
 143  2426.994
 144  3455.618
 145  4521.858
 146  4054.633
 147  5009.272
 148  5341.066
 149  7634.585
 150  6860.761
 151  4860.614
 152  3187.84
 153  4638.935
 154  3949.236
 155  3933.052
 156  3982.528
 157  4497.711
 158  4000.271
 159  4209.59
 160  3065.608
 161  4178.832
 162  3974.66
 163  3439.01
 164  3223.794
 165  4093.152
 166  4047.551
 167  3202.417
 168  3122.866
 169  3827.795
 170  3626.058
 171  3350.353
 172  2850.925
 173  3723.525
 174  3458.741
 175  2652.26
 176  3045.54
 177  2877.029
 178  4091.931
 179  2673.507
 180  3892.978
 181  3644.457
 182  4322.297
 183  2423.314
 184  2696.98
 185  2038.17
 186  3636.857
 187  3204.823
 188  3032.801
 189  2599.483
 190  3208.553
 191  3944.605
 192  3362.766
 193  2723.493
 194  3816.051
 195  3540.212
 196  3616.546
 197  3811.56
 198  3969.887
 199  3372.071
 200  2865.329
 201  3212.787
 202  3543.906
 203  3975.936
 204  3582.916
 205  4654.992
 206  4416.499
 207  4316.563
 208  3631.51
 209  3620.12
 210  4238.307
 211  4347.148
 212  4054.669
 213  4120.429
 214  4171.182
 215  4785.913
 216  4964.475
 217  4714.858
 218  3898.623
 219  4139.119
 220  2819.718
 221  3688.204
 222  3532.298
 223  5096.415
 224  4733.795
 225  3527.964
 226  3729.831
 227  4607.684
 228  4293.603
 229  4634.101
 230  4276.596
 231  3902.676
 232  4168.104
 233  3673.384
 234  3973.034
 235  3470.939
 236  4265.268
 237  3193.536
 238  3363.547
 239  4416.128
 240  4686.69
 241  3194.074
 242  3565.587
 243  2944.937
 244  3981.462
 245  3102.472
 246  4512.273
 247  3952.389
 248  3835.649
 249  3358.561
 250  4088.399
 251  3309.009
 252  3795.918
 253  3994.965
 254  3783.478
 255  3751.176
