# Input file       =  1211184299.108801_cleaned.dat
# Candidate        =  PSR_0332+5434
# Telescope        =  AR
# Epoch_topo       =  58262.337015148158
# Epoch_bary       =  N/A
# T_sample         =  0.002
# Data Folded      =  7340032
# Data Avg         =  0.0312946245549429
# Data StdDev      =  0.999995089252431
# Profile Bins     =  512
# Profile Avg      =  448.491481066025 
# Profile StdDev   =  119.732448398049 
# Reduced chi-sqr  =  1.089
# Prob(Noise)      <  0.0812   (~1.4 sigma)
# P_topo (ms)      =  714.524442207323  +/- 0.000388
# P'_topo (s/s)    =  -0                +/- 2.05e-10
# P''_topo (s/s^2) =  0                 +/- 9.05e-14
# P_bary (ms)      =  N/A
# P'_bary (s/s)    =  N/A
# P''_bary (s/s^2) =  N/A
# P_orb (s)        =  N/A
# asin(i)/c (s)    =  N/A
# eccentricity     =  N/A
# w (rad)          =  N/A
# T_peri           =  N/A
######################################################
   0  1037.158
   1  942.0518
   2  758.7738
   3  652.0049
   4  590.6237
   5  422.8353
   6  428.4839
   7  417.0573
   8  435.4604
   9  477.6954
  10  488.8051
  11  571.3497
  12  568.4707
  13  485.2902
  14  461.993
  15  490.1283
  16  556.1517
  17  450.0203
  18  456.482
  19  535.9235
  20  500.7694
  21  537.0765
  22  534.2108
  23  508.9537
  24  485.1011
  25  554.9601
  26  481.1815
  27  403.5193
  28  447.2371
  29  506.1967
  30  422.8888
  31  431.229
  32  435.4017
  33  313.5341
  34  336.7447
  35  346.7021
  36  468.974
  37  433.4492
  38  357.5932
  39  354.2086
  40  342.9397
  41  437.362
  42  419.2946
  43  471.255
  44  521.3146
  45  476.2497
  46  418.0151
  47  437.554
  48  437.2107
  49  438.0194
  50  491.0445
  51  538.1157
  52  489.2854
  53  463.2098
  54  502.0606
  55  529.5662
  56  477.4406
  57  465.1696
  58  422.885
  59  409.243
  60  379.7112
  61  336.7094
  62  526.0753
  63  540.0214
  64  556.2669
  65  364.5035
  66  313.9729
  67  428.4667
  68  530.0232
  69  509.6635
  70  453.14
  71  501.9442
  72  509.7988
  73  585.3336
  74  502.9167
  75  442.9564
  76  442.8321
  77  495.3124
  78  512.1321
  79  508.8972
  80  449.6464
  81  455.5193
  82  457.343
  83  409.2004
  84  364.4731
  85  353.1296
  86  420.8381
  87  335.2481
  88  337.0076
  89  396.8434
  90  507.8395
  91  424.6615
  92  391.9924
  93  458.2727
  94  452.3349
  95  456.4263
  96  440.3755
  97  470.0047
  98  537.85
  99  491.6248
 100  548.5825
 101  556.8461
 102  472.8925
 103  440.7426
 104  477.6445
 105  544.5419
 106  509.4919
 107  496.367
 108  553.0109
 109  570.6395
 110  466.1619
 111  481.4067
 112  480.6208
 113  559.4936
 114  593.2122
 115  553.6442
 116  512.1464
 117  435.5643
 118  440.0622
 119  507.5828
 120  458.9584
 121  445.9212
 122  440.1946
 123  507.6351
 124  523.3041
 125  506.2916
 126  476.2636
 127  496.7745
 128  433.3763
 129  486.901
 130  486.8185
 131  438.3597
 132  479.0844
 133  475.8233
 134  448.0306
 135  544.728
 136  530.0982
 137  456.1382
 138  463.1284
 139  565.9802
 140  465.0353
 141  462.0143
 142  470.6701
 143  455.1261
 144  394.7362
 145  394.8943
 146  397.6226
 147  291.7953
 148  416.2118
 149  463.3128
 150  479.9372
 151  446.0724
 152  369.7363
 153  383.0959
 154  393.2165
 155  450.512
 156  414.5754
 157  369.4307
 158  437.4277
 159  497.603
 160  473.9092
 161  435.4453
 162  465.1079
 163  400.7964
 164  305.2023
 165  398.916
 166  425.0554
 167  388.8098
 168  433.2791
 169  388.8264
 170  371.1985
 171  274.1437
 172  255.4177
 173  404.5569
 174  412.9246
 175  387.2282
 176  493.3084
 177  550.0238
 178  520.7933
 179  544.8498
 180  513.5037
 181  469.764
 182  397.6
 183  403.5756
 184  379.5628
 185  359.0276
 186  475.1332
 187  640.538
 188  608.0447
 189  400.4119
 190  415.9301
 191  456.2559
 192  403.3155
 193  441.9433
 194  432.4876
 195  497.933
 196  388.8528
 197  331.2593
 198  405.1093
 199  516.8782
 200  504.9037
 201  504.1138
 202  528.3528
 203  584.3046
 204  531.3889
 205  571.1771
 206  560.8503
 207  539.2157
 208  668.8649
 209  604.9378
 210  609.6979
 211  585.0132
 212  558.9481
 213  467.9218
 214  479.5271
 215  457.2874
 216  503.1588
 217  543.006
 218  440.7667
 219  426.248
 220  306.3734
 221  298.6002
 222  557.3554
 223  477.8778
 224  524.0011
 225  592.1603
 226  577.3378
 227  595.7695
 228  383.6915
 229  348.9896
 230  400.1218
 231  379.0952
 232  399.8316
 233  395.1839
 234  367.9063
 235  471.3182
 236  453.2719
 237  435.4547
 238  383.0929
 239  330.6739
 240  325.0584
 241  368.6931
 242  296.0478
 243  262.9458
 244  325.6364
 245  281.3142
 246  253.7002
 247  295.6838
 248  335.5451
 249  419.4283
 250  460.4398
 251  467.4877
 252  454.8376
 253  401.2888
 254  375.016
 255  482.5863
 256  489.8477
 257  445.2245
 258  380.043
 259  434.7597
 260  374.5378
 261  381.037
 262  428.7918
 263  385.151
 264  346.0151
 265  378.9396
 266  419.6492
 267  450.9583
 268  412.5694
 269  509.1667
 270  539.0468
 271  566.0804
 272  426.2755
 273  356.3275
 274  346.3025
 275  383.7434
 276  374.5785
 277  445.4785
 278  496.2936
 279  523.0639
 280  453.6271
 281  435.0046
 282  542.0687
 283  515.7474
 284  529.6437
 285  475.5489
 286  475.1532
 287  507.4073
 288  517.5714
 289  506.6622
 290  515.4518
 291  540.8656
 292  555.0651
 293  531.719
 294  537.7113
 295  505.8454
 296  510.3024
 297  495.1882
 298  503.1965
 299  456.4242
 300  357.5789
 301  416.5394
 302  354.5784
 303  427.1888
 304  452.72
 305  456.2631
 306  385.3493
 307  373.3437
 308  310.086
 309  348.8169
 310  382.2965
 311  369.2728
 312  263.5869
 313  357.2986
 314  420.991
 315  470.2009
 316  449.9368
 317  437.3954
 318  456.2534
 319  449.8409
 320  378.425
 321  371.7817
 322  381.5559
 323  474.4792
 324  428.381
 325  432.107
 326  396.6093
 327  381.1727
 328  426.4544
 329  372.2089
 330  339.6779
 331  213.8724
 332  264.0638
 333  368.3665
 334  458.1557
 335  469.4286
 336  402.4879
 337  360.7029
 338  340.7823
 339  395.8996
 340  442.0388
 341  401.7967
 342  364.9605
 343  333.9956
 344  345.0237
 345  333.4143
 346  286.4782
 347  404.787
 348  460.0439
 349  469.6696
 350  393.2575
 351  426.1671
 352  438.7137
 353  516.427
 354  488.6273
 355  476.3006
 356  421.3465
 357  454.0515
 358  449.4428
 359  457.2173
 360  375.6069
 361  362.7256
 362  309.4705
 363  383.8456
 364  479.4903
 365  545.0419
 366  537.7271
 367  490.3644
 368  384.8522
 369  261.1743
 370  355.5969
 371  410.5037
 372  399.5723
 373  401.526
 374  375.923
 375  400.1737
 376  340.0444
 377  310.0163
 378  308.748
 379  333.7961
 380  316.0647
 381  397.5249
 382  358.0305
 383  295.4384
 384  326.1024
 385  384.8282
 386  398.9649
 387  324.4328
 388  347.2176
 389  436.9977
 390  485.114
 391  464.8719
 392  379.1415
 393  336.1133
 394  384.3178
 395  378.8043
 396  310.394
 397  361.4033
 398  486.488
 399  501.899
 400  514.8904
 401  462.8047
 402  442.5632
 403  445.4059
 404  455.1818
 405  413.2244
 406  442.7286
 407  433.5259
 408  522.8304
 409  462.8206
 410  450.239
 411  431.9258
 412  400.8123
 413  387.9043
 414  397.5306
 415  350.7507
 416  482.4591
 417  453.3407
 418  426.4609
 419  501.3141
 420  566.2934
 421  487.6784
 422  524.173
 423  493.1404
 424  474.3343
 425  484.8202
 426  553.6143
 427  546.1805
 428  542.7246
 429  498.749
 430  549.5544
 431  428.1165
 432  514.6732
 433  535.953
 434  551.9551
 435  437.7753
 436  396.395
 437  542.7957
 438  626.8906
 439  496.335
 440  461.5059
 441  470.4267
 442  551.6829
 443  523.7925
 444  456.5037
 445  446.083
 446  423.1384
 447  499.4815
 448  469.5045
 449  461.577
 450  501.136
 451  503.7262
 452  457.2094
 453  472.7933
 454  485.2796
 455  524.8633
 456  514.1827
 457  434.1185
 458  448.1491
 459  474.1905
 460  431.6891
 461  444.8556
 462  451.6696
 463  429.7175
 464  353.5309
 465  350.2323
 466  402.8238
 467  316.2766
 468  386.6703
 469  466.139
 470  433.8674
 471  292.9485
 472  293.513
 473  250.1976
 474  297.9623
 475  327.506
 476  384.5106
 477  406.778
 478  359.0446
 479  409.9192
 480  455.1205
 481  422.8709
 482  411.9944
 483  427.2671
 484  411.3111
 485  405.7636
 486  457.2905
 487  426.7491
 488  429.9009
 489  432.4701
 490  351.1196
 491  431.8338
 492  438.8441
 493  421.3428
 494  385.8592
 495  411.6443
 496  497.008
 497  431.5313
 498  389.0547
 499  374.2967
 500  355.8039
 501  386.717
 502  498.6579
 503  503.357
 504  482.2781
 505  455.0808
 506  500.7357
 507  597.9319
 508  712.7532
 509  792.9229
 510  874.3757
 511  986.1996
