# Input file       =  1211427572.105833_cleaned.dat
# Candidate        =  PSR_0332+5434
# Telescope        =  AR
# Epoch_topo       =  58265.152674836034
# Epoch_bary       =  N/A
# T_sample         =  0.002
# Data Folded      =  7143424
# Data Avg         =  0.0359662818037342
# Data StdDev      =  1.00006443709752 
# Profile Bins     =  512
# Profile Avg      =  501.784388304934 
# Profile StdDev   =  118.126195700614 
# Reduced chi-sqr  =  1.453
# Prob(Noise)      <  8.1e-11   (~6.4 sigma)
# P_topo (ms)      =  714.521659956301  +/- 0.000258
# P'_topo (s/s)    =  -0                +/- 1.4e-10
# P''_topo (s/s^2) =  0                 +/- 6.35e-14
# P_bary (ms)      =  N/A
# P'_bary (s/s)    =  N/A
# P''_bary (s/s^2) =  N/A
# P_orb (s)        =  N/A
# asin(i)/c (s)    =  N/A
# eccentricity     =  N/A
# w (rad)          =  N/A
# T_peri           =  N/A
######################################################
   0  1193.349
   1  1176.691
   2  1074.14
   3  760.6628
   4  561.528
   5  418.2532
   6  503.2353
   7  588.6064
   8  525.3088
   9  471.3522
  10  454.9079
  11  442.71
  12  487.9751
  13  649.6016
  14  635.9927
  15  562.9805
  16  544.963
  17  596.7444
  18  658.9625
  19  587.2498
  20  366.8533
  21  422.4479
  22  595.8929
  23  596.2084
  24  482.1943
  25  479.053
  26  499.5576
  27  565.5801
  28  529.0132
  29  513.9225
  30  414.8216
  31  456.3318
  32  526.7298
  33  448.5965
  34  465.1126
  35  404.9032
  36  415.5069
  37  466.7348
  38  454.0709
  39  408.1653
  40  383.2992
  41  480.736
  42  607.177
  43  517.2604
  44  412.5418
  45  522.8082
  46  465.0361
  47  497.3985
  48  520.091
  49  489.6306
  50  406.9758
  51  487.015
  52  478.7786
  53  514.0837
  54  392.4441
  55  441.2304
  56  428.2221
  57  357.1783
  58  401.2966
  59  441.2492
  60  497.5134
  61  530.9818
  62  645.4688
  63  614.6302
  64  638.2527
  65  535.775
  66  408.2453
  67  393.0924
  68  384.1602
  69  407.6956
  70  384.5506
  71  392.5389
  72  349.2039
  73  394.3479
  74  396.5889
  75  264.8585
  76  505.1962
  77  599.3507
  78  501.49
  79  342.8604
  80  386.9258
  81  438.8989
  82  487.135
  83  495.3919
  84  504.3861
  85  475.1594
  86  400.8628
  87  336.4644
  88  481.831
  89  617.5435
  90  597.4916
  91  386.206
  92  468.2509
  93  455.5978
  94  423.3947
  95  408.6
  96  372.813
  97  379.1906
  98  464.6295
  99  549.4503
 100  504.3081
 101  435.4617
 102  418.6713
 103  267.867
 104  315.5592
 105  394.4415
 106  507.3447
 107  421.3256
 108  454.9749
 109  533.5338
 110  476.112
 111  426.0773
 112  480.4556
 113  415.6444
 114  394.5686
 115  504.7921
 116  446.0284
 117  484.1021
 118  494.787
 119  496.7344
 120  539.1539
 121  524.7265
 122  476.3439
 123  575.3477
 124  599.549
 125  531.5858
 126  428.748
 127  646.7748
 128  543.7129
 129  511.602
 130  534.652
 131  432.7563
 132  545.9539
 133  618.7156
 134  559.5855
 135  504.4502
 136  617.9955
 137  581.9933
 138  438.3794
 139  314.8834
 140  395.5083
 141  417.4028
 142  507.1705
 143  505.7179
 144  385.6548
 145  384.2679
 146  431.1284
 147  352.7662
 148  372.03
 149  558.4254
 150  589.1298
 151  492.9826
 152  527.1946
 153  440.1493
 154  535.426
 155  455.2417
 156  484.7875
 157  348.9763
 158  380.7328
 159  382.8022
 160  530.6628
 161  554.4067
 162  571.4811
 163  631.2838
 164  646.9844
 165  408.7383
 166  356.8557
 167  471.508
 168  467.1792
 169  481.2667
 170  543.8375
 171  612.7798
 172  502.2207
 173  457.5555
 174  393.9312
 175  356.5102
 176  365.9144
 177  473.2102
 178  442.126
 179  437.7569
 180  454.7272
 181  458.1759
 182  452.0213
 183  402.3975
 184  487.8353
 185  453.9269
 186  385.5663
 187  467.9718
 188  515.5261
 189  491.0714
 190  570.1051
 191  549.1714
 192  461.3521
 193  391.09
 194  330.5416
 195  446.3232
 196  423.6996
 197  448.6363
 198  472.1158
 199  404.6174
 200  475.8835
 201  555.8145
 202  586.3224
 203  516.6317
 204  528.9471
 205  480.8897
 206  422.949
 207  464.0927
 208  630.3104
 209  584.8319
 210  462.8651
 211  527.6081
 212  550.5374
 213  443.6126
 214  446.3254
 215  340.5874
 216  433.2331
 217  459.6461
 218  555.0387
 219  484.6627
 220  577.9274
 221  493.0328
 222  500.9108
 223  385.7279
 224  373.5141
 225  421.192
 226  546.9124
 227  615.2853
 228  516.6371
 229  453.4512
 230  460.7465
 231  419.0346
 232  412.3545
 233  401.6631
 234  385.5399
 235  403.3956
 236  496.6606
 237  583.6062
 238  383.3508
 239  352.3586
 240  276.6662
 241  303.7238
 242  370.7247
 243  509.1926
 244  535.2855
 245  395.1352
 246  444.1618
 247  513.5141
 248  454.1006
 249  379.0249
 250  393.652
 251  429.0499
 252  340.6299
 253  357.8386
 254  422.9207
 255  555.7718
 256  494.882
 257  468.2015
 258  482.4625
 259  398.0973
 260  505.2197
 261  403.8828
 262  376.3144
 263  385.0902
 264  479.6252
 265  384.7989
 266  423.0648
 267  453.5131
 268  487.9837
 269  461.7234
 270  435.6451
 271  477.9435
 272  363.8015
 273  472.4498
 274  393.8675
 275  470.9742
 276  541.5488
 277  450.7229
 278  529.9581
 279  605.4465
 280  518.4648
 281  568.736
 282  522.0756
 283  544.2885
 284  533.4297
 285  497.1954
 286  530.0148
 287  533.4869
 288  491.3183
 289  593.4687
 290  524.3219
 291  451.9504
 292  564.8882
 293  487.7749
 294  492.0896
 295  499.3152
 296  602.0974
 297  518.444
 298  338.7212
 299  417.1648
 300  563.2346
 301  555.6387
 302  532.1627
 303  499.2829
 304  603.5714
 305  629.5171
 306  471.4516
 307  454.2666
 308  482.9984
 309  486.3485
 310  632.7928
 311  673.7089
 312  679.6638
 313  561.176
 314  514.0919
 315  579.4604
 316  553.0007
 317  521.5489
 318  604.2001
 319  601.7046
 320  626.8687
 321  607.317
 322  551.0286
 323  547.7198
 324  485.6436
 325  500.2625
 326  535.3713
 327  553.5104
 328  675.7026
 329  612.8748
 330  525.9761
 331  515.9718
 332  540.4839
 333  537.0016
 334  517.7724
 335  524.5872
 336  621.8453
 337  612.8512
 338  646.293
 339  631.6001
 340  578.296
 341  558.5575
 342  492.4214
 343  571.2867
 344  535.302
 345  484.1376
 346  591.7675
 347  655.5654
 348  653.3469
 349  524.0206
 350  543.5433
 351  599.4888
 352  617.2215
 353  489.9113
 354  447.6542
 355  354.5974
 356  507.7908
 357  582.3343
 358  511.9203
 359  569.1105
 360  706.6303
 361  690.7172
 362  535.7518
 363  404.0525
 364  496.3598
 365  432.5928
 366  460.9246
 367  561.9687
 368  644.4574
 369  618.6481
 370  577.7343
 371  701.6948
 372  618.6999
 373  625.3665
 374  567.8725
 375  446.4919
 376  436.025
 377  478.1443
 378  637.9811
 379  541.7404
 380  474.5426
 381  519.2289
 382  595.5405
 383  569.4464
 384  552.0395
 385  480.4984
 386  536.8541
 387  561.926
 388  460.5834
 389  425.394
 390  446.8947
 391  545.6802
 392  625.1887
 393  613.0663
 394  650.8059
 395  554.0942
 396  507.6037
 397  404.9952
 398  408.1916
 399  637.7587
 400  658.5089
 401  649.8175
 402  597.9947
 403  451.3225
 404  367.0964
 405  431.4738
 406  463.9439
 407  530.1879
 408  494.8226
 409  465.4684
 410  443.1996
 411  521.7247
 412  546.5229
 413  501.1782
 414  504.479
 415  589.063
 416  476.0417
 417  454.2276
 418  449.6596
 419  617.5328
 420  576.486
 421  521.6641
 422  475.3358
 423  566.9637
 424  535.957
 425  490.5455
 426  510.8933
 427  482.1624
 428  356.4531
 429  419.1295
 430  504.7223
 431  501.774
 432  365.7499
 433  531.041
 434  488.9107
 435  365.7384
 436  512.4662
 437  448.5778
 438  438.9742
 439  482.1169
 440  446.8079
 441  406.6106
 442  361.8052
 443  413.0621
 444  494.125
 445  474.0402
 446  453.0275
 447  507.2703
 448  425.6794
 449  513.571
 450  675.3074
 451  563.3539
 452  597.4983
 453  569.0453
 454  548.522
 455  610.6351
 456  562.1099
 457  417.2137
 458  388.4214
 459  418.608
 460  468.132
 461  513.9058
 462  410.1776
 463  339.8621
 464  488.5816
 465  514.2361
 466  518.0528
 467  499.3707
 468  545.8534
 469  471.4439
 470  455.6004
 471  486.9155
 472  428.7853
 473  448.6704
 474  474.4176
 475  454.1635
 476  537.6902
 477  459.3525
 478  408.7881
 479  534.0085
 480  650.3143
 481  482.4442
 482  468.4062
 483  457.007
 484  402.9777
 485  482.4618
 486  480.2727
 487  524.9177
 488  541.999
 489  469.0217
 490  605.7289
 491  631.4202
 492  607.1624
 493  602.1037
 494  544.4301
 495  578.0822
 496  416.3876
 497  416.0832
 498  492.5167
 499  537.1934
 500  490.7129
 501  481.9014
 502  486.0613
 503  579.4338
 504  648.0468
 505  621.5981
 506  601.3239
 507  700.267
 508  693.2681
 509  780.2513
 510  946.1662
 511  1125.422
