# Input file       =  1211284752.109416-PSRB0329-2ms-sampling-dd.dat
# Candidate        =  PSR_0332+5434
# Telescope        =  AR
# Epoch_topo       =  58263.499665618241
# Epoch_bary       =  N/A
# T_sample         =  0.002
# Data Folded      =  7340032
# Data Avg         =  -7.70057776185374e-10
# Data StdDev      =  6.72597544942829 
# Profile Bins     =  512
# Profile Avg      =  -0.0956592314801237
# Profile StdDev   =  805.321463155634 
# Reduced chi-sqr  =  0.789
# Prob(Noise)      <  1   (~0.0 sigma)
# P_topo (ms)      =  714.523628414914  +/- 0.000233
# P'_topo (s/s)    =  -0                +/- 1.23e-10
# P''_topo (s/s^2) =  0                 +/- 5.43e-14
# P_bary (ms)      =  N/A
# P'_bary (s/s)    =  N/A
# P''_bary (s/s^2) =  N/A
# P_orb (s)        =  N/A
# asin(i)/c (s)    =  N/A
# eccentricity     =  N/A
# w (rad)          =  N/A
# T_peri           =  N/A
######################################################
   0  647.9048
   1  -115.2039
   2  -428.6713
   3  -704.32
   4  -298.4507
   5  552.4392
   6  1655.214
   7  1522.205
   8  1194.721
   9  825.2342
  10  765.063
  11  328.127
  12  310.3302
  13  1513.272
  14  1370.219
  15  949.636
  16  803.9185
  17  498.1062
  18  352.9186
  19  -87.26263
  20  167.0661
  21  315.7261
  22  435.6497
  23  516.989
  24  776.9921
  25  594.8116
  26  565.1443
  27  71.73135
  28  65.41026
  29  -122.9746
  30  -120.2663
  31  94.08074
  32  243.1055
  33  212.2276
  34  -236.7783
  35  -569.5098
  36  -192.136
  37  -17.44498
  38  391.9773
  39  748.7299
  40  645.7513
  41  -38.10928
  42  -567.2101
  43  -749.045
  44  -855.3774
  45  -505.7267
  46  114.6772
  47  446.4841
  48  351.0909
  49  -28.16507
  50  -136.0296
  51  227.8507
  52  -169.9596
  53  -35.84098
  54  -262.6212
  55  216.08
  56  578.6871
  57  372.2458
  58  331.3378
  59  -60.33902
  60  -210.7204
  61  -357.9489
  62  -443.0161
  63  248.0687
  64  689.0681
  65  258.1107
  66  -19.87327
  67  -96.94292
  68  209.1338
  69  341.8681
  70  -8.864015
  71  -142.2903
  72  -58.65887
  73  -128.201
  74  -289.5179
  75  61.05158
  76  60.4225
  77  40.90121
  78  -32.41234
  79  -13.46141
  80  169.4445
  81  31.9736
  82  92.11102
  83  -346.3762
  84  -267.5137
  85  63.87649
  86  8.707408
  87  -55.89106
  88  61.07423
  89  33.74505
  90  -27.33195
  91  -43.17448
  92  99.40182
  93  58.53306
  94  241.0549
  95  312.1487
  96  -458.2917
  97  -107.806
  98  235.1744
  99  -5.701206
 100  -100.314
 101  202.0826
 102  510.5983
 103  380.632
 104  24.919
 105  133.1769
 106  3.030407
 107  -91.57886
 108  -618.6637
 109  -693.0861
 110  -315.9946
 111  -378.3349
 112  -150.6907
 113  220.9534
 114  741.1702
 115  378.5819
 116  548.9587
 117  17.87642
 118  -408.2314
 119  -50.5059
 120  103.7669
 121  306.8281
 122  255.2649
 123  469.7038
 124  364.5179
 125  -444.306
 126  -547.5298
 127  -474.9985
 128  -281.5217
 129  -607.554
 130  -12.63153
 131  -78.2018
 132  37.34192
 133  -417.9227
 134  -567.7955
 135  -298.5901
 136  -368.0839
 137  -304.6776
 138  -387.7258
 139  -655.2693
 140  -903.8027
 141  -881.4907
 142  -395.9523
 143  -310.9923
 144  -206.8193
 145  -403.2972
 146  -566.0244
 147  -814.2687
 148  -680.6109
 149  -796.5029
 150  -788.3
 151  -402.0367
 152  -560.6823
 153  -165.2378
 154  -335.8015
 155  -610.2871
 156  -202.5328
 157  105.2084
 158  333.3168
 159  106.03
 160  482.7769
 161  247.4156
 162  510.5539
 163  747.0686
 164  384.5135
 165  -40.43988
 166  -676.7999
 167  -72.5036
 168  100.5245
 169  220.2128
 170  253.6252
 171  -109.6831
 172  85.16554
 173  67.75854
 174  181.698
 175  237.1904
 176  1026.35
 177  660.6376
 178  -132.8117
 179  -325.8661
 180  -89.25182
 181  -240.4334
 182  -260.768
 183  -48.66449
 184  -114.4465
 185  -763.9813
 186  -517.7275
 187  -143.2729
 188  398.253
 189  434.5546
 190  460.6405
 191  340.5372
 192  449.4348
 193  -257.9325
 194  -412.0253
 195  -218.9041
 196  138.8642
 197  758.7459
 198  1686.496
 199  2617.902
 200  2503.032
 201  2275.739
 202  1031.47
 203  1209.788
 204  1487.535
 205  1596.434
 206  1563.172
 207  915.7866
 208  504.436
 209  206.1966
 210  43.03041
 211  347.3661
 212  171.2489
 213  -110.1966
 214  -119.3268
 215  287.2063
 216  250.5621
 217  167.0042
 218  123.9047
 219  -294.5091
 220  -290.0311
 221  -66.49377
 222  -7.126406
 223  -109.0643
 224  223.389
 225  239.3182
 226  -157.9351
 227  -114.1291
 228  53.02526
 229  -48.12344
 230  -248.3397
 231  -518.7886
 232  -494.6605
 233  -330.2599
 234  -150.3748
 235  -253.4598
 236  -413.9069
 237  -394.0596
 238  -271.5372
 239  -376.2303
 240  -418.9021
 241  -513.653
 242  -96.69009
 243  -291.2835
 244  -362.7271
 245  -336.1703
 246  -433.9449
 247  -642.7339
 248  -286.603
 249  342.473
 250  363.0859
 251  -281.0717
 252  -289.3896
 253  -15.79077
 254  71.08479
 255  25.32163
 256  30.90035
 257  199.4017
 258  464.2191
 259  307.916
 260  -282.4022
 261  -31.86968
 262  472.5936
 263  251.2047
 264  585.8026
 265  99.20576
 266  149.429
 267  -452.3031
 268  -571.7148
 269  -369.7758
 270  -10.29513
 271  141.9537
 272  81.32746
 273  -262.0114
 274  -234.3273
 275  -554.2918
 276  -801.2187
 277  -827.0239
 278  -421.7339
 279  -239.7027
 280  -402.9732
 281  -706.491
 282  -1060.231
 283  -640.6771
 284  -167.3721
 285  96.40626
 286  -54.21189
 287  -136.8572
 288  -844.3238
 289  -1280.539
 290  -654.2309
 291  -743.3887
 292  -706.261
 293  -719.0844
 294  -286.5362
 295  -401.9136
 296  -686.213
 297  -788.3978
 298  -527.5734
 299  -1044.099
 300  -684.5486
 301  -711.9331
 302  -338.964
 303  -118.2521
 304  196.8615
 305  19.4119
 306  -248.2596
 307  -341.2822
 308  -663.0944
 309  -736.1204
 310  -545.5432
 311  -1006.323
 312  -635.8325
 313  -286.6432
 314  -247.8995
 315  -13.27843
 316  -63.05639
 317  -358.9872
 318  -560.4319
 319  -18.37003
 320  -103.1025
 321  -297.1538
 322  299.7877
 323  414.2385
 324  19.89565
 325  63.57788
 326  -87.88387
 327  33.48736
 328  307.8096
 329  153.6911
 330  510.2072
 331  514.4119
 332  738.7261
 333  299.9064
 334  -278.7474
 335  -504.5232
 336  -282.7975
 337  -230.2451
 338  -153.1742
 339  211.2594
 340  476.2158
 341  191.5313
 342  -204.5237
 343  -549.8181
 344  -277.0341
 345  1.845323
 346  325.7314
 347  48.72169
 348  -282.2331
 349  -57.31145
 350  -298.2746
 351  -503.7639
 352  -511.7697
 353  -23.51515
 354  -184.4589
 355  -249.3083
 356  -376.9668
 357  -90.03314
 358  -90.94195
 359  186.3885
 360  294.9014
 361  145.0141
 362  362.2871
 363  407.7751
 364  682.8315
 365  735.4998
 366  749.8708
 367  433.9555
 368  377.4398
 369  735.1129
 370  429.2033
 371  162.3727
 372  86.1161
 373  -57.79973
 374  -237.5814
 375  -63.96842
 376  189.5143
 377  -68.75238
 378  42.44928
 379  319.008
 380  514.6442
 381  273.7219
 382  116.0854
 383  9.466721
 384  -293.9276
 385  -170.9115
 386  131.4432
 387  455.6837
 388  569.7997
 389  70.85268
 390  -302.318
 391  -141.4245
 392  -497.117
 393  -116.907
 394  109.2597
 395  28.99555
 396  -191.7192
 397  -90.76283
 398  -262.1057
 399  -553.3485
 400  -442.8007
 401  -487.9139
 402  -359.1147
 403  -365.2573
 404  -98.59444
 405  -180.0849
 406  -364.5472
 407  -535.9106
 408  -1030.608
 409  -448.3004
 410  -33.24776
 411  216.2373
 412  -248.8194
 413  -559.6184
 414  -332.8046
 415  -399.5544
 416  -336.278
 417  -650.7298
 418  -960.0221
 419  -651.6227
 420  -181.3982
 421  122.6709
 422  104.2741
 423  -156.9224
 424  -542.8106
 425  -539.1918
 426  -212.7283
 427  162.899
 428  241.0934
 429  460.6205
 430  224.7352
 431  -207.8299
 432  -395.6545
 433  -569.8632
 434  -414.0401
 435  -153.4602
 436  110.306
 437  -142.2486
 438  -271.6935
 439  89.70599
 440  -109.5479
 441  49.39151
 442  118.3958
 443  -55.04157
 444  -262.1255
 445  -401.9068
 446  -366.7586
 447  -69.82965
 448  46.65086
 449  -16.44751
 450  -475.848
 451  -641.075
 452  -927.191
 453  -659.2664
 454  -11.82314
 455  157.7011
 456  -560.4669
 457  -1025.368
 458  -664.1407
 459  -630.5836
 460  -443.717
 461  -289.6524
 462  -160.2695
 463  -376.1785
 464  -266.2668
 465  420.5135
 466  371.8046
 467  113.7536
 468  827.8449
 469  1726.481
 470  1993.204
 471  1120.221
 472  839.9508
 473  45.99521
 474  616.0622
 475  506.9263
 476  1270.211
 477  1421.323
 478  1047.729
 479  118.7275
 480  140.882
 481  160.8796
 482  -123.7995
 483  -549.5961
 484  -326.9467
 485  82.70362
 486  -435.3472
 487  -390.9701
 488  -323.6305
 489  -249.7216
 490  149.7992
 491  467.9403
 492  106.1004
 493  -8.528425
 494  -270.7413
 495  -84.2757
 496  723.0896
 497  851.2685
 498  603.165
 499  263.6278
 500  246.9602
 501  29.19517
 502  205.2606
 503  619.2084
 504  198.907
 505  -448.91
 506  22.99404
 507  -111.0621
 508  -107.6021
 509  252.479
 510  818.6884
 511  1460.266
