# Input file       =  1211341354.116035_cleaned.dat
# Candidate        =  PSR_0332+5434
# Telescope        =  AR
# Epoch_topo       =  58264.154781435587
# Epoch_bary       =  N/A
# T_sample         =  0.002
# Data Folded      =  7208960
# Data Avg         =  0.0278895467898245
# Data StdDev      =  1.00003140075443 
# Profile Bins     =  512
# Profile Avg      =  392.668442531527 
# Profile StdDev   =  118.66290178117  
# Reduced chi-sqr  =  1.583
# Prob(Noise)      <  8.11e-16   (~8.0 sigma)
# P_topo (ms)      =  714.522637644967  +/- 0.000244
# P'_topo (s/s)    =  -0                +/- 1.31e-10
# P''_topo (s/s^2) =  0                 +/- 5.89e-14
# P_bary (ms)      =  N/A
# P'_bary (s/s)    =  N/A
# P''_bary (s/s^2) =  N/A
# P_orb (s)        =  N/A
# asin(i)/c (s)    =  N/A
# eccentricity     =  N/A
# w (rad)          =  N/A
# T_peri           =  N/A
######################################################
   0  1119.781
   1  1105.796
   2  985.7183
   3  593.7644
   4  451.1468
   5  359.6069
   6  276.2744
   7  474.7339
   8  459.321
   9  365.2069
  10  377.1665
  11  358.9875
  12  377.5237
  13  415.8413
  14  453.3849
  15  470.8641
  16  423.8985
  17  372.235
  18  465.3143
  19  562.573
  20  395.7155
  21  290.1499
  22  405.7262
  23  413.4695
  24  486.5641
  25  432.489
  26  377.8201
  27  197.573
  28  268.1053
  29  226.4118
  30  282.9421
  31  323.7676
  32  340.5535
  33  361.2815
  34  396.0745
  35  310.5792
  36  382.5741
  37  270.4793
  38  310.1487
  39  385.3632
  40  415.1908
  41  373.6315
  42  297.7236
  43  347.4032
  44  186.2471
  45  207.0515
  46  369.5146
  47  325.6019
  48  357.1366
  49  292.8937
  50  270.8342
  51  266.7342
  52  251.6065
  53  310.7361
  54  350.1075
  55  262.2263
  56  400.0829
  57  428.3016
  58  327.077
  59  323.6707
  60  324.0098
  61  422.1065
  62  296.4157
  63  386.3043
  64  540.6593
  65  357.0261
  66  234.9436
  67  299.6004
  68  328.3835
  69  299.8473
  70  209.6522
  71  234.0226
  72  219.3313
  73  301.9535
  74  374.275
  75  343.6164
  76  296.1132
  77  260.5236
  78  219.1611
  79  205.0609
  80  112.4907
  81  195.7368
  82  326.7193
  83  356.0392
  84  379.265
  85  323.3257
  86  294.8557
  87  306.2397
  88  328.7342
  89  395.9851
  90  329.7545
  91  298.399
  92  400.137
  93  295.7625
  94  352.741
  95  455.9838
  96  414.9743
  97  394.8586
  98  239.4914
  99  216.1254
 100  337.5686
 101  272.9105
 102  303.3495
 103  241.2186
 104  360.8295
 105  375.9662
 106  396.6006
 107  342.9905
 108  206.4838
 109  282.465
 110  449.5225
 111  448.6053
 112  387.0288
 113  517.1715
 114  480.5609
 115  367.871
 116  413.9409
 117  403.7374
 118  314.0778
 119  378.9297
 120  322.5494
 121  472.388
 122  426.7139
 123  369.4369
 124  442.8929
 125  488.3596
 126  426.9442
 127  344.0493
 128  306.5669
 129  425.8325
 130  417.0113
 131  397.9644
 132  592.5562
 133  652.305
 134  497.9171
 135  522.2938
 136  410.6619
 137  470.176
 138  528.0181
 139  412.4205
 140  311.4286
 141  286.9245
 142  224.5945
 143  392.9319
 144  434.0775
 145  272.5663
 146  425.27
 147  516.6987
 148  485.6429
 149  556.6498
 150  466.5141
 151  377.6699
 152  357.7718
 153  412.5907
 154  452.6906
 155  456.0453
 156  436.9375
 157  374.9646
 158  375.8073
 159  500.9309
 160  464.7196
 161  429.5775
 162  423.7668
 163  317.6541
 164  354.3739
 165  491.4399
 166  391.3796
 167  359.2151
 168  430.6762
 169  424.8774
 170  372.0254
 171  343.1356
 172  405.849
 173  464.7421
 174  402.5967
 175  283.6464
 176  240.9918
 177  290.0342
 178  360.3831
 179  538.6299
 180  476.796
 181  408.9765
 182  440.9101
 183  322.0676
 184  379.4091
 185  436.5228
 186  302.7513
 187  246.3731
 188  364.8178
 189  362.0666
 190  238.7717
 191  335.8312
 192  400.1905
 193  468.8702
 194  447.2639
 195  397.6626
 196  340.6424
 197  330.9382
 198  383.9881
 199  326.3804
 200  382.7596
 201  405.1664
 202  359.0203
 203  359.3114
 204  299.9273
 205  356.3672
 206  434.1521
 207  469.7791
 208  376.3282
 209  273.5425
 210  371.7631
 211  362.2509
 212  404.9603
 213  442.1801
 214  431.8324
 215  446.7499
 216  430.8319
 217  413.115
 218  276.9897
 219  258.3029
 220  262.4357
 221  302.8734
 222  388.9421
 223  332.4029
 224  352.9326
 225  406.0143
 226  457.3199
 227  519.0079
 228  280.7532
 229  246.1097
 230  343.6537
 231  451.7397
 232  507.4846
 233  384.494
 234  377.5209
 235  367.2664
 236  371.5523
 237  335.3578
 238  270.5092
 239  403.4937
 240  495.2865
 241  485.7248
 242  505.1076
 243  479.7273
 244  331.3327
 245  476.6605
 246  497.7204
 247  515.5987
 248  386.4547
 249  324.271
 250  354.3467
 251  454.6831
 252  372.5561
 253  323.2077
 254  454.9509
 255  481.2584
 256  495.5667
 257  496.0608
 258  488.3541
 259  528.1937
 260  459.7633
 261  396.9966
 262  460.5925
 263  537.5322
 264  538.324
 265  553.5107
 266  435.0253
 267  340.7924
 268  457.4823
 269  571.1186
 270  445.3047
 271  341.9575
 272  425.2864
 273  365.5081
 274  284.7274
 275  521.9285
 276  497.7468
 277  355.0291
 278  474.1718
 279  388.777
 280  369.2644
 281  385.8863
 282  348.9377
 283  355.4045
 284  492.0411
 285  515.7452
 286  489.1559
 287  468.3525
 288  516.2131
 289  436.6939
 290  447.0388
 291  493.6297
 292  487.104
 293  485.3951
 294  470.9707
 295  405.4509
 296  530.9636
 297  521.448
 298  518.6359
 299  445.0181
 300  594.0231
 301  595.6223
 302  458.7593
 303  545.1031
 304  573.6782
 305  399.0716
 306  319.344
 307  393.2218
 308  403.9152
 309  306.4705
 310  227.7634
 311  408.9184
 312  472.3734
 313  481.4561
 314  330.6753
 315  330.6461
 316  272.8733
 317  311.9477
 318  388.2203
 319  390.1537
 320  460.8764
 321  373.5828
 322  379.8224
 323  380.5289
 324  403.0447
 325  401.5421
 326  409.3782
 327  445.4254
 328  509.6093
 329  413.5476
 330  393.7083
 331  373.9832
 332  370.7518
 333  317.7793
 334  423.5354
 335  341.2985
 336  304.9007
 337  491.4682
 338  644.4662
 339  590.3877
 340  407.6205
 341  401.6087
 342  350.1584
 343  382.1128
 344  537.1751
 345  534.7957
 346  474.0048
 347  439.8823
 348  338.5721
 349  415.0994
 350  483.1552
 351  526.5172
 352  419.8906
 353  337.1532
 354  355.3921
 355  329.7536
 356  397.9267
 357  386.6432
 358  439.6423
 359  427.6459
 360  353.0919
 361  342.8818
 362  274.8366
 363  246.5381
 364  223.6457
 365  257.0501
 366  303.8517
 367  438.7002
 368  532.6475
 369  491.7016
 370  424.7184
 371  337.4294
 372  298.1038
 373  391.6126
 374  370.9122
 375  389.5344
 376  315.4997
 377  278.0387
 378  428.6594
 379  473.5839
 380  371.8646
 381  258.737
 382  377.2682
 383  417.4297
 384  345.8767
 385  425.709
 386  424.8039
 387  336.3976
 388  385.3465
 389  397.2331
 390  322.2317
 391  362.9496
 392  449.4157
 393  459.6816
 394  442.763
 395  447.3961
 396  405.3381
 397  383.3009
 398  493.2854
 399  342.673
 400  381.191
 401  338.1869
 402  474.2668
 403  484.2101
 404  506.3607
 405  503.9122
 406  520.3956
 407  392.0683
 408  235.8958
 409  363.4984
 410  322.5056
 411  338.2351
 412  472.2722
 413  592.3424
 414  456.315
 415  381.0243
 416  308.3992
 417  310.7893
 418  266.1288
 419  272.9584
 420  340.5697
 421  375.1485
 422  302.466
 423  398.9378
 424  440.7107
 425  420.2845
 426  468.4501
 427  525.9589
 428  380.1895
 429  296.4319
 430  385.6034
 431  394.977
 432  369.4496
 433  322.4986
 434  430.8275
 435  316.5261
 436  298.9053
 437  322.5622
 438  352.811
 439  417.3741
 440  460.1699
 441  353.9055
 442  355.7637
 443  348.2353
 444  406.9531
 445  407.6252
 446  254.0744
 447  181.6197
 448  242.8687
 449  321.765
 450  328.7182
 451  322.9695
 452  330.1315
 453  470.5122
 454  297.8872
 455  297.1168
 456  380.0657
 457  359.1492
 458  359.2335
 459  314.3976
 460  460.3422
 461  384.4798
 462  297.3988
 463  232.2797
 464  273.8333
 465  349.0569
 466  392.374
 467  195.1956
 468  290.8036
 469  462.7227
 470  467.2706
 471  395.0889
 472  385.7612
 473  436.5475
 474  404.3654
 475  311.6423
 476  248.6266
 477  437.5108
 478  453.0024
 479  374.6281
 480  239.0345
 481  263.7244
 482  384.906
 483  263.8739
 484  350.5638
 485  428.5034
 486  413.8352
 487  358.8222
 488  199.6475
 489  312.1381
 490  437.2224
 491  448.7943
 492  448.2082
 493  489.5161
 494  480.2243
 495  533.4011
 496  393.5296
 497  376.01
 498  234.172
 499  106.5512
 500  269.6239
 501  385.8938
 502  401.3232
 503  416.5829
 504  368.1683
 505  473.4086
 506  569.1399
 507  592.3116
 508  616.244
 509  657.0288
 510  865.778
 511  1009.924
