# Input file       =  1211269825.111266_cleaned.dat
# Candidate        =  PSR_0332+5434
# Telescope        =  AR
# Epoch_topo       =  58263.326899435946
# Epoch_bary       =  N/A
# T_sample         =  0.002
# Data Folded      =  7340032
# Data Avg         =  0.243955645214424
# Data StdDev      =  6.67926414201603 
# Profile Bins     =  512
# Profile Avg      =  3496.79813228261 
# Profile StdDev   =  799.728576486035 
# Reduced chi-sqr  =  0.923
# Prob(Noise)      <  0.894   (~0.0 sigma)
# P_topo (ms)      =  714.523462645219  +/- 0.000294
# P'_topo (s/s)    =  -0                +/- 1.55e-10
# P''_topo (s/s^2) =  0                 +/- 6.86e-14
# P_bary (ms)      =  N/A
# P'_bary (s/s)    =  N/A
# P''_bary (s/s^2) =  N/A
# P_orb (s)        =  N/A
# asin(i)/c (s)    =  N/A
# eccentricity     =  N/A
# w (rad)          =  N/A
# T_peri           =  N/A
######################################################
   0  3164.255
   1  4148.773
   2  3977.825
   3  3917.279
   4  3688.195
   5  3593.944
   6  2903.221
   7  2852.407
   8  2851.528
   9  2559.431
  10  3170.329
  11  2779.714
  12  2966.207
  13  2933.516
  14  3504.104
  15  3167.259
  16  3070.964
  17  2910.611
  18  2911.359
  19  2664.6
  20  2781.06
  21  2982.432
  22  2854.72
  23  2681.05
  24  2826.268
  25  2990.011
  26  3221.135
  27  3036.083
  28  3286.248
  29  3694.172
  30  3480.332
  31  3855.89
  32  2944.566
  33  3156.312
  34  3145.047
  35  3083.947
  36  3480.606
  37  3871.216
  38  3823.737
  39  3556.345
  40  3482.876
  41  3320.075
  42  3374.748
  43  3730.118
  44  3687.056
  45  3303.976
  46  4285.234
  47  3939.915
  48  3997.455
  49  4286.408
  50  3854.112
  51  3602.878
  52  3431.866
  53  3182.617
  54  3421.189
  55  3623.128
  56  2932.629
  57  2936.464
  58  2584.653
  59  2858.794
  60  2810.125
  61  3286.643
  62  2819.487
  63  3322.397
  64  3566.264
  65  3434.924
  66  3481.006
  67  3659.771
  68  3185.392
  69  3601.278
  70  4425.724
  71  4189.572
  72  3881.373
  73  3379.104
  74  3283.121
  75  3040.442
  76  3274.202
  77  3695.611
  78  4126.977
  79  3955.698
  80  3464.604
  81  3376.18
  82  3492.43
  83  3706.872
  84  3105.127
  85  3153.842
  86  3635.716
  87  3616.415
  88  4408.249
  89  4101.576
  90  3716.576
  91  3541.251
  92  3258.073
  93  3058.241
  94  3409.705
  95  3837.905
  96  4446.628
  97  4148.512
  98  3875.566
  99  3765.978
 100  3711.33
 101  3682.063
 102  3504.007
 103  3566.033
 104  3101.127
 105  3578.728
 106  3920.038
 107  3518.898
 108  3651.64
 109  4345.958
 110  3771.805
 111  3541.486
 112  3727.259
 113  3686.361
 114  3618.088
 115  3498.889
 116  4609.96
 117  5151.146
 118  5222.509
 119  5144.592
 120  5555.514
 121  5177.858
 122  4563.866
 123  4078.318
 124  3629.993
 125  3452.52
 126  4252.92
 127  3973.662
 128  3473.348
 129  3207.105
 130  3139.939
 131  2395.596
 132  2533.483
 133  3463.791
 134  3514.286
 135  2887.435
 136  2696.386
 137  3676.44
 138  4405.891
 139  4561.701
 140  4411.318
 141  3949.583
 142  3578.307
 143  4034.271
 144  4049.381
 145  3277.951
 146  2972.525
 147  3522.444
 148  3245.569
 149  2779.991
 150  3449.183
 151  3401.865
 152  3375.346
 153  3324.812
 154  3050.899
 155  3107.229
 156  3240.583
 157  2914.762
 158  3190.154
 159  2970.319
 160  2993.1
 161  3077.693
 162  3527.883
 163  3517.929
 164  3531.024
 165  3259.62
 166  3229.069
 167  3228.148
 168  3397.718
 169  3932.94
 170  3594.765
 171  2741.491
 172  3304.416
 173  3342.671
 174  3559.726
 175  3931.633
 176  3844.009
 177  3575.996
 178  3493.873
 179  3394.924
 180  3474.31
 181  3589.662
 182  3503.486
 183  3577.976
 184  3133.171
 185  3429.658
 186  3680.112
 187  3703.61
 188  3470.074
 189  3594.366
 190  4033.613
 191  4450.147
 192  4400.458
 193  4798.815
 194  4759.216
 195  4241.393
 196  3732.04
 197  4035.686
 198  4699.729
 199  4704.829
 200  4430.063
 201  4725.262
 202  4135.903
 203  3912.144
 204  4710.812
 205  4692.374
 206  4853.613
 207  4441.186
 208  4076.087
 209  4139.517
 210  4629.893
 211  5017.66
 212  4387.392
 213  4149.019
 214  3839.758
 215  4047.331
 216  4106.121
 217  4495.021
 218  4773.314
 219  4685.242
 220  4557.574
 221  4636.059
 222  3992.166
 223  3628.97
 224  3858.401
 225  4570.308
 226  4323.242
 227  4282.349
 228  4465.16
 229  3979.992
 230  3657.465
 231  3966.543
 232  4061.517
 233  3473.84
 234  3628.778
 235  4115.373
 236  4135.736
 237  4451.169
 238  4173.834
 239  4329.181
 240  3962.917
 241  3527.042
 242  3430.221
 243  3779.817
 244  3913.133
 245  3886.784
 246  3785.544
 247  4305.86
 248  4649.534
 249  4572.38
 250  4372.812
 251  3647.15
 252  3203.356
 253  3497.755
 254  3904.492
 255  3647.696
 256  4206.381
 257  4078.84
 258  4041.737
 259  4125.127
 260  3673.699
 261  3753.868
 262  3941.875
 263  3309.817
 264  3302.86
 265  3396.973
 266  3378.251
 267  3659.099
 268  3292.621
 269  3697.401
 270  2969.791
 271  3096.944
 272  3479.255
 273  3897.82
 274  3331.195
 275  3802.549
 276  3617.679
 277  4014.029
 278  4489.247
 279  4569.849
 280  4088.765
 281  3993
 282  3345.224
 283  3054.962
 284  3480.914
 285  3572.307
 286  3120.161
 287  2922.528
 288  2209.777
 289  2356.46
 290  3150.187
 291  3838.598
 292  4188.22
 293  3745.362
 294  2651.571
 295  2223.529
 296  3028.158
 297  4101.682
 298  4075.87
 299  3249.734
 300  3769.332
 301  3724.713
 302  3631.671
 303  3615.142
 304  4125.794
 305  4295.599
 306  3725.055
 307  3663.708
 308  3597.949
 309  3770.884
 310  3409.151
 311  3505.279
 312  2998.366
 313  3159.989
 314  2860.053
 315  3251.341
 316  3444.647
 317  2801.042
 318  2760.492
 319  3015.222
 320  3365.857
 321  3170.115
 322  3236.616
 323  2573.261
 324  3165.588
 325  3074.135
 326  3004.691
 327  2622.401
 328  2781.956
 329  3542.892
 330  3538.838
 331  3193.926
 332  3061.065
 333  2966.475
 334  2738.555
 335  2656.92
 336  2955.576
 337  2597.684
 338  3264.471
 339  3661.875
 340  4032.291
 341  3820.925
 342  4099.875
 343  3714.256
 344  3543.371
 345  3236.868
 346  3693.966
 347  2862.444
 348  3287.306
 349  3791.726
 350  3519.783
 351  3463.924
 352  3244.067
 353  3174.826
 354  2974.305
 355  2476.862
 356  2901.71
 357  3579.579
 358  3006.268
 359  3425.42
 360  3905.627
 361  3281.325
 362  2734.594
 363  3577.313
 364  3094.629
 365  3068.403
 366  2996.393
 367  3572.964
 368  3485.999
 369  3172.03
 370  2560.999
 371  3039.472
 372  2932.187
 373  2735.834
 374  3147.74
 375  2944.566
 376  2929.885
 377  3353.195
 378  3493.656
 379  3204.792
 380  3237.067
 381  3087.992
 382  2833.016
 383  3547.209
 384  3492.695
 385  2626.064
 386  2830.121
 387  3033.453
 388  3145.885
 389  3010.51
 390  3015.745
 391  3102.32
 392  3056.809
 393  2540.043
 394  2704.119
 395  3290.042
 396  2849.86
 397  3341.638
 398  3238.016
 399  2889.467
 400  2545.313
 401  3042.064
 402  3125.507
 403  2863.611
 404  3013.629
 405  3379.758
 406  3356.615
 407  3062.857
 408  3147.538
 409  3484.378
 410  3468.628
 411  3142.928
 412  3528.415
 413  3364.408
 414  2673.652
 415  2045.765
 416  2686.799
 417  3672.838
 418  4034.667
 419  4213.523
 420  3749.402
 421  2416.455
 422  2959.128
 423  3088.042
 424  3239.415
 425  2907.548
 426  2708.785
 427  2797.353
 428  3114.426
 429  3004.947
 430  3153.945
 431  3008.052
 432  2673.793
 433  2351.734
 434  2708.632
 435  3482.623
 436  3564.356
 437  2875.397
 438  2405.086
 439  3200.864
 440  3596.771
 441  3429.701
 442  3500.012
 443  2895.787
 444  2792.203
 445  2220.229
 446  2513.004
 447  3231.741
 448  3474.862
 449  3640.849
 450  3513.657
 451  3081.174
 452  3086.603
 453  3119.784
 454  3389.847
 455  3318.352
 456  3074.674
 457  3123.597
 458  3648.958
 459  2965.622
 460  3544.114
 461  3396.007
 462  2323.154
 463  2913.402
 464  3768.723
 465  3844.721
 466  3503.451
 467  2964.229
 468  3375.053
 469  3709.495
 470  3784.628
 471  3974.255
 472  3430.722
 473  3122.064
 474  3405.902
 475  3063.235
 476  3625.231
 477  3684.392
 478  3450.73
 479  3372.611
 480  3420.201
 481  2844.816
 482  3366.498
 483  3853.749
 484  3381.785
 485  3463.254
 486  4033.256
 487  4165.353
 488  3594.054
 489  3939.811
 490  3874.698
 491  3347.989
 492  3766.98
 493  3372.793
 494  3457.322
 495  3136.618
 496  2899.269
 497  2797.398
 498  3367.832
 499  3917.939
 500  3802.284
 501  3358.359
 502  2802.374
 503  3413.379
 504  3904.082
 505  4038.358
 506  4342
 507  4421.557
 508  3861.925
 509  3631.322
 510  3400.143
 511  3458.395
