# Input file       =  1211199245.104786_cleaned.dat
# Candidate        =  PSR_0332+5434
# Telescope        =  AR
# Epoch_topo       =  58262.510001212802
# Epoch_bary       =  N/A
# T_sample         =  0.002
# Data Folded      =  7340032
# Data Avg         =  0.185625874616172
# Data StdDev      =  4.54442441838108 
# Profile Bins     =  512
# Profile Avg      =  2661.12260151891 
# Profile StdDev   =  544.117734197485 
# Reduced chi-sqr  =  0.746
# Prob(Noise)      <  1   (~0.0 sigma)
# P_topo (ms)      =  714.524616045974  +/- 0.00105
# P'_topo (s/s)    =  -0                +/- 5.53e-10
# P''_topo (s/s^2) =  0                 +/- 2.44e-13
# P_bary (ms)      =  N/A
# P'_bary (s/s)    =  N/A
# P''_bary (s/s^2) =  N/A
# P_orb (s)        =  N/A
# asin(i)/c (s)    =  N/A
# eccentricity     =  N/A
# w (rad)          =  N/A
# T_peri           =  N/A
######################################################
   0  2832.885
   1  2789.346
   2  2986.052
   3  3202.186
   4  3112.253
   5  3093.936
   6  2869.369
   7  3156.467
   8  3156.103
   9  2784.262
  10  2800.396
  11  2817.091
  12  2539.123
  13  3044.098
  14  3501.353
  15  3249.04
  16  3170.353
  17  2785.484
  18  2445.355
  19  2512.387
  20  2384.517
  21  2674.323
  22  2720.673
  23  2457.939
  24  2365.006
  25  2146.231
  26  2191.753
  27  2475.849
  28  2921.888
  29  2821.318
  30  2816.621
  31  2581.526
  32  2873.623
  33  2609.608
  34  2877.589
  35  2944.96
  36  3052.887
  37  2947.529
  38  2725.249
  39  2969.51
  40  2917.7
  41  2875.784
  42  2736.98
  43  2484.52
  44  2395.157
  45  2950.673
  46  3043.807
  47  3282.094
  48  3148.423
  49  2881.768
  50  2644.946
  51  2617.008
  52  2539.625
  53  2444.045
  54  2674.69
  55  2763.883
  56  2800.88
  57  2588.681
  58  2452.118
  59  2751.747
  60  2865.976
  61  2935.679
  62  3097.226
  63  2674.863
  64  2519.325
  65  2580.121
  66  2445.086
  67  2387.424
  68  2278.749
  69  2375.703
  70  2712.181
  71  2724.968
  72  2712.013
  73  2619.481
  74  2780.245
  75  2832.119
  76  2802.019
  77  2650.349
  78  2880.792
  79  2839.464
  80  2802.028
  81  2931.18
  82  2620.315
  83  2866.678
  84  2636.321
  85  2256.93
  86  2602.638
  87  3088.783
  88  3137.135
  89  3160.974
  90  2945.456
  91  2810.115
  92  2259.992
  93  1926.287
  94  2027.719
  95  2191.968
  96  2517.216
  97  2674.193
  98  2765.339
  99  2864.06
 100  2709.897
 101  2473.115
 102  2527.143
 103  2344.898
 104  2306.466
 105  2701.207
 106  2736.107
 107  2780.061
 108  2814.423
 109  2791.369
 110  2668.682
 111  2832.055
 112  3167.651
 113  3180.438
 114  2854.809
 115  2846.562
 116  2796.218
 117  2818.06
 118  2580.657
 119  2788.675
 120  2897.101
 121  2918.591
 122  3029.853
 123  2781.052
 124  2277.757
 125  2250.396
 126  2506.622
 127  2618.626
 128  2702.832
 129  2654.752
 130  2697.884
 131  2833.49
 132  3010.554
 133  3134.519
 134  2802.148
 135  2850.13
 136  2767.147
 137  2234.28
 138  2140.05
 139  2351.576
 140  2320.957
 141  2479.958
 142  2713.018
 143  2552.513
 144  2680.683
 145  2871.213
 146  2809.47
 147  2903.535
 148  2631.341
 149  2709.52
 150  2880.519
 151  2657.589
 152  2766.238
 153  2930.338
 154  2617.51
 155  2670.727
 156  2871.398
 157  2637.095
 158  2603.469
 159  2622.753
 160  2858.769
 161  3031.734
 162  2998.258
 163  3323.49
 164  3157.171
 165  3182.143
 166  3153.048
 167  2912.776
 168  3361.188
 169  3239.691
 170  3024.557
 171  2796.363
 172  2663.627
 173  2923.278
 174  2929.288
 175  2787.729
 176  2692.944
 177  2666.219
 178  2774.875
 179  2563.082
 180  2729.907
 181  3401.651
 182  3210.895
 183  3093.578
 184  2836.622
 185  2877.135
 186  2593.754
 187  2570.445
 188  2720.92
 189  2952.906
 190  3044.323
 191  3087.709
 192  2892.044
 193  2725.816
 194  2677.75
 195  2604.39
 196  2456.451
 197  2417.736
 198  2545.478
 199  2291.592
 200  2518.842
 201  2606.368
 202  2670.658
 203  2382.309
 204  2133.55
 205  2944.19
 206  2585.04
 207  2399.788
 208  2746.45
 209  2754.59
 210  2470.277
 211  2856.68
 212  2995.858
 213  2546.941
 214  2674.577
 215  2817.533
 216  2591.72
 217  2550.088
 218  2812.278
 219  2754.219
 220  2736.958
 221  3196.437
 222  3105.887
 223  2794.915
 224  2903.568
 225  3027.645
 226  2708.398
 227  2733.616
 228  2725.067
 229  2607.711
 230  2713.197
 231  2457.826
 232  2312.653
 233  2244.6
 234  2436.626
 235  2448.033
 236  2668.69
 237  2581.688
 238  2595.882
 239  2443.74
 240  2444.49
 241  2242.938
 242  2291.336
 243  2796.445
 244  2672.702
 245  2300.272
 246  2637.362
 247  2258.698
 248  2162.247
 249  2190.586
 250  2665.225
 251  2568.233
 252  2789.086
 253  2651.036
 254  2822.284
 255  2682.239
 256  2839.296
 257  3231.78
 258  2713.056
 259  2611.219
 260  2935.476
 261  2583.571
 262  2296.109
 263  2078.677
 264  2188.576
 265  2550.06
 266  2385.556
 267  2412.958
 268  2338.74
 269  2141.238
 270  2500.155
 271  2511.617
 272  2575.255
 273  2906.801
 274  2497.459
 275  2891.374
 276  2721.417
 277  2696.987
 278  2637.324
 279  2771.093
 280  2886.19
 281  3051.221
 282  3201.027
 283  3094.068
 284  2957.441
 285  2724.112
 286  2373.638
 287  2270.987
 288  2475.239
 289  2709.877
 290  2504.115
 291  2681.964
 292  2635.927
 293  2636.545
 294  2897.282
 295  2713.687
 296  2555.647
 297  3201.691
 298  4006.182
 299  4370.877
 300  4522.053
 301  4350.343
 302  3486.146
 303  2610.232
 304  2455.491
 305  2359.74
 306  2892.103
 307  3303.261
 308  3108.74
 309  2816.475
 310  2691.105
 311  2932.012
 312  3070.886
 313  3109.605
 314  2933.883
 315  2871.63
 316  3133.533
 317  3002.898
 318  2981.224
 319  2790.706
 320  2868.073
 321  2829.57
 322  2634.656
 323  2660.519
 324  2617.605
 325  2548.33
 326  2850.963
 327  2459.282
 328  2606.858
 329  2631.616
 330  2385.354
 331  2760.04
 332  2706.248
 333  2889.817
 334  2739.065
 335  2759.043
 336  2692.408
 337  2223.157
 338  2569.392
 339  2782.985
 340  2818.743
 341  2349.266
 342  2373.903
 343  2610.906
 344  2367.82
 345  2742.747
 346  2597.892
 347  2861.446
 348  2971.638
 349  2880.381
 350  2413.482
 351  2057.852
 352  2153.512
 353  2673.493
 354  3149.225
 355  3004.351
 356  3048.22
 357  2934.393
 358  2575.115
 359  2413.66
 360  2449.545
 361  2816.703
 362  2736.095
 363  2667.012
 364  2651.346
 365  2493.271
 366  2622.282
 367  2425.263
 368  2513.805
 369  2858.544
 370  2901.767
 371  2969.702
 372  2538.47
 373  2450.422
 374  2583.445
 375  2234.576
 376  1967.162
 377  2490.276
 378  2810.147
 379  2774.702
 380  2631.739
 381  2391.075
 382  2312.954
 383  2431.65
 384  2373.103
 385  1964.467
 386  1821.441
 387  2047.321
 388  2107.495
 389  2143.392
 390  2179.418
 391  2383.968
 392  2526.381
 393  2552.636
 394  2235.021
 395  2097.11
 396  2259.851
 397  2453.403
 398  2420.804
 399  2171.791
 400  2181.463
 401  2498.462
 402  2415.879
 403  2441.197
 404  2431.949
 405  2022.901
 406  2074.127
 407  2253.279
 408  2430.811
 409  2629.37
 410  2498.259
 411  2456.233
 412  2435.015
 413  2637.551
 414  2731.754
 415  2780.847
 416  2869.683
 417  2433.773
 418  2590.804
 419  3086.799
 420  3456.995
 421  3346.705
 422  3091.221
 423  2836.311
 424  2500.574
 425  2672.608
 426  2786.625
 427  2782.802
 428  2108.37
 429  2399.904
 430  2553.244
 431  2623.168
 432  2922.313
 433  2716.25
 434  2721.903
 435  2879.912
 436  2704.954
 437  2469.511
 438  2564.143
 439  2560.703
 440  2980.577
 441  2867.742
 442  2793.445
 443  2523.038
 444  2454.913
 445  2824.883
 446  2909.68
 447  2881.661
 448  2937.12
 449  2837.034
 450  2631.792
 451  2803.149
 452  3059.034
 453  3319.108
 454  2910.81
 455  2410.964
 456  2478.226
 457  2880.969
 458  2839.723
 459  2658.067
 460  2871.763
 461  2417.896
 462  2322.51
 463  2261.681
 464  2279.713
 465  2373.759
 466  2436.251
 467  2220.61
 468  2563.866
 469  2577.379
 470  2422.218
 471  1842.884
 472  1814.512
 473  2238.502
 474  2352.656
 475  2357.069
 476  2264.615
 477  2219.223
 478  2180.07
 479  1901.54
 480  1751.748
 481  2047.937
 482  2243.614
 483  2078.048
 484  2011.053
 485  2013.518
 486  2125.106
 487  2461.252
 488  2152.31
 489  2651.836
 490  2469.644
 491  2381.213
 492  2357.289
 493  2038.492
 494  2097.051
 495  2578.556
 496  2732.609
 497  2748.151
 498  2071.312
 499  1664.326
 500  2070.301
 501  2406.783
 502  2379.453
 503  2556.074
 504  2315.489
 505  2302.084
 506  2447.206
 507  2079.597
 508  2127.194
 509  2457.865
 510  2648.546
 511  2942.863
