# Input file       =  1211685997.116150-PSRB0329-2ms-sampling-dd.dat
# Candidate        =  PSR_0332+5434
# Telescope        =  AR
# Epoch_topo       =  58268.143705048031
# Epoch_bary       =  N/A
# T_sample         =  0.002
# Data Folded      =  7208960
# Data Avg         =  6.05469205149533e-10
# Data StdDev      =  6.99443415072156 
# Profile Bins     =  512
# Profile Avg      =  -0.0728989470094463
# Profile StdDev   =  829.953791466743 
# Reduced chi-sqr  =  0.731
# Prob(Noise)      <  1   (~0.0 sigma)
# P_topo (ms)      =  714.518739148983  +/- 4.15e-05
# P'_topo (s/s)    =  -0                +/- 2.23e-11
# P''_topo (s/s^2) =  0                 +/- 1e-14
# P_bary (ms)      =  N/A
# P'_bary (s/s)    =  N/A
# P''_bary (s/s^2) =  N/A
# P_orb (s)        =  N/A
# asin(i)/c (s)    =  N/A
# eccentricity     =  N/A
# w (rad)          =  N/A
# T_peri           =  N/A
######################################################
   0  295.5335
   1  29.16004
   2  -295.3071
   3  -525.7892
   4  -112.0292
   5  -362.1387
   6  154.0876
   7  438.7099
   8  651.4442
   9  245.8085
  10  276.6479
  11  48.30766
  12  -932.9123
  13  -656.754
  14  -437.2943
  15  -210.7513
  16  204.0079
  17  508.7271
  18  1206.909
  19  487.6372
  20  -95.50678
  21  -540.0148
  22  -778.3495
  23  -111.1082
  24  5.591539
  25  1105.428
  26  955.7351
  27  648.3129
  28  -117.3574
  29  -356.5891
  30  -211.2906
  31  13.0995
  32  736.0195
  33  679.8964
  34  1153.719
  35  711.3603
  36  69.23491
  37  -124.5394
  38  156.2415
  39  135.828
  40  76.58809
  41  373.1381
  42  619.1257
  43  652.7637
  44  143.4807
  45  -300.196
  46  -249.7454
  47  78.05558
  48  332.7209
  49  509.6254
  50  1288.457
  51  1325.753
  52  814.3914
  53  509.5366
  54  229.1499
  55  91.29953
  56  105.7965
  57  649.1075
  58  911.7886
  59  766.5648
  60  923.7068
  61  593.1902
  62  379.6789
  63  665.8269
  64  666.0341
  65  734.8627
  66  914.0051
  67  945.6183
  68  570.5931
  69  602.5428
  70  644.783
  71  749.4327
  72  949.239
  73  892.811
  74  536.9044
  75  756.8038
  76  335.2851
  77  -121.6578
  78  -484.4831
  79  -499.2068
  80  -453.39
  81  -2.001978
  82  493.748
  83  520.3712
  84  256.7369
  85  149.2778
  86  -564.8978
  87  -807.9066
  88  -600.5998
  89  72.83012
  90  246.8554
  91  582.0379
  92  310.4609
  93  -283.6913
  94  -302.645
  95  -298.3607
  96  -374.6078
  97  49.24433
  98  240.4057
  99  455.9556
 100  625.889
 101  600.7825
 102  165.0548
 103  222.54
 104  62.63479
 105  230.2929
 106  450.21
 107  976.4521
 108  685.8644
 109  -60.7672
 110  -169.8042
 111  -773.9255
 112  -517.6455
 113  263.9004
 114  221.7616
 115  483.319
 116  932.1365
 117  628.7733
 118  167.1903
 119  129.6264
 120  -95.84557
 121  51.53623
 122  236.1333
 123  443.9483
 124  639.6487
 125  583.2219
 126  238.1346
 127  121.6536
 128  -74.46674
 129  -350.3494
 130  -287.7542
 131  436.0807
 132  938.8637
 133  1212.852
 134  805.5748
 135  484.5261
 136  329.0073
 137  321.9198
 138  545.8588
 139  483.8099
 140  394.8641
 141  505.7467
 142  698.7783
 143  113.4402
 144  -187.7854
 145  -164.3396
 146  87.67117
 147  184.3784
 148  614.9796
 149  984.1006
 150  205.2156
 151  -245.5622
 152  29.02955
 153  106.0038
 154  95.60781
 155  128.1415
 156  371.0645
 157  470.8277
 158  392.104
 159  324.6106
 160  -52.65308
 161  5.609185
 162  -311.7589
 163  -5.065166
 164  12.68102
 165  106.5898
 166  178.5111
 167  388.3279
 168  497.3917
 169  146.4973
 170  316.2955
 171  326.687
 172  272.4018
 173  345.5167
 174  417.9743
 175  267.9218
 176  -62.05973
 177  -215.9013
 178  244.4573
 179  535.4586
 180  677.3234
 181  661.0009
 182  775.0372
 183  796.3533
 184  276.3678
 185  55.58447
 186  340.804
 187  299.93
 188  227.3451
 189  856.5266
 190  871.5443
 191  493.7109
 192  -190.6144
 193  -775.5396
 194  -652.5084
 195  -415.5593
 196  92.26856
 197  150.6272
 198  413.5288
 199  776.6898
 200  683.178
 201  491.0644
 202  -256.7022
 203  -407.178
 204  -143.0981
 205  11.24435
 206  50.9522
 207  490.6553
 208  189.555
 209  -571.812
 210  -603.4669
 211  -423.0949
 212  -9.018294
 213  210.6946
 214  442.6045
 215  672.3129
 216  256.5786
 217  -125.8244
 218  -43.44109
 219  -60.59069
 220  -84.50661
 221  12.09496
 222  59.42845
 223  59.95942
 224  -545.879
 225  -591.9473
 226  -371.6231
 227  -550.1489
 228  -21.58954
 229  131.6481
 230  556.6286
 231  475.0508
 232  239.2293
 233  100.4445
 234  -128.5318
 235  15.52402
 236  -18.94416
 237  936.3499
 238  597.4426
 239  216.5942
 240  286.7215
 241  55.0367
 242  -281.2853
 243  -520.4294
 244  -660.2789
 245  -419.1374
 246  -10.02967
 247  -49.34799
 248  250.1137
 249  374.7906
 250  181.704
 251  -190.6344
 252  -45.89587
 253  128.8104
 254  246.8253
 255  502.5623
 256  310.894
 257  -440.2137
 258  -366.5088
 259  -737.5403
 260  -819.7356
 261  -907.078
 262  -492.9712
 263  203.4993
 264  380.3454
 265  460.1589
 266  -233.4163
 267  -450.7506
 268  -593.252
 269  -191.6985
 270  -283.0327
 271  -370.3346
 272  165.1967
 273  119.654
 274  -330.3398
 275  -1051.843
 276  -1117.595
 277  -597.5351
 278  -141.0394
 279  -33.78117
 280  -509.6963
 281  349.2693
 282  699.1059
 283  17.95403
 284  -247.544
 285  101.3723
 286  -150.3397
 287  -42.49804
 288  416.0327
 289  313.2019
 290  78.02862
 291  -562.9286
 292  -1077.192
 293  -763.6215
 294  -317.2489
 295  26.71376
 296  78.46381
 297  146.0275
 298  -14.53645
 299  -298.6681
 300  -659.689
 301  -754.5328
 302  40.41249
 303  -56.78403
 304  -209.715
 305  -168.9367
 306  -52.30639
 307  -436.9276
 308  -340.4478
 309  -501.9193
 310  -1062.766
 311  -598.9844
 312  -125.7226
 313  424.0529
 314  50.4972
 315  120.1526
 316  325.3839
 317  194.8175
 318  229.672
 319  337.0634
 320  844.582
 321  748.0757
 322  1025.353
 323  1213.168
 324  793.7053
 325  -65.74138
 326  -796.5616
 327  -1089.548
 328  -771.95
 329  -722.9411
 330  -324.1889
 331  -79.61646
 332  -454.842
 333  -1356.626
 334  -1219.544
 335  -1232.431
 336  -484.5987
 337  -242.1454
 338  -70.7305
 339  -318.7517
 340  -628.8376
 341  -1041.944
 342  -1402.901
 343  -1157.309
 344  -1286.754
 345  -819.2627
 346  -815.8613
 347  178.3288
 348  541.168
 349  -268.8434
 350  -338.4082
 351  -648.703
 352  -450.1252
 353  -336.0432
 354  -293.0579
 355  -16.15236
 356  25.98787
 357  -264.9138
 358  -844.2219
 359  -1082.83
 360  -1032.501
 361  -703.2048
 362  -435.4527
 363  -432.8968
 364  -179.9183
 365  -156.0687
 366  -198.1875
 367  -701.7865
 368  -501.3901
 369  -709.8072
 370  -538.544
 371  -510.3692
 372  170.4749
 373  164.2133
 374  114.945
 375  -577.4688
 376  -805.2794
 377  -708.2435
 378  -341.7523
 379  51.65511
 380  679.7112
 381  797.803
 382  679.6241
 383  45.63062
 384  -395.6605
 385  -96.13853
 386  30.86873
 387  334.9361
 388  -166.5255
 389  29.98539
 390  -53.49096
 391  -727.5265
 392  -748.5051
 393  -967.8973
 394  -278.1401
 395  96.42995
 396  583.8708
 397  566.9572
 398  472.6243
 399  -69.76536
 400  -480.1019
 401  -219.0823
 402  -16.19289
 403  60.14047
 404  166.2087
 405  525.227
 406  361.3284
 407  178.4863
 408  3.06412
 409  -790.0967
 410  -325.4655
 411  -145.1951
 412  634.5792
 413  746.6046
 414  962.8837
 415  141.6309
 416  -521.3127
 417  48.60825
 418  -147.169
 419  162.7741
 420  -16.97224
 421  222.799
 422  39.24275
 423  -126.6959
 424  -535.7746
 425  -1062.659
 426  -1046.266
 427  -488.6963
 428  -24.82885
 429  -45.08057
 430  448.4599
 431  666.4009
 432  253.864
 433  -178.6145
 434  -710.2736
 435  -458.7927
 436  -221.8615
 437  0.8850977
 438  557.6557
 439  550.3425
 440  142.1491
 441  -535.9536
 442  -573.0248
 443  -576.5264
 444  -434.573
 445  -47.69372
 446  642.5238
 447  763.0827
 448  266.0861
 449  -279.104
 450  -674.4019
 451  -742.6014
 452  -613.6058
 453  -399.9917
 454  -52.17296
 455  -214.0655
 456  -193.0861
 457  -644.9703
 458  -1240.701
 459  -739.8937
 460  -662.375
 461  -560.2735
 462  -571.524
 463  389.6581
 464  336.7722
 465  -129.1107
 466  -304.6893
 467  -813.0606
 468  -163.2229
 469  67.00318
 470  -113.427
 471  227.1878
 472  659.7637
 473  -55.52409
 474  -464.5032
 475  -543.2468
 476  -393.4486
 477  -87.79311
 478  127.2824
 479  429.6885
 480  293.6234
 481  -32.34455
 482  -367.9107
 483  -91.18208
 484  82.31168
 485  -153.4065
 486  13.53415
 487  -96.36427
 488  231.034
 489  12.23927
 490  -587.547
 491  -725.6875
 492  -1270.886
 493  -1002.821
 494  -789.3967
 495  -127.4476
 496  484.1841
 497  207.7197
 498  -148.1777
 499  -483.4967
 500  -571.3448
 501  -432.8034
 502  -240.8067
 503  -349.8886
 504  -188.4001
 505  -70.95136
 506  -192.6896
 507  -915.9431
 508  -997.5678
 509  -577.5098
 510  412.9958
 511  682.3386
