# Input file       =  1211098148.107654_cleaned.dat
# Candidate        =  PSR_0332+5434
# Telescope        =  AR
# Epoch_topo       =  58261.339897079328
# Epoch_bary       =  N/A
# T_sample         =  0.002
# Data Folded      =  7340032
# Data Avg         =  1.26197978039377 
# Data StdDev      =  19.4394725447346 
# Profile Bins     =  512
# Profile Avg      =  18091.0287537357 
# Profile StdDev   =  2327.54707334386 
# Reduced chi-sqr  =  0.961
# Prob(Noise)      <  0.727   (~0.0 sigma)
# P_topo (ms)      =  714.525421635669  +/- 0.000117
# P'_topo (s/s)    =  -0                +/- 6.16e-11
# P''_topo (s/s^2) =  0                 +/- 2.72e-14
# P_bary (ms)      =  N/A
# P'_bary (s/s)    =  N/A
# P''_bary (s/s^2) =  N/A
# P_orb (s)        =  N/A
# asin(i)/c (s)    =  N/A
# eccentricity     =  N/A
# w (rad)          =  N/A
# T_peri           =  N/A
######################################################
   0  18962.68
   1  19780.78
   2  19316.64
   3  19531.86
   4  20435.15
   5  20453.25
   6  19781.42
   7  18834.78
   8  18947.43
   9  20689.41
  10  20257.87
  11  19051.25
  12  18740.43
  13  19706.7
  14  19629.27
  15  20414.81
  16  21067.94
  17  20778.64
  18  18971.02
  19  19094.65
  20  18556.96
  21  18395.65
  22  19813.21
  23  18449.16
  24  19196.05
  25  18985.38
  26  17608.88
  27  16488.63
  28  16495.82
  29  17631.89
  30  18018.75
  31  16551.81
  32  17405.89
  33  18638.24
  34  18596.68
  35  18129.25
  36  16756.29
  37  16959.2
  38  16261.04
  39  16445.65
  40  15482.18
  41  16286.01
  42  16947.81
  43  16186.48
  44  15806.88
  45  15511.68
  46  16653.21
  47  19175.03
  48  19231.77
  49  17273.43
  50  17294.5
  51  16950.99
  52  16786.28
  53  17922.08
  54  16799.16
  55  17920.33
  56  18741.55
  57  20285.98
  58  20424.56
  59  17929.29
  60  16734.04
  61  17211.12
  62  18070.89
  63  18707.39
  64  18018.45
  65  17438.83
  66  18297.24
  67  17121.79
  68  18643.51
  69  18407.35
  70  17669.64
  71  17967.38
  72  19098.22
  73  17643.07
  74  17968.25
  75  18367.27
  76  17716.36
  77  15115.82
  78  15046.03
  79  16698.98
  80  17416.7
  81  15326.03
  82  15219.81
  83  14526.54
  84  15332.52
  85  15174.03
  86  17061.79
  87  19725.57
  88  18459.45
  89  15052.55
  90  15457.57
  91  17294.78
  92  17497.13
  93  17646.97
  94  16991.17
  95  17697.26
  96  18225.16
  97  16938.87
  98  17074.24
  99  18105.54
 100  19150.2
 101  20046.56
 102  19614.13
 103  18080.34
 104  17669.56
 105  18804.31
 106  18289.87
 107  17398.18
 108  17411.3
 109  18764.64
 110  18236.55
 111  17985.01
 112  18497.4
 113  16548.13
 114  18067.3
 115  18137.52
 116  17298.69
 117  16516.38
 118  18933.91
 119  18095.04
 120  18500.82
 121  21860.89
 122  20880.02
 123  18830.1
 124  18212.49
 125  18918.58
 126  18238.94
 127  19586.2
 128  20105.33
 129  18340.66
 130  17017.68
 131  14543.29
 132  16438.68
 133  19440.99
 134  16184.89
 135  16300.27
 136  16185.12
 137  16611.76
 138  17581.63
 139  17273.27
 140  17089.16
 141  17730.81
 142  16769.17
 143  16938.86
 144  17970.55
 145  16988.39
 146  16093
 147  16472.94
 148  17339.05
 149  17154.11
 150  17786.2
 151  17496.45
 152  18525.65
 153  16359.22
 154  16336.02
 155  16657.49
 156  16422.56
 157  17573.25
 158  16791.43
 159  17089.26
 160  16911.36
 161  14143.37
 162  14575.49
 163  18178.72
 164  17473.26
 165  18663.45
 166  15874.88
 167  17092.08
 168  18106.85
 169  18818.77
 170  17607.17
 171  18083.76
 172  18124.13
 173  19891.35
 174  18505.81
 175  18126.9
 176  18032.1
 177  18532.47
 178  21142.53
 179  22317.08
 180  19045.08
 181  18260.41
 182  17294.89
 183  15869.37
 184  17004.88
 185  20056.77
 186  19237.14
 187  19279.62
 188  19397.87
 189  20128.11
 190  20693.17
 191  21724.53
 192  21483.84
 193  19933.61
 194  20239.93
 195  19938.11
 196  20549.48
 197  18769.36
 198  20183.7
 199  18328.67
 200  17806.31
 201  18706.7
 202  17910.99
 203  18526.62
 204  17319.57
 205  17414.8
 206  17372.94
 207  15337.86
 208  15912.62
 209  17650.34
 210  16932.19
 211  15413.04
 212  15233.06
 213  16315.35
 214  18574.31
 215  17870.45
 216  19467.71
 217  19587.86
 218  17702.2
 219  16732.27
 220  17550.7
 221  16551.53
 222  16775.83
 223  18268.74
 224  19143.59
 225  15735.66
 226  16846.99
 227  17945.91
 228  18400.97
 229  18590.43
 230  16406.55
 231  17310.01
 232  16987.37
 233  15841.29
 234  18033.96
 235  17221.34
 236  16729.16
 237  16104.6
 238  16650.82
 239  16608.32
 240  17205.47
 241  17990.35
 242  18800.88
 243  16310.08
 244  13956.54
 245  12872.67
 246  14282.23
 247  15927.59
 248  16945.78
 249  15782.36
 250  15930.8
 251  15514.13
 252  15846.38
 253  15941.47
 254  16144
 255  16496.49
 256  16576.16
 257  16830.12
 258  18712.64
 259  19314.96
 260  19453.82
 261  20147.22
 262  16885.79
 263  14790.71
 264  15205.39
 265  17641.07
 266  20683.36
 267  21021.2
 268  19203.21
 269  17089.93
 270  17616.24
 271  18032.33
 272  20687.9
 273  21484.67
 274  20755.63
 275  19488.12
 276  18448.52
 277  20781.7
 278  22187.2
 279  21617.18
 280  21193.33
 281  19848.11
 282  17760.12
 283  16921.18
 284  17982.15
 285  19931.04
 286  17924.22
 287  15184.09
 288  17320.69
 289  18902.98
 290  19180.82
 291  19108.86
 292  18733.17
 293  18289.09
 294  17571.03
 295  19189.73
 296  19581.92
 297  21691.25
 298  18645.2
 299  19245.83
 300  19840.11
 301  20993.37
 302  21594.97
 303  20946.11
 304  20796.97
 305  20194.12
 306  16283.67
 307  16722.46
 308  16612.3
 309  18976.81
 310  21790.79
 311  19389.88
 312  17258.58
 313  19012.71
 314  19704.26
 315  19457.85
 316  19375.64
 317  17391.45
 318  14620.38
 319  15628.45
 320  19916.12
 321  20337.11
 322  22449.54
 323  19740.91
 324  17159
 325  15737.59
 326  16700.56
 327  19664.6
 328  19919.86
 329  19524.24
 330  19831.14
 331  18276.95
 332  17535.83
 333  19192.45
 334  19321.15
 335  19202.63
 336  19113.53
 337  16472.46
 338  16710.52
 339  17783.05
 340  18331.89
 341  19464.22
 342  19125
 343  20686.76
 344  18798.83
 345  17159.58
 346  15736.69
 347  14370.97
 348  14500.66
 349  15404.93
 350  17366.8
 351  18788.16
 352  18442.93
 353  19795.28
 354  18371.65
 355  15433.4
 356  14578.21
 357  16321.17
 358  17506.68
 359  18689.9
 360  15711.07
 361  16084.85
 362  15443.94
 363  17137.02
 364  17513.17
 365  15968.89
 366  15812.27
 367  16910.28
 368  16986.16
 369  19506.25
 370  20970.17
 371  20629.1
 372  19312.86
 373  16483.39
 374  16068.11
 375  17224.72
 376  17648.56
 377  17360.48
 378  18076.87
 379  17821.11
 380  15918.9
 381  17373.95
 382  20338.01
 383  19512.96
 384  19163.23
 385  17551.4
 386  16840.15
 387  18697.71
 388  18158.73
 389  20970.92
 390  23277.1
 391  22152.11
 392  21074.88
 393  17325.19
 394  18971.92
 395  19523.65
 396  19184.31
 397  18563.62
 398  18689.73
 399  17579.2
 400  19304.4
 401  19213.19
 402  17993.69
 403  18033.9
 404  17977.62
 405  20688.89
 406  22771.55
 407  20622.67
 408  17692.75
 409  16079.44
 410  18190.59
 411  17260.24
 412  18606.88
 413  19892.64
 414  17329
 415  18328.9
 416  18969.47
 417  18821.86
 418  18395.43
 419  19210.23
 420  15971.63
 421  16927.53
 422  17341.49
 423  18307.98
 424  19187.5
 425  19093.7
 426  17400.23
 427  18648.12
 428  20139.14
 429  19408.17
 430  19146.61
 431  17659.38
 432  16984.58
 433  16630.47
 434  18404.79
 435  18135.67
 436  19250.14
 437  19898.37
 438  19525.41
 439  18374.78
 440  17191.45
 441  18483.11
 442  20685.69
 443  21327.73
 444  20344.83
 445  19913.23
 446  18779.5
 447  16274.97
 448  17384.34
 449  18840.13
 450  19159.79
 451  17049.54
 452  15976.07
 453  18869.71
 454  19628.07
 455  18701.56
 456  18836.78
 457  17977.15
 458  17463.51
 459  16197.06
 460  16508.86
 461  16834.62
 462  18936.1
 463  18341.1
 464  18067.81
 465  18002.71
 466  18268.9
 467  17599.46
 468  18798.32
 469  18588.71
 470  17523.04
 471  17522.3
 472  15623.63
 473  18253.53
 474  20203.22
 475  19531.97
 476  20690.35
 477  17670.25
 478  17638.25
 479  16116.39
 480  16416.37
 481  18285.93
 482  18364.19
 483  18382.98
 484  18781.81
 485  17098.66
 486  19792.79
 487  20312.72
 488  21020.15
 489  20449.12
 490  18947.04
 491  16579.42
 492  15750.18
 493  15746.33
 494  18108.94
 495  20133.97
 496  18555.51
 497  19118.82
 498  16035.66
 499  15395.42
 500  17006.53
 501  17037.9
 502  18981.57
 503  20527.45
 504  20100.23
 505  19061.14
 506  17304.06
 507  17609.05
 508  18708.95
 509  18300.1
 510  18436.61
 511  17340.32
