# Input file       =  1211370939.102914_cleaned.dat
# Candidate        =  PSR_0332+5434
# Telescope        =  AR
# Epoch_topo       =  58264.497200265207
# Epoch_bary       =  N/A
# T_sample         =  0.002
# Data Folded      =  7340032
# Data Avg         =  0.0356782881089687
# Data StdDev      =  1.00010572231884 
# Profile Bins     =  512
# Profile Avg      =  511.52034877023  
# Profile StdDev   =  119.745694831014 
# Reduced chi-sqr  =  1.223
# Prob(Noise)      <  0.000396   (~3.4 sigma)
# P_topo (ms)      =  714.522651796527  +/- 0.000291
# P'_topo (s/s)    =  -0                +/- 1.54e-10
# P''_topo (s/s^2) =  0                 +/- 6.78e-14
# P_bary (ms)      =  N/A
# P'_bary (s/s)    =  N/A
# P''_bary (s/s^2) =  N/A
# P_orb (s)        =  N/A
# asin(i)/c (s)    =  N/A
# eccentricity     =  N/A
# w (rad)          =  N/A
# T_peri           =  N/A
######################################################
   0  500.1493
   1  468.3574
   2  532.6862
   3  521.0739
   4  522.7504
   5  469.5509
   6  471.4455
   7  354.5186
   8  459.9224
   9  552.257
  10  534.3895
  11  531.4841
  12  548.8947
  13  563.2778
  14  444.2354
  15  443.9835
  16  467.8486
  17  519.9713
  18  440.3252
  19  403.0533
  20  401.7148
  21  537.018
  22  521.7375
  23  406.3326
  24  401.7334
  25  369.1419
  26  383.6322
  27  457.7251
  28  431.7804
  29  412.7964
  30  424.8848
  31  336.2611
  32  391.6392
  33  465.127
  34  499.3087
  35  511.3856
  36  416.9501
  37  439.8836
  38  549.5068
  39  357.0292
  40  328.7606
  41  336.2368
  42  486.6207
  43  493.6942
  44  444.0993
  45  434.1673
  46  502.1349
  47  601.8348
  48  520.1401
  49  394.9403
  50  329.1233
  51  521.6503
  52  475.7903
  53  399.9348
  54  456.1765
  55  385.2862
  56  390.9044
  57  425.1967
  58  447.8605
  59  528.0045
  60  426.1281
  61  362.1045
  62  461.9475
  63  445.2454
  64  523.0597
  65  472.8494
  66  521.0675
  67  444.9826
  68  415.3445
  69  624.4025
  70  628.869
  71  539.546
  72  518.2131
  73  568.4576
  74  523.0504
  75  488.7945
  76  418.29
  77  565.0635
  78  587.5983
  79  546.1895
  80  466.0229
  81  470.4937
  82  481.0968
  83  550.9831
  84  588.2604
  85  405.59
  86  453.7855
  87  541.8147
  88  587.3222
  89  507.619
  90  550.117
  91  523.3671
  92  364.3525
  93  593.1108
  94  655.6663
  95  501.4735
  96  517.417
  97  585.9356
  98  667.1994
  99  683.2272
 100  607.1743
 101  517.265
 102  503.5149
 103  521.7475
 104  521.4014
 105  491.762
 106  538.4225
 107  461.9778
 108  488.3986
 109  520.9957
 110  425.8241
 111  447.3885
 112  405.4256
 113  548.9307
 114  575.1064
 115  562.16
 116  494.8171
 117  575.6695
 118  573.3036
 119  461.8641
 120  504.0443
 121  613.9369
 122  594.8209
 123  521.1829
 124  585.3737
 125  610.5261
 126  525.7812
 127  523.2173
 128  617.6525
 129  567.8964
 130  646.2044
 131  599.6292
 132  530.3664
 133  572.4546
 134  593.0052
 135  614.6102
 136  622.3659
 137  588.0475
 138  540.9232
 139  549.6588
 140  583.2548
 141  653.5911
 142  685.81
 143  662.5962
 144  595.567
 145  552.4701
 146  504.4879
 147  585.8812
 148  668.4105
 149  634.5995
 150  597.1046
 151  546.7821
 152  525.1002
 153  518.4847
 154  453.2221
 155  484.9478
 156  462.118
 157  461.6276
 158  541.9
 159  472.9123
 160  550.7172
 161  631.5221
 162  695.8677
 163  584.4568
 164  364.1379
 165  467.9339
 166  603.5936
 167  613.6912
 168  502.6415
 169  463.0483
 170  441.2085
 171  456.9701
 172  403.9766
 173  494.8081
 174  527.1063
 175  580.8051
 176  596.3362
 177  494.1405
 178  459.4274
 179  626.3649
 180  564.9141
 181  494.2515
 182  620.349
 183  768.2469
 184  588.8683
 185  431.4607
 186  545.3427
 187  540.578
 188  547.0872
 189  541.4823
 190  522.924
 191  499.1158
 192  493.8292
 193  499.084
 194  533.1974
 195  555.806
 196  553.1229
 197  539.2443
 198  462.2594
 199  574.6788
 200  534.3347
 201  610.7532
 202  579.6199
 203  433.7355
 204  465.1436
 205  431.9937
 206  545.5235
 207  562.8067
 208  456.6206
 209  597.1868
 210  583.8445
 211  648.2593
 212  610.6266
 213  481.0154
 214  645.1906
 215  577.1844
 216  575.9062
 217  424.5038
 218  416.0615
 219  455.8376
 220  624.3099
 221  536.2695
 222  452.7308
 223  542.4713
 224  550.7053
 225  581.9795
 226  661.9996
 227  520.1832
 228  537.0655
 229  518.4698
 230  463.6222
 231  447.2621
 232  476.2212
 233  501.3452
 234  425.888
 235  395.5912
 236  517.8593
 237  460.9905
 238  425.0612
 239  424.3456
 240  460.5517
 241  474.1186
 242  347.7272
 243  364.4074
 244  416.317
 245  441.7358
 246  475.8315
 247  464.2139
 248  509.6503
 249  567.9156
 250  535.1362
 251  457.417
 252  414.177
 253  423.0182
 254  454.0924
 255  445.1649
 256  529.3206
 257  624.369
 258  463.091
 259  407.8849
 260  409.2276
 261  527.1486
 262  580.4153
 263  643.5597
 264  500.1063
 265  488.5367
 266  572.5823
 267  420.8976
 268  381.3265
 269  459.5964
 270  440.7489
 271  500.3789
 272  392.2433
 273  552.0121
 274  508.4615
 275  435.437
 276  535.6369
 277  487.3762
 278  434.056
 279  404.8646
 280  305.0918
 281  484.7659
 282  513.3621
 283  504.0934
 284  474.6602
 285  431.0728
 286  464.8566
 287  564.6243
 288  601.0914
 289  581.1744
 290  562.7764
 291  613.6393
 292  548.8452
 293  547.5364
 294  537.9821
 295  521.0701
 296  634.8151
 297  667.2467
 298  613.3002
 299  602.4377
 300  698.5352
 301  655.9135
 302  655.8376
 303  556.7793
 304  512.1155
 305  647.3401
 306  641.7084
 307  529.0098
 308  555.746
 309  521.3569
 310  516.501
 311  545.9713
 312  526.8911
 313  476.5412
 314  329.4145
 315  420.1209
 316  580.0485
 317  535.2703
 318  373.371
 319  450.09
 320  556.3465
 321  593.9562
 322  503.8515
 323  485.7805
 324  474.6877
 325  333.2336
 326  444.3115
 327  429.7642
 328  372.1906
 329  433.6231
 330  468.8528
 331  456.1031
 332  577.2014
 333  643.4587
 334  491.1551
 335  540.0924
 336  595.5695
 337  554.0796
 338  467.3133
 339  556.7225
 340  570.606
 341  549.0776
 342  602.6159
 343  553.8394
 344  527.5153
 345  629.3127
 346  679.7795
 347  733.1268
 348  693.9783
 349  632.7322
 350  811.769
 351  917.7872
 352  989.1987
 353  1072.872
 354  1096.994
 355  1031.081
 356  786.6738
 357  706.2198
 358  541.067
 359  510.2169
 360  447.7014
 361  509.9232
 362  460.1014
 363  382.8047
 364  484.1103
 365  483.8119
 366  502.9691
 367  498.1639
 368  533.058
 369  514.5032
 370  407.7329
 371  419.2312
 372  476.8742
 373  501.2442
 374  566.5036
 375  516.4926
 376  446.8705
 377  452.6459
 378  527.2169
 379  434.7938
 380  438.2267
 381  478.4164
 382  532.795
 383  508.0689
 384  408.3281
 385  431.982
 386  541.8579
 387  538.2719
 388  449.1389
 389  379.7396
 390  501.9279
 391  473.6765
 392  454.6036
 393  473.8267
 394  536.657
 395  632.7718
 396  527.4626
 397  448.0418
 398  415.3724
 399  449.2896
 400  429.8224
 401  526.8474
 402  515.069
 403  333.7479
 404  486.088
 405  542.7747
 406  465.4454
 407  358.8293
 408  438.7574
 409  413.5435
 410  426.5038
 411  378.0068
 412  366.2972
 413  246.0046
 414  316.8082
 415  360.1781
 416  503.363
 417  576.1904
 418  602.1968
 419  636.3029
 420  551.3248
 421  519.6942
 422  457.4442
 423  432.6451
 424  473.9206
 425  502.8352
 426  530.8348
 427  514.6865
 428  533.8247
 429  468.708
 430  518.0795
 431  496.1271
 432  511.81
 433  467.062
 434  578.3446
 435  683.2269
 436  654.3998
 437  495.6489
 438  497.1067
 439  505.8079
 440  508.5107
 441  519.2782
 442  516.2905
 443  524.2139
 444  386.4773
 445  422.1548
 446  477.0853
 447  461.7562
 448  382.266
 449  406.2443
 450  425.985
 451  500.4513
 452  458.5416
 453  507.8027
 454  473.7046
 455  425.9621
 456  426.7322
 457  376.9108
 458  444.4558
 459  522.0208
 460  459.1449
 461  584.2778
 462  596.3956
 463  590.3395
 464  525.2825
 465  497.5339
 466  513.7697
 467  538.0863
 468  610.0439
 469  573.731
 470  616.5226
 471  648.6143
 472  492.5855
 473  479.3869
 474  515.7142
 475  573.7963
 476  543.7191
 477  522.0317
 478  432.9301
 479  453.8696
 480  597.8975
 481  613.0749
 482  593.0736
 483  625.965
 484  518.5525
 485  465.0811
 486  422.9503
 487  465.2031
 488  488.0147
 489  338.55
 490  369.5113
 491  418.6392
 492  589.2756
 493  518.2552
 494  448.883
 495  412.8825
 496  454.7377
 497  463.6343
 498  478.5293
 499  447.2633
 500  478.3
 501  434.5218
 502  365.5688
 503  431.5214
 504  467.1265
 505  513.0037
 506  405.7929
 507  409.7269
 508  530.1155
 509  459.0104
 510  439.6227
 511  492.275
