# Input file       =  1211442149.106837_cleaned.dat
# Candidate        =  PSR_0332+5434
# Telescope        =  AR
# Epoch_topo       =  58265.321390125428
# Epoch_bary       =  N/A
# T_sample         =  0.002
# Data Folded      =  7340032
# Data Avg         =  0.203604507446081
# Data StdDev      =  4.9006948575797  
# Profile Bins     =  512
# Profile Avg      =  2918.88695743668 
# Profile StdDev   =  586.775075654021 
# Reduced chi-sqr  =  1.266
# Prob(Noise)      <  3.99e-05   (~3.9 sigma)
# P_topo (ms)      =  714.521509534726  +/- 0.000717
# P'_topo (s/s)    =  -0                +/- 3.78e-10
# P''_topo (s/s^2) =  0                 +/- 1.67e-13
# P_bary (ms)      =  N/A
# P'_bary (s/s)    =  N/A
# P''_bary (s/s^2) =  N/A
# P_orb (s)        =  N/A
# asin(i)/c (s)    =  N/A
# eccentricity     =  N/A
# w (rad)          =  N/A
# T_peri           =  N/A
######################################################
   0  3236.801
   1  3064.116
   2  3240.358
   3  3262.297
   4  2868.117
   5  3316.124
   6  3581.865
   7  3200.889
   8  2995.2
   9  2872.251
  10  2602.364
  11  2555.245
  12  2825.226
  13  3135.037
  14  3128.388
  15  3260.567
  16  3206.428
  17  2997.996
  18  2895.832
  19  3115.23
  20  3146.734
  21  2779.038
  22  2619.959
  23  2627.054
  24  2752.3
  25  2675.82
  26  2825.113
  27  2485.015
  28  2370.726
  29  2892.418
  30  2757.367
  31  2898.117
  32  2857.339
  33  3130.028
  34  2723.308
  35  2541.713
  36  2531.006
  37  3091.176
  38  2956.504
  39  3323.465
  40  3441.694
  41  3148.281
  42  3021.109
  43  3307.971
  44  3387.511
  45  3317.513
  46  3617.181
  47  3594.559
  48  3279.68
  49  2865.132
  50  3021.198
  51  2940.027
  52  2572.559
  53  2637.17
  54  2979.771
  55  2943.541
  56  2577.462
  57  2555.447
  58  2928.342
  59  2668.155
  60  2192.415
  61  2536.036
  62  2532.625
  63  2593.542
  64  2462.229
  65  2398.158
  66  2474.909
  67  2499.877
  68  2529.496
  69  2777.84
  70  2517.072
  71  2394.846
  72  2166.729
  73  2312.392
  74  2387
  75  2197.99
  76  1916.047
  77  2042.067
  78  2254.563
  79  2683.899
  80  2421.532
  81  2431.175
  82  2501.157
  83  2346.439
  84  2128.302
  85  2271.139
  86  2540.608
  87  2633.793
  88  2244.565
  89  2279.458
  90  2304.871
  91  2391.893
  92  2636.762
  93  2807.1
  94  2851.962
  95  2429.201
  96  2297.872
  97  2267.833
  98  2534.367
  99  2334.992
 100  2288.822
 101  2436.176
 102  2461.684
 103  2284.248
 104  2368.993
 105  2744.386
 106  2525.808
 107  2565.939
 108  2594.266
 109  2108.658
 110  2362.734
 111  2475.608
 112  2603.252
 113  2164.189
 114  1752.287
 115  2224.788
 116  2427.983
 117  2472.813
 118  2261.502
 119  2413.215
 120  2694.558
 121  2791.852
 122  2538.101
 123  2233.665
 124  2281.211
 125  2408.447
 126  2295.53
 127  2128.946
 128  2264.283
 129  2556.576
 130  2561.174
 131  2631.269
 132  2632.294
 133  2734.65
 134  2812.567
 135  2551.012
 136  2525.097
 137  2388.037
 138  2408.506
 139  2319.047
 140  2153.05
 141  2435.382
 142  2274.34
 143  2423.038
 144  2674.289
 145  2786.11
 146  2589.012
 147  2514.374
 148  2773.945
 149  2704.548
 150  2719.631
 151  2796.665
 152  2771.759
 153  2495.569
 154  2646.554
 155  2667.31
 156  2560.262
 157  2302.966
 158  2696.393
 159  2556.866
 160  2495.995
 161  2679.421
 162  2611.335
 163  2535.542
 164  2693.505
 165  3104.725
 166  2644.034
 167  2549.862
 168  2958.427
 169  2884.06
 170  2998.106
 171  3129.602
 172  3177.403
 173  2961.967
 174  2941.854
 175  2947.954
 176  2910.64
 177  2801.451
 178  2431.777
 179  2469.49
 180  2764.424
 181  2539.087
 182  2599.469
 183  3005.094
 184  2786.354
 185  2658.394
 186  2404.894
 187  2200.624
 188  2334.721
 189  2308.705
 190  2599.219
 191  2129.518
 192  2534.333
 193  2217.378
 194  2215.566
 195  2102.966
 196  2215.862
 197  2706.486
 198  2706.941
 199  2447.145
 200  2224.719
 201  2427.894
 202  2536.835
 203  2524.817
 204  2170.456
 205  2263.28
 206  2370.049
 207  2048.418
 208  2093.11
 209  1951.82
 210  2183.663
 211  2280.466
 212  2374.586
 213  2602.665
 214  2274.941
 215  2369.58
 216  2431.678
 217  2436.084
 218  2174.196
 219  2207.793
 220  2395.783
 221  2310.796
 222  2254.851
 223  2547.885
 224  2611.525
 225  2663.12
 226  2572.409
 227  2555.667
 228  2100.434
 229  2266.265
 230  2309.412
 231  2166.561
 232  2038.717
 233  2282.326
 234  2858.439
 235  2728.461
 236  2236.782
 237  2129.679
 238  2114.299
 239  2292.485
 240  2389.414
 241  2378.307
 242  2165.279
 243  2362.719
 244  2411.574
 245  2448.868
 246  2576.694
 247  2785.48
 248  2732.664
 249  2505.547
 250  2747.267
 251  2819.634
 252  2311.321
 253  2787.041
 254  3273.556
 255  3409.625
 256  2805.207
 257  3010.865
 258  2962.782
 259  2645.255
 260  2504.87
 261  2706.598
 262  2940.174
 263  3243.881
 264  3586.426
 265  3462.851
 266  3544.317
 267  3251.809
 268  3168.406
 269  3096.155
 270  2719.48
 271  3003.256
 272  3090.401
 273  3181.664
 274  3207.18
 275  2987.353
 276  3110.453
 277  2947.491
 278  2775.32
 279  2714.343
 280  2911.077
 281  3096.844
 282  3114.001
 283  3063.25
 284  2792.796
 285  2834.302
 286  2901.774
 287  2862.729
 288  3092.999
 289  2853.696
 290  2782.028
 291  3102.06
 292  3351.596
 293  3465.44
 294  3529.358
 295  3910.14
 296  3968.383
 297  4295.708
 298  4500.549
 299  4743.008
 300  4680.516
 301  4384.18
 302  3576.437
 303  3181.788
 304  2953.617
 305  2926.138
 306  2803.022
 307  3110.686
 308  3220.237
 309  3287.414
 310  3238.34
 311  3051.089
 312  2680.286
 313  2747.834
 314  2986.188
 315  3216.054
 316  3412.629
 317  2738.063
 318  2319.409
 319  2643.107
 320  3111.921
 321  3135.239
 322  3361.018
 323  3137.374
 324  3176.6
 325  3002.833
 326  3093.753
 327  3436.546
 328  3618.613
 329  3515.826
 330  3253.668
 331  2939.67
 332  3252.188
 333  3520.636
 334  3654.545
 335  3746.591
 336  3387.25
 337  3180.94
 338  3553.88
 339  3397.495
 340  3480.038
 341  3501.74
 342  3501.78
 343  3715.816
 344  3939.01
 345  3666.447
 346  3406.011
 347  3859.663
 348  3653.549
 349  3515.123
 350  3624.856
 351  3739.32
 352  3438.928
 353  3341.835
 354  3691.216
 355  3525.142
 356  3503.769
 357  3329.608
 358  3437.774
 359  3171.507
 360  3352.309
 361  2854.81
 362  3074.667
 363  2939.084
 364  2570.017
 365  2745.788
 366  2549.626
 367  2737.779
 368  2931.372
 369  2866.782
 370  2883.244
 371  2938.991
 372  2782.507
 373  2593.042
 374  2566.581
 375  2628.37
 376  2968.232
 377  3087.757
 378  2775.017
 379  2683.287
 380  2967.503
 381  2771.676
 382  3260.785
 383  2799.006
 384  2646.445
 385  2972.52
 386  3376.555
 387  3376.829
 388  3041.275
 389  3393.615
 390  3789.169
 391  3272.46
 392  3360.585
 393  3271.088
 394  3211.822
 395  3191.911
 396  3495.381
 397  3969.175
 398  3764.059
 399  3642.685
 400  3483.18
 401  3565.513
 402  3445.282
 403  3392.621
 404  3444.425
 405  3502.391
 406  3416.927
 407  3397.743
 408  3078.96
 409  2763.949
 410  3075.938
 411  3166.239
 412  3217.726
 413  2919.526
 414  2941.966
 415  3003.957
 416  3080.027
 417  3447.762
 418  3313.632
 419  3268.701
 420  3469.456
 421  3281.916
 422  2921.415
 423  2826.108
 424  3237.654
 425  3266.97
 426  3357.053
 427  3355.764
 428  3350.061
 429  3391.709
 430  3009.815
 431  3225.675
 432  3585.519
 433  3494.388
 434  3547.516
 435  3245.404
 436  3002.977
 437  3431.467
 438  3359.177
 439  3236.496
 440  3350.907
 441  3417.825
 442  3316.055
 443  3226.814
 444  3342.19
 445  3503.149
 446  3395.255
 447  3520.606
 448  3235.353
 449  3425.698
 450  3252.402
 451  3086.6
 452  3105.412
 453  3051.225
 454  2735.314
 455  2795.329
 456  2744.508
 457  2996.56
 458  3114.974
 459  3448.19
 460  3081.705
 461  3173.011
 462  3445.698
 463  2967.848
 464  2889.778
 465  2682.622
 466  2942.891
 467  2770.765
 468  2935.535
 469  3039.362
 470  2870.686
 471  3105.155
 472  3275.298
 473  3362.319
 474  3549.768
 475  3501.154
 476  3674.653
 477  3594.662
 478  3585.194
 479  3445.233
 480  3831.227
 481  4167.33
 482  3834.032
 483  3467.466
 484  3663.894
 485  3881.708
 486  3786.965
 487  3719.693
 488  3269.744
 489  3063.522
 490  3158.393
 491  3493.406
 492  3647.805
 493  3409.124
 494  3565.647
 495  3209.658
 496  3237.751
 497  3118.642
 498  3069.241
 499  3400.253
 500  3331.385
 501  3607.878
 502  3151.001
 503  3053.461
 504  3134.355
 505  3367.052
 506  3098.926
 507  3241.098
 508  3555.87
 509  3132.99
 510  2934.928
 511  3364.05
