# Input file       =  1211528298.098192_cleaned.dat
# Candidate        =  PSR_0332+5434
# Telescope        =  AR
# Epoch_topo       =  58266.318484932781
# Epoch_bary       =  N/A
# T_sample         =  0.002
# Data Folded      =  7340032
# Data Avg         =  0.190917391087818
# Data StdDev      =  4.24363314184896 
# Profile Bins     =  512
# Profile Avg      =  2737.50924586292 
# Profile StdDev   =  508.103081342652 
# Reduced chi-sqr  =  0.799
# Prob(Noise)      <  1   (~0.0 sigma)
# P_topo (ms)      =  714.520534385403  +/- 0.000456
# P'_topo (s/s)    =  -0                +/- 2.41e-10
# P''_topo (s/s^2) =  0                 +/- 1.06e-13
# P_bary (ms)      =  N/A
# P'_bary (s/s)    =  N/A
# P''_bary (s/s^2) =  N/A
# P_orb (s)        =  N/A
# asin(i)/c (s)    =  N/A
# eccentricity     =  N/A
# w (rad)          =  N/A
# T_peri           =  N/A
######################################################
   0  2550.434
   1  2454.851
   2  2415.121
   3  2653.624
   4  2616.712
   5  2825.795
   6  2884.264
   7  2647.285
   8  2591.729
   9  2635.131
  10  2814.593
  11  2754.131
  12  2957.991
  13  2803.456
  14  2830.821
  15  2837.112
  16  2912.867
  17  2915.765
  18  2816.399
  19  2815.918
  20  2538.132
  21  2620.5
  22  2669.906
  23  2767.801
  24  2785.183
  25  3023.404
  26  3139.842
  27  3242.315
  28  3236.11
  29  2968.439
  30  3318.347
  31  3300.905
  32  3113.555
  33  3085.586
  34  3055.772
  35  2971.973
  36  3059.879
  37  3089.853
  38  3091.121
  39  2750.367
  40  2876.378
  41  3051.449
  42  2998.547
  43  3018.828
  44  2639.298
  45  3144.076
  46  3150.521
  47  2755.301
  48  2821.631
  49  3160.244
  50  3022.352
  51  3032.993
  52  3345.422
  53  3069.485
  54  2582.729
  55  2862.034
  56  3204.05
  57  3177.027
  58  3061.287
  59  2755.057
  60  2723.773
  61  2494.734
  62  2506.191
  63  2564.441
  64  3013.18
  65  3525.509
  66  3198.713
  67  2984.841
  68  2842.893
  69  3089.263
  70  3055.872
  71  3088.172
  72  3031.713
  73  2707.784
  74  2566.614
  75  3047.834
  76  3030.905
  77  2847.652
  78  2757.397
  79  2809.218
  80  2729.961
  81  2532.904
  82  2506.325
  83  2421.726
  84  2540.777
  85  2255.034
  86  2600.79
  87  2469.653
  88  2164.484
  89  2196.326
  90  2286.509
  91  2061.125
  92  2532.528
  93  2448.999
  94  2450.006
  95  2377.027
  96  2571.916
  97  2630.166
  98  2383.771
  99  2723.362
 100  2824.698
 101  2718.657
 102  3038.771
 103  2882.285
 104  2961.645
 105  3288.23
 106  3062.264
 107  3079.615
 108  3132.867
 109  3189.154
 110  3178.568
 111  2780.287
 112  2905.935
 113  3133.007
 114  3172.325
 115  3517.65
 116  3105.052
 117  2842.109
 118  2713.173
 119  2987.949
 120  3041.059
 121  2876.428
 122  3096.901
 123  2983.499
 124  2887.635
 125  2910.728
 126  3377.254
 127  3529.687
 128  3348.591
 129  2616.316
 130  2799.404
 131  2725.738
 132  1961.184
 133  2198.73
 134  2889.131
 135  2900.36
 136  2522.15
 137  2813.489
 138  3050.885
 139  3179.674
 140  3307.269
 141  3173.422
 142  2959.306
 143  2699.355
 144  2511.397
 145  2699.876
 146  3036.015
 147  3141.319
 148  3147.139
 149  2949.03
 150  2996.268
 151  3278.798
 152  3210.305
 153  3038.154
 154  3387.251
 155  3241.625
 156  3005.635
 157  3034.253
 158  2845.949
 159  3043.629
 160  3091.082
 161  2740.689
 162  2815.719
 163  2972.415
 164  2744.141
 165  2614.316
 166  2432.954
 167  2593.849
 168  2874.553
 169  2721.795
 170  2699.365
 171  2412.885
 172  2395.02
 173  2359.901
 174  2324.229
 175  2350.471
 176  2649.421
 177  2689.779
 178  2753.214
 179  2458.909
 180  2824.445
 181  2431.226
 182  2091.469
 183  2187.536
 184  2425.182
 185  2480.347
 186  2459.118
 187  2538.523
 188  2856.664
 189  2659.025
 190  2510.337
 191  2570.302
 192  2572.448
 193  2826.109
 194  2516.893
 195  3011.595
 196  3014.396
 197  2874.004
 198  2885.488
 199  2734.452
 200  2837.706
 201  2909.609
 202  2784.664
 203  2935.677
 204  3037.603
 205  2981.605
 206  2856.005
 207  2572.577
 208  2519.227
 209  3008.996
 210  3134.649
 211  3199.44
 212  3329.858
 213  3469.077
 214  3053.126
 215  2914.777
 216  3141.416
 217  2682.819
 218  2415.599
 219  2935.676
 220  3001.995
 221  2951.126
 222  2924.304
 223  2775.486
 224  2575.292
 225  2727.379
 226  2492.964
 227  2796.877
 228  3304.127
 229  3112.96
 230  2640.794
 231  2705.921
 232  2787.371
 233  2805.103
 234  2733.612
 235  2710.626
 236  2591.579
 237  2439.047
 238  2507.739
 239  2556.741
 240  2775.171
 241  2691.59
 242  2345.279
 243  2372.421
 244  2424.303
 245  2667.137
 246  2674.814
 247  2498.771
 248  2552.678
 249  2838.886
 250  2692.086
 251  2529.521
 252  2888.087
 253  2538.14
 254  2698.252
 255  2773.489
 256  2835.442
 257  2720.362
 258  2625.715
 259  2705.104
 260  2565.061
 261  2379.586
 262  2513.702
 263  2648.24
 264  3235.221
 265  3055.526
 266  2646.661
 267  2689.376
 268  2372.716
 269  1966.847
 270  2295.886
 271  2422.334
 272  2433.751
 273  2449.369
 274  2781.638
 275  2575.659
 276  2428.521
 277  2572.899
 278  2411.012
 279  2667.398
 280  3024.457
 281  2931
 282  2690.728
 283  2734.268
 284  2823.334
 285  2814.649
 286  2425.608
 287  2443.477
 288  2829.586
 289  2949.408
 290  3113.057
 291  3018.633
 292  2923.28
 293  3015.029
 294  3106.794
 295  3116.938
 296  3334.679
 297  3613.424
 298  4274.245
 299  4290.085
 300  3858.116
 301  3145.746
 302  2692.036
 303  2464.822
 304  2727.09
 305  2327.491
 306  2066.408
 307  2264.551
 308  2258.231
 309  2265.49
 310  2256.642
 311  2606.613
 312  2994.67
 313  2868.872
 314  2621.181
 315  2819.524
 316  2660.553
 317  2458.018
 318  2696.53
 319  2471.778
 320  2688.043
 321  2759.649
 322  2336.243
 323  2305.507
 324  2432.807
 325  2247.454
 326  2265.955
 327  2299.833
 328  2177.994
 329  2386.683
 330  2562.586
 331  2719.35
 332  3026.451
 333  2893.397
 334  2754.16
 335  3147.639
 336  2985.173
 337  2565.279
 338  2662.281
 339  2713.651
 340  3055.667
 341  2832.444
 342  2435.703
 343  2302.991
 344  2202.485
 345  2501.795
 346  2387.634
 347  2553.166
 348  2713.343
 349  2663.794
 350  2640.003
 351  2832.71
 352  2568.877
 353  2476.659
 354  2509.189
 355  2498.64
 356  2326.223
 357  2267.255
 358  2295.547
 359  2403.932
 360  2600.197
 361  2632.63
 362  2704.552
 363  2477.133
 364  2348.313
 365  2611.419
 366  2682.593
 367  2859.791
 368  2706.482
 369  2833.104
 370  2838.927
 371  2883.564
 372  2865.857
 373  2871.532
 374  2479.822
 375  2501.746
 376  3006.615
 377  2938.441
 378  2703.508
 379  2736.142
 380  2457.243
 381  2469.305
 382  2396.96
 383  2423.4
 384  2459.261
 385  2326.122
 386  2697.083
 387  2431.711
 388  2633.584
 389  2783.951
 390  2457.104
 391  2376.118
 392  2189.219
 393  2233.805
 394  2454.141
 395  2642.549
 396  2555.899
 397  2549.753
 398  2646.021
 399  2424.552
 400  2219.944
 401  2299.868
 402  2421.977
 403  2637.633
 404  2549.588
 405  2159.697
 406  1949.84
 407  1854.198
 408  1882.759
 409  2254.242
 410  2371.568
 411  2492.406
 412  2515.514
 413  2875.263
 414  2826.954
 415  2706.517
 416  2532.911
 417  2374.252
 418  2703.462
 419  2527.484
 420  2648.805
 421  2866.354
 422  3075.646
 423  2476.212
 424  2288.787
 425  2464.484
 426  2571.772
 427  2461.691
 428  2404.243
 429  2708.586
 430  2688.72
 431  2606.64
 432  2613.764
 433  2749.725
 434  2380.681
 435  2119.41
 436  2123.77
 437  2477.903
 438  2265.298
 439  2432.857
 440  2320.846
 441  2118.238
 442  2256.399
 443  2603.927
 444  2461.292
 445  2458.834
 446  2664.963
 447  2876.339
 448  2860.274
 449  2784.245
 450  2756.683
 451  2784.54
 452  2817.641
 453  3161.87
 454  2875.118
 455  3125.326
 456  3244.489
 457  3274.091
 458  3460.59
 459  3340.639
 460  3137.991
 461  3138.478
 462  3259.526
 463  3521.992
 464  3497.491
 465  3292.818
 466  3016.323
 467  2692.201
 468  2991.088
 469  2987
 470  3215.167
 471  3444.824
 472  3527.311
 473  2943.433
 474  2850.256
 475  2962.435
 476  2843.781
 477  2831.841
 478  2533.899
 479  2439.298
 480  2660.461
 481  2615.124
 482  2550.964
 483  2261.365
 484  2340.034
 485  2497.609
 486  2825.227
 487  2206.223
 488  2465.425
 489  2560.701
 490  2671.942
 491  2682.071
 492  2772.833
 493  2631.707
 494  2513.353
 495  2668.607
 496  2856.624
 497  2793.01
 498  2652.577
 499  2663.87
 500  2536.49
 501  2273.993
 502  2617.568
 503  2720.657
 504  2623.959
 505  2755.67
 506  2407.805
 507  2262.88
 508  2741.009
 509  2465.868
 510  2681.592
 511  2412.276
