# Input file       =  1211872896.115322_cleaned.dat
# Candidate        =  PSR_0332+5434
# Telescope        =  AR
# Epoch_topo       =  58270.306887908824
# Epoch_bary       =  N/A
# T_sample         =  0.002
# Data Folded      =  7340032
# Data Avg         =  0.42110538054839 
# Data StdDev      =  13.1090828786326 
# Profile Bins     =  1024
# Profile Avg      =  3018.48085311268 
# Profile StdDev   =  1109.86794281589 
# Reduced chi-sqr  =  1.115
# Prob(Noise)      <  0.00574   (~2.5 sigma)
# P_topo (ms)      =  714.516643280556  +/- 9.62e-05
# P'_topo (s/s)    =  -0                +/- 5.07e-11
# P''_topo (s/s^2) =  0                 +/- 2.24e-14
# P_bary (ms)      =  N/A
# P'_bary (s/s)    =  N/A
# P''_bary (s/s^2) =  N/A
# P_orb (s)        =  N/A
# asin(i)/c (s)    =  N/A
# eccentricity     =  N/A
# w (rad)          =  N/A
# T_peri           =  N/A
######################################################
   0  2580.281
   1  2493.266
   2  2972.115
   3  3748.566
   4  3321.425
   5  2741.921
   6  2377.897
   7  2626.712
   8  2778.654
   9  2968.032
  10  3691.018
  11  3637.766
  12  3658.627
  13  3175.065
  14  3594.582
  15  3245.007
  16  3405.245
  17  3252.39
  18  2915.056
  19  2522.633
  20  2616.536
  21  2908.943
  22  2708.556
  23  2291.526
  24  2584.043
  25  2808.166
  26  2559.112
  27  2501.015
  28  2769.407
  29  3282.533
  30  3436.798
  31  3665.743
  32  3420.623
  33  3144.747
  34  2931.089
  35  3264.747
  36  3414.895
  37  3379.243
  38  2882.458
  39  2478.658
  40  2529.313
  41  2722.274
  42  3020.778
  43  3519.025
  44  3440.221
  45  2919.359
  46  2309.461
  47  2112.35
  48  2113.882
  49  2184.747
  50  2329.234
  51  2875.356
  52  3090.304
  53  3477.375
  54  3523.508
  55  3933.95
  56  4112.297
  57  4020.227
  58  3732.107
  59  3325.4
  60  3062.629
  61  2501.548
  62  2180.486
  63  2261.989
  64  3116.256
  65  3677.351
  66  3743.025
  67  3729.987
  68  3277.897
  69  2819.67
  70  2034.695
  71  1850.079
  72  1956.039
  73  2049.708
  74  1892.288
  75  2238.415
  76  2633.023
  77  2924.861
  78  2941.92
  79  2598.366
  80  2634.148
  81  2561.918
  82  2358.228
  83  2284.394
  84  2703.63
  85  2144.091
  86  1704.785
  87  1490.228
  88  2675.173
  89  3079.817
  90  3213.693
  91  3484.808
  92  3426.955
  93  3727.116
  94  3212.916
  95  3189.686
  96  2750.626
  97  2467.933
  98  2321.101
  99  2227.755
 100  2038.473
 101  1796.137
 102  2976.542
 103  4518.51
 104  5328.037
 105  4738.398
 106  4092.124
 107  3642.709
 108  3582.655
 109  3420.479
 110  3631.294
 111  3258.281
 112  2897.11
 113  2736.744
 114  3212.152
 115  3419.964
 116  3429.194
 117  3909.692
 118  4223.1
 119  3736.402
 120  2939.551
 121  2778.18
 122  2883.396
 123  2880.628
 124  3360.452
 125  3724.989
 126  3421.896
 127  2489.262
 128  2223.096
 129  2317.086
 130  2408.401
 131  2489.745
 132  2334.302
 133  2530.091
 134  2601.77
 135  2743.19
 136  3055.336
 137  3066.884
 138  2691.058
 139  2315.654
 140  2095.659
 141  2035.757
 142  2706.458
 143  3586.849
 144  3543.463
 145  3487.14
 146  3011.681
 147  3368.798
 148  3521.722
 149  3315.113
 150  2630.991
 151  1958.383
 152  1529.461
 153  1515.147
 154  2093.851
 155  2780.509
 156  3468.929
 157  3564.672
 158  3467.437
 159  3495.488
 160  3154.419
 161  3233.692
 162  2883.107
 163  2682.889
 164  2344.568
 165  2363.223
 166  2593.133
 167  2957.913
 168  3482.076
 169  3337.133
 170  3194.777
 171  2935.022
 172  2963.79
 173  2625.346
 174  2877.567
 175  3436.872
 176  3435.792
 177  2875.646
 178  2703.021
 179  3095.746
 180  3422.229
 181  3041.042
 182  2860.444
 183  2944.512
 184  3645.469
 185  2997.039
 186  3484.226
 187  3650.686
 188  4302.735
 189  4038.276
 190  3567.365
 191  3237.051
 192  2829.779
 193  3079.541
 194  3036.883
 195  3378.121
 196  3973.852
 197  3967.243
 198  3720.581
 199  3716.764
 200  4041.777
 201  3723.374
 202  3526.036
 203  3431.719
 204  3297.019
 205  2849.505
 206  2890.846
 207  3572.489
 208  4199.088
 209  4295.346
 210  3892.471
 211  4184.859
 212  4512.878
 213  4308.192
 214  3859.455
 215  3441.877
 216  3147.674
 217  3096.438
 218  3713.339
 219  3545.401
 220  3922.651
 221  4144.048
 222  4443.492
 223  4075.13
 224  3400.821
 225  3186.432
 226  2935.249
 227  3592.323
 228  3998.252
 229  3698.006
 230  3145.371
 231  3263.008
 232  3461.37
 233  3457.52
 234  3700.804
 235  4108.883
 236  4361.606
 237  3779.933
 238  3455.457
 239  3755.911
 240  3727.22
 241  3530.833
 242  3295.553
 243  3548.903
 244  3500.392
 245  3181.248
 246  3409.227
 247  3262.534
 248  2946.833
 249  2642.444
 250  2634.899
 251  2981.15
 252  2863.501
 253  3437.119
 254  3326.706
 255  3427.21
 256  2906.203
 257  3245.191
 258  3399.09
 259  3256.857
 260  3051.563
 261  2807.534
 262  3671.441
 263  3302.88
 264  3398.139
 265  3142.784
 266  2914.972
 267  3248.584
 268  2985.374
 269  3042.233
 270  2368.822
 271  2373.01
 272  2727.228
 273  3125.01
 274  3243.138
 275  3572.277
 276  3628.039
 277  3377.844
 278  3506.753
 279  3460.012
 280  3030.82
 281  2646.293
 282  3025.689
 283  3461.997
 284  3304.589
 285  2673.764
 286  2294.108
 287  2574.098
 288  3357.317
 289  3446.167
 290  3147.414
 291  3331.28
 292  3599.092
 293  3901.247
 294  3143.547
 295  2802.838
 296  2825.167
 297  3058.833
 298  2742.849
 299  2117.953
 300  1785.151
 301  1908.809
 302  1638.655
 303  2143.352
 304  2491.856
 305  3232.083
 306  3496.108
 307  4299.593
 308  4495.504
 309  4495.657
 310  3453.931
 311  3125.354
 312  3216.455
 313  3283.614
 314  2604.364
 315  1919.536
 316  2481.61
 317  3321.466
 318  3814.733
 319  3694.12
 320  3902.312
 321  3517.299
 322  2894.702
 323  2577.341
 324  2459.681
 325  2703.245
 326  2540.397
 327  2696.9
 328  2458.297
 329  2870.742
 330  2478.794
 331  2731.146
 332  2988.317
 333  2871.869
 334  2090.897
 335  1270.874
 336  1883.428
 337  1944.863
 338  2509.54
 339  2895.145
 340  3116.499
 341  2935.636
 342  2934.468
 343  3631.683
 344  3318.235
 345  2800.069
 346  2367.097
 347  2528.413
 348  2268.112
 349  2275.219
 350  2326.132
 351  3029.521
 352  3551.12
 353  3386.878
 354  3089.264
 355  2957.858
 356  3191.337
 357  3115.343
 358  2806.763
 359  2882.973
 360  3114.034
 361  2865.659
 362  2723.532
 363  3179.661
 364  3588.837
 365  3799.423
 366  3485.481
 367  3276.896
 368  2870.255
 369  2916.524
 370  3352.535
 371  3663.884
 372  3815.897
 373  3260.718
 374  2901.476
 375  2656.457
 376  3268.369
 377  3574.519
 378  3740.586
 379  3786.625
 380  3928.522
 381  3941.596
 382  3533.999
 383  3761.414
 384  3700.06
 385  3618.626
 386  3699.966
 387  3784.66
 388  3481.165
 389  2553.357
 390  2911.303
 391  3383.696
 392  3720.203
 393  3368.484
 394  3151.615
 395  3377.349
 396  3174.46
 397  3256.59
 398  3463.51
 399  3716.358
 400  4051.615
 401  3794.887
 402  3371.794
 403  3413.233
 404  3786.194
 405  3717.943
 406  3493.649
 407  2982.738
 408  2427.91
 409  1415.152
 410  1297.675
 411  1803.626
 412  3139.535
 413  3475.118
 414  3869.345
 415  3622.559
 416  3560.822
 417  3074.641
 418  2669.672
 419  2925.981
 420  2777.897
 421  2531.716
 422  2203.989
 423  2590.48
 424  2635.184
 425  2991.676
 426  3493.007
 427  3176.348
 428  2815.155
 429  2505.04
 430  2976.852
 431  2839.392
 432  2379.588
 433  2224.657
 434  2484.023
 435  2571.393
 436  2374.124
 437  2447.018
 438  2509.663
 439  2512.276
 440  1885.893
 441  1493.968
 442  1305.872
 443  1480.068
 444  1814.704
 445  2223.417
 446  2446.375
 447  2666.426
 448  2487.236
 449  2325.487
 450  2135.361
 451  2552.436
 452  2464.136
 453  2408.34
 454  2681.701
 455  3432.933
 456  3378.11
 457  2646.769
 458  2395.375
 459  2574.654
 460  2428.025
 461  2213.8
 462  2526.449
 463  2899.93
 464  2533.492
 465  2467.862
 466  2626.864
 467  3110.337
 468  2410.362
 469  1703.898
 470  1652.942
 471  2136.644
 472  2579.74
 473  2679.417
 474  2692.584
 475  2804.293
 476  2605.989
 477  2995.478
 478  3181.719
 479  3147.583
 480  2302.174
 481  1906.828
 482  1908.111
 483  1932.434
 484  2234.094
 485  2636.092
 486  3278.487
 487  3656.643
 488  3558.923
 489  3656.032
 490  3372.315
 491  2758.251
 492  2362.563
 493  2060.414
 494  2362.539
 495  2513.141
 496  2607.826
 497  2882.109
 498  3293.996
 499  3734.497
 500  3408.228
 501  3287.907
 502  3213.216
 503  3040.913
 504  2796.518
 505  2508.097
 506  2837.219
 507  2918.481
 508  3485.438
 509  3396.605
 510  3189.557
 511  3190.015
 512  3157.897
 513  3449.173
 514  3901.532
 515  4176.952
 516  3875.574
 517  3020.121
 518  2892.378
 519  2807.113
 520  3049.742
 521  2737.254
 522  2284.431
 523  2069.634
 524  2103.053
 525  2613.184
 526  2934.294
 527  2956.09
 528  2601.053
 529  2777.586
 530  2977.039
 531  2640.009
 532  2191.477
 533  2152.139
 534  2471.72
 535  2302.266
 536  2575.362
 537  2181.646
 538  1857.451
 539  1587.593
 540  1787.456
 541  1906.141
 542  2195.416
 543  2517.987
 544  3062.547
 545  3586.635
 546  3880.98
 547  3837.454
 548  3526.837
 549  3309.247
 550  2875.77
 551  2267.361
 552  2450.543
 553  2180.707
 554  2305.703
 555  2499.796
 556  2844.188
 557  2665.461
 558  2163.372
 559  2156.889
 560  2321.81
 561  2031.291
 562  1730.847
 563  1707.602
 564  1988.919
 565  2009.89
 566  1687.17
 567  2098.523
 568  2316.779
 569  2388.088
 570  2206.228
 571  2544.306
 572  2684.693
 573  2636.661
 574  2391.534
 575  2467.419
 576  2525.998
 577  2121.247
 578  1290.228
 579  1066.55
 580  1568.178
 581  2113.902
 582  2094.934
 583  2419.852
 584  3018.263
 585  3470.565
 586  2871.272
 587  2382.71
 588  2459.142
 589  2681.111
 590  2752.276
 591  3221.439
 592  3848.5
 593  3760.388
 594  3828.114
 595  4447.164
 596  4777.361
 597  3969.328
 598  3252.607
 599  3115.739
 600  3657.28
 601  3464.22
 602  3437.172
 603  3773.293
 604  4070.521
 605  4068.308
 606  3928.646
 607  4272.15
 608  3903.905
 609  3269.562
 610  2700.3
 611  3344.3
 612  2940.61
 613  3150.723
 614  3298.361
 615  3962.1
 616  3598.918
 617  3454.786
 618  3280.25
 619  3133.498
 620  2630.684
 621  2905.146
 622  3163.204
 623  3149.121
 624  2677.733
 625  2528.031
 626  2652.357
 627  2467.591
 628  2503.314
 629  2866.051
 630  3109.165
 631  2995.568
 632  2875.969
 633  3209.149
 634  3361.209
 635  3403.945
 636  3145.988
 637  3193.186
 638  3134.397
 639  3149.963
 640  2272.809
 641  2292.685
 642  2446.694
 643  2817.341
 644  2653.028
 645  2803.412
 646  3275.808
 647  3070.057
 648  3224.974
 649  3226.835
 650  2692.177
 651  1957.333
 652  1606.823
 653  2414.617
 654  2921.204
 655  3001.419
 656  2522.532
 657  2402.279
 658  3073.627
 659  3575.598
 660  3296.388
 661  2837.436
 662  2514.865
 663  2411.002
 664  3023.999
 665  3629.689
 666  3523.644
 667  2537.898
 668  2154.292
 669  1854.53
 670  1484.052
 671  1447.831
 672  1955.609
 673  2871.097
 674  3691.214
 675  3903.975
 676  4140.066
 677  3953.305
 678  4292.224
 679  4442.048
 680  3908.108
 681  3418.855
 682  2803.045
 683  2650.243
 684  2304.535
 685  2826.671
 686  3205.235
 687  2674.436
 688  2034.513
 689  2025.871
 690  3227.131
 691  3418.409
 692  3678.31
 693  3262.373
 694  2875.566
 695  2679.225
 696  2815.973
 697  2747.175
 698  2292.293
 699  1466.03
 700  1418.289
 701  1745.194
 702  1991.862
 703  2343.823
 704  2662.985
 705  3309.129
 706  3676.59
 707  3743.528
 708  3973.361
 709  3148.957
 710  2783.234
 711  2520.463
 712  2827.325
 713  2953.036
 714  2748.6
 715  2859.478
 716  2765.31
 717  2834.734
 718  2950.917
 719  2972.861
 720  2759.718
 721  2429.642
 722  2775.079
 723  3180.35
 724  3330.164
 725  3645.618
 726  3538.858
 727  2974.885
 728  3124.101
 729  3631.675
 730  3734.276
 731  2981.527
 732  2609.881
 733  2911.899
 734  2805.464
 735  3056.676
 736  2761.278
 737  3174.354
 738  3453.821
 739  3888.709
 740  3992.639
 741  3712.156
 742  3697.623
 743  3296.915
 744  3522.844
 745  3609.646
 746  3666.148
 747  3763.256
 748  3833.505
 749  4028.604
 750  4239.541
 751  4198.164
 752  3872.062
 753  3485.818
 754  3557.55
 755  3316.867
 756  3337.655
 757  3230.625
 758  3471.722
 759  3641.747
 760  3878.292
 761  4238.139
 762  3749.252
 763  3952.869
 764  3726.349
 765  3753.562
 766  2981.487
 767  2795.202
 768  3136.397
 769  3111.264
 770  2674.048
 771  2448.504
 772  2570.536
 773  2717.592
 774  2738.719
 775  2941.941
 776  2785.346
 777  2933.012
 778  3129.26
 779  3910.003
 780  4155.331
 781  4536.883
 782  4360.773
 783  3961.903
 784  4011.556
 785  4042.727
 786  4158.77
 787  3898.813
 788  3605.781
 789  3338.091
 790  3149.738
 791  3467.646
 792  3461.2
 793  4103.796
 794  4238.738
 795  4136.294
 796  2849.282
 797  2192.73
 798  2293.778
 799  2177.543
 800  2098.071
 801  2216.56
 802  2681.844
 803  2876.592
 804  2659.857
 805  2368.833
 806  1850.345
 807  2036.031
 808  2964.706
 809  3920.812
 810  3589.552
 811  2800.313
 812  2340.366
 813  2620.607
 814  2542.358
 815  2363.867
 816  2620.191
 817  2652.818
 818  2306.638
 819  1820.062
 820  1994.094
 821  2053.347
 822  2482.09
 823  2720.766
 824  3092.671
 825  3147.672
 826  2657.676
 827  2625.48
 828  3258.133
 829  3570.472
 830  2787.936
 831  2003.186
 832  2219.929
 833  2388.805
 834  2204.377
 835  2389.746
 836  2555.902
 837  2054.046
 838  1866.276
 839  1758.444
 840  2174.663
 841  2107.596
 842  2493.955
 843  3097.688
 844  3433.19
 845  4049.825
 846  3801.878
 847  3390.637
 848  2322.395
 849  1550.482
 850  1540.938
 851  1749.218
 852  1984.918
 853  2635.49
 854  2985.698
 855  2749.794
 856  2720.652
 857  2843.831
 858  2288.502
 859  1988.333
 860  2363.454
 861  3634.907
 862  3426.055
 863  3026.177
 864  2947.199
 865  3375.415
 866  3801.044
 867  4154.571
 868  4509.144
 869  4214.624
 870  3622.47
 871  2850.284
 872  2799.981
 873  2173.535
 874  2173.598
 875  2433.661
 876  2434.326
 877  2730.346
 878  2291.739
 879  2446.884
 880  2336.181
 881  2677.933
 882  3113.59
 883  3174.984
 884  3292.397
 885  3384.274
 886  3217.594
 887  3331.565
 888  3360.341
 889  3220.013
 890  2830.035
 891  2245.318
 892  1540.026
 893  1707.958
 894  2443.814
 895  3216.974
 896  3635.137
 897  4047.637
 898  3954.957
 899  3972.21
 900  3633.479
 901  3599.566
 902  3172.384
 903  2825.39
 904  2637.798
 905  2210.259
 906  2638.016
 907  3044.57
 908  3711.355
 909  3694.415
 910  3519.096
 911  2895.097
 912  2721.931
 913  2688.949
 914  3034.385
 915  3111.522
 916  2818.303
 917  2987.967
 918  3053.471
 919  3648.304
 920  4013.971
 921  4037.453
 922  3372.634
 923  2635.537
 924  3189.018
 925  3128.72
 926  3825.613
 927  3789.114
 928  3836.613
 929  3698.939
 930  2843.814
 931  2726.9
 932  2542.189
 933  3196.655
 934  3253.428
 935  3197.128
 936  3058.949
 937  3443.163
 938  3880.02
 939  3696.674
 940  3452.798
 941  2931.049
 942  2703.623
 943  2028.097
 944  2142.587
 945  2131.84
 946  2558.356
 947  2768.647
 948  3518.097
 949  4225.706
 950  4372.917
 951  4485.914
 952  4034.189
 953  3578.728
 954  2567.597
 955  2513.39
 956  2750.445
 957  3297.392
 958  3750.922
 959  3388.188
 960  2725.272
 961  2055.924
 962  2718.094
 963  3166.372
 964  3533.829
 965  3739.453
 966  3873.802
 967  4005.84
 968  3402.156
 969  3532.657
 970  3070.494
 971  2901.394
 972  2963.646
 973  3318.923
 974  3628.578
 975  3105.777
 976  2898.41
 977  2828.942
 978  2706.081
 979  2973.293
 980  3205.031
 981  3495.48
 982  3333.728
 983  3356.587
 984  3146.807
 985  3130.773
 986  3335.007
 987  3583.339
 988  3879.637
 989  4002.362
 990  3988.946
 991  3435.712
 992  2713.948
 993  2713.422
 994  3279.164
 995  3473.312
 996  3011.521
 997  3315.878
 998  3571.65
 999  3628.875
1000  4015.552
1001  4318.014
1002  3823.815
1003  2952.829
1004  3004.179
1005  3630.519
1006  3081.519
1007  2831.767
1008  3122.721
1009  3270.643
1010  3001.558
1011  2974.986
1012  2835.668
1013  2738.622
1014  2360.453
1015  3155.023
1016  3759.84
1017  3974.078
1018  4108.384
1019  4233.735
1020  4185.36
1021  3391.244
1022  3105.981
1023  2975.176
