# Input file       =  1211030064.097827_cleaned.dat
# Candidate        =  PSR_0332+5434
# Telescope        =  AR
# Epoch_topo       =  58260.551887706330
# Epoch_bary       =  N/A
# T_sample         =  0.002
# Data Folded      =  7340032
# Data Avg         =  0.754978484060429
# Data StdDev      =  6.22952073160826 
# Profile Bins     =  512
# Profile Avg      =  10823.5580348573 
# Profile StdDev   =  745.879432367471 
# Reduced chi-sqr  =  1.289
# Prob(Noise)      <  1.04e-05   (~4.3 sigma)
# P_topo (ms)      =  714.526617972847  +/- 2.73e-05
# P'_topo (s/s)    =  -0                +/- 1.44e-11
# P''_topo (s/s^2) =  0                 +/- 6.37e-15
# P_bary (ms)      =  N/A
# P'_bary (s/s)    =  N/A
# P''_bary (s/s^2) =  N/A
# P_orb (s)        =  N/A
# asin(i)/c (s)    =  N/A
# eccentricity     =  N/A
# w (rad)          =  N/A
# T_peri           =  N/A
######################################################
   0  11382.63
   1  11109.44
   2  10680.66
   3  10513.21
   4  10681.61
   5  10754.16
   6  11022.7
   7  11184.29
   8  10912.27
   9  10013.95
  10  9651.333
  11  9521.028
  12  10252.63
  13  11492.86
  14  11609.54
  15  10862.72
  16  10217.24
  17  10143.89
  18  10122.98
  19  10328.53
  20  10262.29
  21  10501.74
  22  10502.29
  23  10518.56
  24  10170.4
  25  10344.48
  26  10447.02
  27  10994.96
  28  11413.31
  29  11258.6
  30  10855.23
  31  10493.98
  32  10480.65
  33  10662.63
  34  11251.52
  35  11042.47
  36  10766.72
  37  10762.4
  38  10227.49
  39  9970.785
  40  10227.97
  41  10221.67
  42  9853.553
  43  9826.146
  44  9346.401
  45  9873.518
  46  9771.4
  47  10510.79
  48  11115.42
  49  10246.55
  50  9916.136
  51  9723.727
  52  10379.16
  53  11367.76
  54  11909.75
  55  11489.67
  56  10950.21
  57  9980.733
  58  9346.598
  59  9999.276
  60  10639.96
  61  11492.25
  62  11260.61
  63  10442.92
  64  9639.248
  65  9501.226
  66  9540.574
  67  10381.66
  68  10579.79
  69  10015.08
  70  10066.18
  71  9968.008
  72  10533.69
  73  10450.91
  74  10776.26
  75  10230.27
  76  10083.76
  77  9741.046
  78  10437.86
  79  11298.04
  80  11774.06
  81  11612.64
  82  10503.02
  83  10324.73
  84  9828.686
  85  10176.82
  86  11236.49
  87  12055.84
  88  12556.52
  89  12576.97
  90  12205.29
  91  11996.65
  92  12518.76
  93  12747.48
  94  12096.23
  95  11013.55
  96  10340.91
  97  10629.27
  98  10710.15
  99  10967.43
 100  10853.93
 101  11048.64
 102  10374.27
 103  10001.17
 104  10061.72
 105  10516.16
 106  11173.9
 107  11386.2
 108  10869.9
 109  9829.348
 110  9480.627
 111  9840.761
 112  10410.68
 113  10962.35
 114  11226.24
 115  10986.38
 116  10705.91
 117  9976.64
 118  10072.35
 119  10559.15
 120  10849.22
 121  10654.95
 122  10646.76
 123  10582.85
 124  10343.31
 125  10866.15
 126  11530.62
 127  11803.78
 128  11501.57
 129  11297
 130  10500.86
 131  10797.85
 132  11101.57
 133  11491.03
 134  11737.36
 135  11380.03
 136  11197.28
 137  10623.87
 138  10307.1
 139  10728.69
 140  11437.04
 141  11396.16
 142  10716.15
 143  10391.36
 144  10272.51
 145  10844.74
 146  11710.44
 147  11858.45
 148  11707.23
 149  10973.46
 150  10894.88
 151  11446.74
 152  11480.43
 153  11783.08
 154  11310.11
 155  10896.73
 156  11092.7
 157  10412.68
 158  10885.56
 159  11599.41
 160  12102.89
 161  11878.34
 162  10988.08
 163  10434.01
 164  10532.65
 165  11109.82
 166  11741.17
 167  12153.44
 168  11757.64
 169  10792.72
 170  10147.42
 171  10249.84
 172  10888.63
 173  11652.09
 174  11486.45
 175  10858.97
 176  10698.18
 177  10686.28
 178  11253.12
 179  11864.92
 180  12109.08
 181  11676.51
 182  11366.31
 183  10670.26
 184  10735.36
 185  10930.34
 186  11530.27
 187  12149.65
 188  11702.45
 189  11421.48
 190  10570.62
 191  10963.33
 192  11252.12
 193  11635.27
 194  11679.61
 195  10804.66
 196  10212.25
 197  10033.1
 198  10037.72
 199  11219.21
 200  12019.18
 201  11497
 202  11488.01
 203  10882.16
 204  10466.93
 205  10629.83
 206  11349.26
 207  11708.62
 208  11303.25
 209  11229.03
 210  10618.95
 211  10762.14
 212  11525.18
 213  11191.6
 214  11207.6
 215  10829.14
 216  10283
 217  10424
 218  11139.79
 219  11759.84
 220  12082.58
 221  11576.56
 222  11206
 223  10757.77
 224  10781.58
 225  10778.67
 226  11449.53
 227  11658.86
 228  11380.11
 229  11003.1
 230  10627.21
 231  11044.33
 232  11091.72
 233  11471.58
 234  11270.28
 235  10964.24
 236  11073.15
 237  11939.37
 238  11947.1
 239  11620.94
 240  11600.26
 241  11083.4
 242  10609.59
 243  10397.39
 244  11076.96
 245  11424.66
 246  11722.71
 247  11945.45
 248  11325.05
 249  11224.01
 250  10754.24
 251  10263.21
 252  10812.76
 253  11498.69
 254  11179.52
 255  11248.34
 256  10258.69
 257  9586.637
 258  10103.86
 259  10380.93
 260  10682.97
 261  10772.45
 262  10878.52
 263  10770.54
 264  10907.33
 265  11124.55
 266  11507.94
 267  11440.28
 268  11415.56
 269  10538.37
 270  10772.1
 271  11585.68
 272  11721.01
 273  11772.35
 274  11544.35
 275  10935.58
 276  10106.47
 277  10543.78
 278  11101.45
 279  11401.69
 280  11519.68
 281  11243.83
 282  10518.03
 283  10317
 284  10890.23
 285  11550.06
 286  11377.14
 287  11321.53
 288  11346.84
 289  11234.93
 290  11092.17
 291  11568.96
 292  12013.08
 293  12669.83
 294  11971.92
 295  11269.13
 296  10889.81
 297  10387.67
 298  10842.48
 299  11345.81
 300  11892.59
 301  11812.46
 302  11230.46
 303  10822.25
 304  10944.79
 305  11388.54
 306  11696.81
 307  11143.36
 308  11244.04
 309  10916.51
 310  11393.23
 311  10970.44
 312  11107.91
 313  11283.42
 314  10925.26
 315  11152.87
 316  11161.67
 317  11071.81
 318  11184.19
 319  11427.96
 320  11333.36
 321  11556.38
 322  11242.88
 323  11199.4
 324  10888.71
 325  10511.99
 326  11345.33
 327  11745.61
 328  10969.85
 329  10784.18
 330  10982.07
 331  10520.86
 332  10309.88
 333  11250.72
 334  11281.65
 335  10956.32
 336  10254.58
 337  10438.65
 338  10425.89
 339  10113.68
 340  10400.65
 341  11086
 342  10788.23
 343  10727.82
 344  10577.64
 345  10975.38
 346  11351.3
 347  10562.94
 348  10397.3
 349  10398.42
 350  10676.48
 351  10685.75
 352  11073.55
 353  11415.55
 354  11130.35
 355  10870.41
 356  10336.67
 357  10525.47
 358  10669.79
 359  11185.71
 360  10945.35
 361  11510.71
 362  11149.82
 363  10987.7
 364  10291.9
 365  10429.56
 366  11169.69
 367  11599.09
 368  11917.96
 369  10324.2
 370  9708.874
 371  9878.096
 372  10327.68
 373  10638.71
 374  10947.13
 375  10937.2
 376  10883
 377  10594.94
 378  10312.25
 379  10904.48
 380  10586.61
 381  10770.01
 382  10435.59
 383  10469.72
 384  10388.01
 385  10204.03
 386  10553.64
 387  10287.87
 388  10052.75
 389  10030.2
 390  10833.75
 391  10585.91
 392  10419.13
 393  10810.2
 394  10803.29
 395  10426.59
 396  10477.92
 397  10570.15
 398  10662.9
 399  11343.73
 400  11119.45
 401  11615.48
 402  10401.93
 403  9764.618
 404  9443.063
 405  10048.33
 406  11128.98
 407  10933.97
 408  10661.82
 409  10451.83
 410  9825.509
 411  9699.662
 412  10655.79
 413  10687.34
 414  10766.66
 415  10196.9
 416  10367.41
 417  10059.53
 418  10535.98
 419  10789.94
 420  10644.16
 421  10624.68
 422  10376.75
 423  10755.58
 424  10454.46
 425  10480.35
 426  10945.9
 427  11181.81
 428  10462.27
 429  10359.04
 430  10371.49
 431  10103.95
 432  10369.43
 433  10623.39
 434  10944.75
 435  9974.54
 436  9788.995
 437  9626.95
 438  9783.146
 439  10460.59
 440  10758.72
 441  11120.62
 442  11014.27
 443  10546.8
 444  9998.828
 445  10574.17
 446  11122.19
 447  10281.36
 448  9911.028
 449  10217.69
 450  10272.97
 451  10616.42
 452  11110.99
 453  10559.56
 454  10231.59
 455  10115.17
 456  10791.02
 457  11112.54
 458  11585.94
 459  11876.82
 460  12108.61
 461  11302.74
 462  10200.04
 463  9922.31
 464  10062.36
 465  10850.94
 466  11168.58
 467  11052.61
 468  10093.91
 469  10022.37
 470  9426.123
 471  9993.447
 472  10203.72
 473  10464.27
 474  10566.5
 475  9944.019
 476  10125.46
 477  10410.19
 478  11172.44
 479  10720.94
 480  10453.87
 481  10445.31
 482  10580.26
 483  9980.682
 484  9893.965
 485  10372.41
 486  11079.66
 487  11560.6
 488  10805.11
 489  10547
 490  9652.843
 491  9836.733
 492  10489.85
 493  10903.74
 494  10520.67
 495  10332.05
 496  10421.82
 497  10145.89
 498  10431.23
 499  10794.84
 500  10788.79
 501  10692.12
 502  10449.73
 503  10012.37
 504  10280
 505  10615.61
 506  10890.61
 507  11480.1
 508  11112.21
 509  10197.36
 510  10008.63
 511  10695.25
