# Input file       =  1211427572.105833-PSRB0329-2ms-sampling-dd.dat
# Candidate        =  PSR_0332+5434
# Telescope        =  AR
# Epoch_topo       =  58265.152674836034
# Epoch_bary       =  N/A
# T_sample         =  0.002
# Data Folded      =  7143424
# Data Avg         =  1.49118536554667e-10
# Data StdDev      =  6.42153275406805 
# Profile Bins     =  512
# Profile Avg      =  -0.121815914412044
# Profile StdDev   =  758.502359114464 
# Reduced chi-sqr  =  0.510
# Prob(Noise)      <  1   (~0.0 sigma)
# P_topo (ms)      =  714.521660841111  +/- 0.000187
# P'_topo (s/s)    =  -0                +/- 1.02e-10
# P''_topo (s/s^2) =  0                 +/- 4.61e-14
# P_bary (ms)      =  N/A
# P'_bary (s/s)    =  N/A
# P''_bary (s/s^2) =  N/A
# P_orb (s)        =  N/A
# asin(i)/c (s)    =  N/A
# eccentricity     =  N/A
# w (rad)          =  N/A
# T_peri           =  N/A
######################################################
   0  415.6758
   1  380.4584
   2  78.4366
   3  83.727
   4  -129.7355
   5  -129.2048
   6  -51.6421
   7  93.39672
   8  202.1694
   9  553.0907
  10  149.1187
  11  -75.4752
  12  -580.5891
  13  -169.3227
  14  -319.4549
  15  40.06555
  16  159.3536
  17  95.55705
  18  -19.34307
  19  237.8746
  20  374.3001
  21  228.5595
  22  -55.13099
  23  668.3982
  24  384.0293
  25  496.0645
  26  322.2133
  27  275.9428
  28  415.0495
  29  300.6456
  30  -13.19764
  31  -790.2165
  32  -644.6806
  33  132.2479
  34  251.3637
  35  472.5798
  36  555.9924
  37  762.1482
  38  341.5951
  39  -642.1926
  40  -157.383
  41  -0.1352737
  42  -19.41179
  43  -109.3339
  44  181.4725
  45  208.074
  46  -298.2612
  47  -295.6636
  48  -645.4815
  49  -305.9166
  50  56.05182
  51  -122.3806
  52  -379.6856
  53  -137.6868
  54  -19.57391
  55  -120.9754
  56  18.45278
  57  151.7328
  58  305.8543
  59  -168.6049
  60  -194.3285
  61  106.6074
  62  2.631582
  63  72.68655
  64  -1.626911
  65  19.96673
  66  -470.237
  67  -560.4413
  68  -167.7853
  69  90.725
  70  -80.58247
  71  -257.6103
  72  -412.1913
  73  -774.8563
  74  -66.06182
  75  421.8036
  76  423.3296
  77  4.940641
  78  -557.9994
  79  -495.4507
  80  -555.6555
  81  -12.62461
  82  444.9601
  83  387.9228
  84  238.1395
  85  114.0215
  86  -63.06213
  87  57.26629
  88  -469.2022
  89  -546.2668
  90  -21.94383
  91  463.4196
  92  152.5769
  93  -340.6975
  94  -359.0868
  95  -121.4959
  96  -398.2348
  97  -481.5501
  98  -509.2366
  99  -286.7693
 100  -172.2781
 101  -31.56088
 102  -142.0066
 103  23.28534
 104  -176.0776
 105  -561.196
 106  -294.4538
 107  -499.3343
 108  -392.284
 109  -144.3353
 110  -54.9624
 111  50.13581
 112  -220.171
 113  -575.4799
 114  -1299.038
 115  -989.4333
 116  -381.7951
 117  297.0951
 118  -204.927
 119  -226.1768
 120  -82.88739
 121  -1.694384
 122  -273.064
 123  -282.8472
 124  -165.7607
 125  -693.5165
 126  -915.4166
 127  -473.8114
 128  -209.4466
 129  -180.5558
 130  -431.2278
 131  14.6025
 132  -199.656
 133  -302.6887
 134  -221.9797
 135  -704.0925
 136  -306.0171
 137  134.793
 138  455.6612
 139  415.2941
 140  413.3165
 141  315.9739
 142  98.42032
 143  143.6304
 144  421.1807
 145  -3.990679
 146  -42.2076
 147  -267.009
 148  -420.6303
 149  28.3718
 150  243.6798
 151  23.60548
 152  191.1578
 153  79.19297
 154  -214.0862
 155  -326.9507
 156  -120.3753
 157  373.968
 158  186.5523
 159  90.55878
 160  38.08884
 161  -117.443
 162  196.2674
 163  283.6809
 164  4.305429
 165  391.2468
 166  70.30707
 167  -355.1523
 168  -242.3079
 169  209.0873
 170  456.9424
 171  128.8256
 172  -116.0033
 173  767.3915
 174  825.5255
 175  398.7716
 176  33.15254
 177  99.52843
 178  675.2986
 179  299.7365
 180  256.5481
 181  290.8592
 182  347.175
 183  748.71
 184  868.0314
 185  1034.501
 186  539.7581
 187  164.2216
 188  332.4919
 189  677.7019
 190  367.481
 191  571.4515
 192  423.7899
 193  335.744
 194  657.1854
 195  713.5513
 196  360.879
 197  -8.180916
 198  129.1952
 199  327.8265
 200  245.7692
 201  332.9156
 202  640.6365
 203  447.3292
 204  303.0231
 205  607.1746
 206  312.4172
 207  91.76975
 208  14.1361
 209  326.5511
 210  748.4363
 211  732.8468
 212  746.5233
 213  466.8894
 214  594.2192
 215  466.6399
 216  516.4331
 217  219.0064
 218  142.2861
 219  634.4673
 220  730.7358
 221  602.6278
 222  471.5931
 223  429.3914
 224  508.0315
 225  583.1498
 226  485.8322
 227  337.7319
 228  -67.17978
 229  166.8202
 230  554.326
 231  507.3838
 232  201.9107
 233  422.811
 234  797.4079
 235  338.5856
 236  -213.9086
 237  155.915
 238  407.3695
 239  140.8649
 240  807.1153
 241  640.7941
 242  450.2642
 243  -121.9669
 244  338.4758
 245  780.5826
 246  838.7296
 247  730.2685
 248  433.0194
 249  75.91005
 250  -216.7748
 251  417.4516
 252  506.8563
 253  92.62218
 254  81.74496
 255  164.6254
 256  476.5484
 257  115.3811
 258  114.8865
 259  -84.97517
 260  370.3387
 261  81.21367
 262  -113.6392
 263  -158.9088
 264  35.92602
 265  218.7928
 266  107.5922
 267  517.2225
 268  487.7025
 269  139.87
 270  -336.2499
 271  -390.9309
 272  487.0836
 273  531.8869
 274  327.0859
 275  -25.16445
 276  -77.48872
 277  -184.2852
 278  71.58498
 279  252.5779
 280  179.5199
 281  413.3288
 282  23.76228
 283  71.70531
 284  37.26577
 285  375.5061
 286  205.558
 287  -197.274
 288  380.9453
 289  -84.00858
 290  -137.6756
 291  -164.2021
 292  279.5438
 293  380.0212
 294  255.5972
 295  -479.7982
 296  -332.8769
 297  129.1209
 298  292.0081
 299  78.75271
 300  -6.553529
 301  108.0341
 302  12.38986
 303  -164.6733
 304  -192.3279
 305  -514.7932
 306  -466.3156
 307  -38.58085
 308  -158.9538
 309  109.7138
 310  238.1403
 311  -84.3691
 312  -157.3992
 313  -501.5594
 314  -229.8597
 315  -279.2967
 316  -599.8389
 317  -259.4385
 318  -121.6336
 319  -377.9034
 320  72.4646
 321  75.41502
 322  -87.67424
 323  159.9753
 324  -11.49719
 325  -446.6273
 326  -181.6809
 327  39.5767
 328  218.9496
 329  22.2441
 330  -179.8368
 331  -524.0824
 332  -629.0676
 333  -547.5499
 334  160.0372
 335  312.6324
 336  -406.0566
 337  -253.9536
 338  5.430628
 339  104.4115
 340  13.24138
 341  -96.11996
 342  42.36446
 343  5.273253
 344  130.1013
 345  -124.9788
 346  -204.6758
 347  58.82241
 348  -312.1801
 349  -182.8975
 350  23.90524
 351  -178.7917
 352  -292.906
 353  195.1674
 354  -22.57261
 355  133.3332
 356  -11.08643
 357  -519.5682
 358  -691.9404
 359  -477.9707
 360  -48.90082
 361  -20.12726
 362  -171.8632
 363  7.650341
 364  397.1553
 365  100.0489
 366  57.26188
 367  -72.8946
 368  169.2134
 369  -298.0071
 370  -293.1474
 371  -10.25969
 372  -121.9765
 373  -149.3968
 374  -344.9637
 375  -234.7737
 376  35.49988
 377  140.4758
 378  -253.3078
 379  -483.1009
 380  183.0482
 381  386.4118
 382  699.6632
 383  980.8124
 384  1370.026
 385  1608.383
 386  1154.332
 387  1069.57
 388  102.9109
 389  -448.3822
 390  -639.832
 391  -442.1063
 392  88.3053
 393  -153.3314
 394  -556.3013
 395  -773.609
 396  -692.3138
 397  -565.6418
 398  -223.9693
 399  -122.674
 400  35.89605
 401  -107.3549
 402  129.9971
 403  341.4294
 404  319.8473
 405  -225.5748
 406  -505.9491
 407  27.29056
 408  -235.1942
 409  -260.9928
 410  -270.9208
 411  -299.7755
 412  101.8057
 413  -48.79586
 414  -205.6063
 415  -581.8347
 416  -733.8479
 417  -138.0531
 418  -148.873
 419  -607.9245
 420  -536.5208
 421  -577.7056
 422  -352.1952
 423  -470.8322
 424  -643.606
 425  -741.3629
 426  -562.8104
 427  -142.141
 428  -412.8938
 429  -357.7616
 430  -108.0105
 431  -256.0899
 432  -89.1882
 433  120.7049
 434  -2.706198
 435  -968.7241
 436  -229.0993
 437  -93.20043
 438  220.9862
 439  -102.2646
 440  -569.9236
 441  -486.1976
 442  -786.7264
 443  -785.2612
 444  -216.8125
 445  -77.24871
 446  -64.79455
 447  175.6925
 448  100.6192
 449  226.2149
 450  17.88202
 451  -273.24
 452  -681.0414
 453  -962.0592
 454  -762.2392
 455  -719.2219
 456  -563.8977
 457  -558.8752
 458  -565.3161
 459  -134.1043
 460  -970.4486
 461  -897.2407
 462  -139.1191
 463  -3.5772
 464  -348.0514
 465  -355.7509
 466  79.0832
 467  -148.9652
 468  -188.8321
 469  -414.5164
 470  -303.7934
 471  -117.8874
 472  -452.0887
 473  -234.4983
 474  390.0797
 475  462.6752
 476  -143.7711
 477  -716.3704
 478  -250.0896
 479  -308.8535
 480  -520.4636
 481  -559.8245
 482  -616.3138
 483  44.48557
 484  12.96988
 485  55.24981
 486  -275.8559
 487  -176.1816
 488  -347.8847
 489  -632.9327
 490  -79.26698
 491  59.31593
 492  272.1288
 493  -150.9447
 494  167.5134
 495  357.596
 496  14.76954
 497  -177.9223
 498  -85.52737
 499  254.6926
 500  419.7895
 501  288.6196
 502  116.1442
 503  402.6614
 504  345.7457
 505  590.684
 506  411.2355
 507  -91.69458
 508  250.8365
 509  63.54337
 510  250.423
 511  -1.518326
