# Input file       =  1211599777.101234-PSRB0329-2ms-sampling-dd.dat
# Candidate        =  PSR_0332+5434
# Telescope        =  AR
# Epoch_topo       =  58267.145788208727
# Epoch_bary       =  N/A
# T_sample         =  0.002
# Data Folded      =  7208960
# Data Avg         =  -1.03736759218903e-09
# Data StdDev      =  6.36117394814729 
# Profile Bins     =  512
# Profile Avg      =  -0.0191102369612849
# Profile StdDev   =  754.811657766436 
# Reduced chi-sqr  =  0.893
# Prob(Noise)      <  0.961   (~0.0 sigma)
# P_topo (ms)      =  714.51971391436   +/- 3.98e-05
# P'_topo (s/s)    =  -0                +/- 2.14e-11
# P''_topo (s/s^2) =  0                 +/- 9.61e-15
# P_bary (ms)      =  N/A
# P'_bary (s/s)    =  N/A
# P''_bary (s/s^2) =  N/A
# P_orb (s)        =  N/A
# asin(i)/c (s)    =  N/A
# eccentricity     =  N/A
# w (rad)          =  N/A
# T_peri           =  N/A
######################################################
   0  550.5124
   1  452.0706
   2  117.9047
   3  -324.9526
   4  -615.2595
   5  -280.2779
   6  -213.5327
   7  -600.2675
   8  -203.2601
   9  227.6488
  10  203.6657
  11  -434.7815
  12  -76.56387
  13  -125.222
  14  -355.6872
  15  -705.6593
  16  -264.6441
  17  605.7424
  18  831.9711
  19  91.08514
  20  -348.2297
  21  -690.1885
  22  -788.5384
  23  -679.8633
  24  45.51687
  25  777.9247
  26  525.7249
  27  229.8334
  28  -498.4523
  29  -286.6193
  30  -19.05606
  31  -106.6525
  32  -128.6043
  33  362.5614
  34  537.6262
  35  465.242
  36  233.2857
  37  -504.1432
  38  -676.5153
  39  -675.8339
  40  -663.2482
  41  -405.9511
  42  421.2317
  43  430.5272
  44  -137.1386
  45  -617.9195
  46  -521.1671
  47  -586.0137
  48  -549.3727
  49  -29.47776
  50  475.9368
  51  665.7893
  52  126.8164
  53  -200.4327
  54  -263.8184
  55  -609.3489
  56  -1036.466
  57  -607.6024
  58  -262.8265
  59  -71.37889
  60  625.9432
  61  543.2415
  62  530.1782
  63  127.973
  64  -71.66649
  65  -229.8753
  66  -159.8507
  67  629.0258
  68  416.3587
  69  636.5497
  70  348.986
  71  1253.114
  72  949.8071
  73  686.747
  74  1375.211
  75  2093.911
  76  2593.857
  77  1857.772
  78  1363.222
  79  612.2802
  80  754.6234
  81  286.9817
  82  390.7977
  83  820.8311
  84  585.3115
  85  268.081
  86  -70.60979
  87  328.5997
  88  181.6125
  89  25.22262
  90  464.9169
  91  614.7728
  92  788.639
  93  255.446
  94  -15.55335
  95  -203.8566
  96  -30.89731
  97  6.956065
  98  -27.59569
  99  853.8436
 100  905.4446
 101  706.8619
 102  216.8619
 103  24.40407
 104  338.257
 105  -109.6297
 106  33.06881
 107  945.0796
 108  949.6109
 109  572.421
 110  -489.8525
 111  -423.1192
 112  48.20789
 113  164.3521
 114  -201.3272
 115  -320.6431
 116  458.3229
 117  159.4782
 118  244.9411
 119  -689.1688
 120  -674.2733
 121  -949.9323
 122  -1034.105
 123  -763.2453
 124  -48.92414
 125  527.7609
 126  -38.78438
 127  -155.8659
 128  -578.4035
 129  -708.9863
 130  -1199.074
 131  -785.509
 132  -467.391
 133  106.7724
 134  508.4432
 135  -360.8331
 136  -110.2162
 137  -686.1378
 138  -1127.551
 139  -1172.185
 140  -1002.044
 141  84.16176
 142  102.9565
 143  18.78607
 144  -247.0138
 145  -70.26475
 146  -172.0934
 147  -946.5671
 148  -853.7299
 149  231.2379
 150  555.8657
 151  269.2455
 152  -89.42857
 153  -41.07693
 154  -612.6644
 155  -1046.682
 156  -349.927
 157  34.00257
 158  336.6115
 159  76.57492
 160  73.28167
 161  -214.5656
 162  100.5748
 163  -68.79759
 164  32.77209
 165  159.5263
 166  470.3096
 167  -127.8747
 168  -658.7421
 169  -276.5409
 170  -258.6947
 171  -410.9206
 172  -683.5619
 173  -185.496
 174  224.6054
 175  37.66806
 176  -277.5632
 177  -401.7853
 178  71.82066
 179  -233.4506
 180  -552.4192
 181  -262.6437
 182  442.1608
 183  552.2399
 184  39.87471
 185  -119.6478
 186  -636.5208
 187  -881.0406
 188  -846.0416
 189  -477.7268
 190  381.232
 191  319.054
 192  62.72813
 193  -398.6562
 194  -490.3878
 195  -628.0653
 196  -640.2642
 197  -439.433
 198  -13.55698
 199  494.129
 200  202.09
 201  -338.8056
 202  -719.1323
 203  -787.8824
 204  -1018.711
 205  -885.0784
 206  -852.2414
 207  37.70885
 208  206.2041
 209  -269.1891
 210  -327.9196
 211  -101.7115
 212  -393.6154
 213  -715.1704
 214  -837.782
 215  -178.0093
 216  333.9948
 217  383.9293
 218  -200.8728
 219  -471.5349
 220  -595.2846
 221  -1361.667
 222  -929.597
 223  -208.9596
 224  352.1157
 225  619.5287
 226  139.2998
 227  -76.96511
 228  -340.6539
 229  -641.9279
 230  -706.1555
 231  413.6668
 232  878.8015
 233  120.9968
 234  -192.8552
 235  -229.5748
 236  93.83531
 237  -743.2939
 238  -685.6942
 239  -538.908
 240  236.0072
 241  714.6529
 242  511.1843
 243  708.5974
 244  128.2393
 245  240.6151
 246  -460.5906
 247  74.10764
 248  567.1981
 249  581.3082
 250  189.6287
 251  54.93195
 252  217.2133
 253  251.2428
 254  189.0406
 255  -283.5977
 256  142.255
 257  529.5655
 258  469.8034
 259  218.0937
 260  377.5007
 261  610.0947
 262  236.2773
 263  -367.9711
 264  -20.95375
 265  583.0378
 266  199.6254
 267  -134.4735
 268  -283.1656
 269  54.28411
 270  78.84977
 271  -310.6335
 272  203.6855
 273  381.5311
 274  672.5965
 275  632.2759
 276  -11.82234
 277  -108.1411
 278  154.8325
 279  -373.9593
 280  -453.4389
 281  322.048
 282  539.0623
 283  176.9199
 284  -425.0123
 285  -166.2211
 286  -586.9184
 287  -895.9753
 288  -756.5268
 289  157.5284
 290  720.0142
 291  713.8491
 292  327.5641
 293  98.16299
 294  -137.2377
 295  -711.4103
 296  -799.3777
 297  -478.7803
 298  628.8207
 299  482.0148
 300  496.6098
 301  128.1033
 302  -453.4984
 303  -603.0965
 304  -835.3193
 305  -569.9903
 306  191.6026
 307  787.057
 308  935.3821
 309  846.9521
 310  296.0291
 311  70.02773
 312  0.1216996
 313  73.63298
 314  450.9305
 315  825.795
 316  1030.274
 317  471.9649
 318  -23.7764
 319  282.4308
 320  -302.2754
 321  -327.3012
 322  -159.6783
 323  927.625
 324  478.2672
 325  360.5775
 326  151.4498
 327  610.6409
 328  656.7021
 329  -8.738468
 330  -26.53869
 331  121.057
 332  154.5824
 333  -72.07197
 334  181.6884
 335  658.8129
 336  748.324
 337  -58.87691
 338  -130.2842
 339  123.529
 340  453.1168
 341  143.9263
 342  144.4124
 343  263.4791
 344  183.2575
 345  111.5247
 346  268.6412
 347  747.9698
 348  778.97
 349  241.492
 350  -101.2631
 351  -148.9551
 352  118.5025
 353  -85.70628
 354  13.01997
 355  545.4287
 356  626.7729
 357  494.0776
 358  151.2154
 359  268.2841
 360  320.7353
 361  411.305
 362  277.9219
 363  276.8438
 364  544.4484
 365  895.7044
 366  455.0298
 367  93.31726
 368  -179.1328
 369  -482.9586
 370  -478.6785
 371  127.0104
 372  945.847
 373  794.7701
 374  246.828
 375  -59.93039
 376  -277.1511
 377  -569.9979
 378  -920.3768
 379  -861.8882
 380  53.94057
 381  648.4305
 382  400.2137
 383  151.5336
 384  -192.5879
 385  -636.5247
 386  -1092.605
 387  -1063.755
 388  -459.0388
 389  152.243
 390  577.4439
 391  36.52324
 392  -282.2883
 393  -198.2848
 394  -457.9202
 395  -604.1828
 396  -427.3183
 397  61.55733
 398  552.7535
 399  360.0758
 400  -286.0872
 401  26.49611
 402  -292.3287
 403  -653.0851
 404  -460.565
 405  -97.38036
 406  262.9441
 407  280.2327
 408  403.6322
 409  605.9197
 410  520.7177
 411  110.0021
 412  223.5468
 413  249.2478
 414  846.4269
 415  164.9121
 416  -260.1967
 417  -327.4259
 418  79.82822
 419  -15.34864
 420  -396.6289
 421  261.3528
 422  565.62
 423  630.1216
 424  168.5719
 425  392.3612
 426  76.7662
 427  17.95981
 428  -387.7263
 429  -130.6859
 430  277.7575
 431  635.5561
 432  171.6963
 433  -179.1197
 434  7.554256
 435  -81.00512
 436  20.70327
 437  369.5887
 438  625.2249
 439  560.1318
 440  49.66982
 441  185.874
 442  176.033
 443  260.8919
 444  -62.64331
 445  -325.4789
 446  425.0958
 447  827.7624
 448  470.1852
 449  -304.6217
 450  -510.5771
 451  -191.6798
 452  -786.441
 453  -712.4238
 454  408.2188
 455  964.6545
 456  404.8113
 457  -150.7218
 458  -316.4952
 459  -343.7568
 460  -860.203
 461  -794.2227
 462  -628.4611
 463  -134.3369
 464  83.77637
 465  -145.4664
 466  -561.1672
 467  -913.5405
 468  -1286.969
 469  -1433.86
 470  -843.3762
 471  -65.94929
 472  252.751
 473  18.50784
 474  -163.8101
 475  -161.4704
 476  19.77702
 477  -327.545
 478  -419.4453
 479  50.0749
 480  419.9215
 481  138.4464
 482  -289.5109
 483  -152.4805
 484  -252.2302
 485  -605.4156
 486  -895.9584
 487  -467.6954
 488  486.0173
 489  429.4349
 490  229.6497
 491  141.273
 492  -20.10255
 493  -256.6019
 494  -540.8766
 495  -845.5718
 496  -78.0707
 497  314.4262
 498  103.4349
 499  -254.8536
 500  -352.989
 501  -268.4355
 502  -547.9358
 503  -18.92694
 504  72.44388
 505  475.6064
 506  -88.7036
 507  -76.96552
 508  -35.82035
 509  45.71762
 510  95.48997
 511  13.79149
