# Input file       =  1211614446.108927_cleaned.dat
# Candidate        =  PSR_0332+5434
# Telescope        =  AR
# Epoch_topo       =  58267.315568390361
# Epoch_bary       =  N/A
# T_sample         =  0.002
# Data Folded      =  7340032
# Data Avg         =  0.0380719220636322
# Data StdDev      =  1.00013370934277 
# Profile Bins     =  512
# Profile Avg      =  545.845923482444 
# Profile StdDev   =  119.749045802368 
# Reduced chi-sqr  =  1.146
# Prob(Noise)      <  0.0122   (~2.3 sigma)
# P_topo (ms)      =  714.519559684864  +/- 7.35e-05
# P'_topo (s/s)    =  -0                +/- 3.88e-11
# P''_topo (s/s^2) =  0                 +/- 1.71e-14
# P_bary (ms)      =  N/A
# P'_bary (s/s)    =  N/A
# P''_bary (s/s^2) =  N/A
# P_orb (s)        =  N/A
# asin(i)/c (s)    =  N/A
# eccentricity     =  N/A
# w (rad)          =  N/A
# T_peri           =  N/A
######################################################
   0  406.669
   1  489.0772
   2  538.2788
   3  592.7551
   4  622.5226
   5  566.887
   6  535.9432
   7  524.2286
   8  571.7031
   9  550.4425
  10  607.7204
  11  543.8209
  12  515.046
  13  540.8864
  14  717.1561
  15  742.0774
  16  633.7025
  17  704.3503
  18  605.0765
  19  599.1526
  20  619.9219
  21  647.267
  22  641.8386
  23  621.8845
  24  515.1268
  25  514.4583
  26  625.5198
  27  625.0197
  28  704.8086
  29  703.5588
  30  612.9084
  31  523.8535
  32  504.698
  33  536.7376
  34  592.0596
  35  620.4464
  36  537.7333
  37  482.5826
  38  463.1815
  39  535.6984
  40  651.0885
  41  547.0967
  42  591.9058
  43  638.2871
  44  554.1682
  45  600.9993
  46  501.3658
  47  463.7038
  48  541.4608
  49  646.1066
  50  653.2493
  51  584.6123
  52  501.564
  53  519.139
  54  478.3031
  55  439.3156
  56  572.7393
  57  450.8626
  58  440.8305
  59  354.7385
  60  387.2771
  61  592.5316
  62  619.8082
  63  561.6754
  64  418.2451
  65  335.3594
  66  503.6884
  67  572.4295
  68  539.8943
  69  477.1111
  70  487.8963
  71  575.975
  72  620.2727
  73  561.0985
  74  517.3036
  75  543.9868
  76  638.3286
  77  569.2849
  78  460.6629
  79  507.4544
  80  617.0673
  81  681.3831
  82  565.5482
  83  542.7299
  84  581.6434
  85  564.1631
  86  622.2178
  87  639.6494
  88  556.1056
  89  473.3118
  90  558.3597
  91  499.2984
  92  561.4146
  93  573.4939
  94  484.081
  95  514.6238
  96  458.9054
  97  498.3093
  98  460.6971
  99  415.1881
 100  498.56
 101  561.7352
 102  569.3179
 103  577.4512
 104  381.3387
 105  432.5414
 106  513.2905
 107  529.8717
 108  485.7733
 109  494.7823
 110  493.9542
 111  449.1136
 112  495.2885
 113  605.1439
 114  524.6689
 115  580.4147
 116  557.5817
 117  487.1619
 118  606.0637
 119  601.3084
 120  664.8671
 121  563.8879
 122  493.072
 123  450.1102
 124  567.4523
 125  650.045
 126  755.6832
 127  693.0145
 128  763.0459
 129  700.9562
 130  800.2921
 131  996.3281
 132  1189.363
 133  1172.315
 134  1123.303
 135  906.0291
 136  726.7053
 137  584.6059
 138  545.3016
 139  605.1504
 140  583.5782
 141  587.1722
 142  492.4006
 143  522.1148
 144  476.3704
 145  524.7419
 146  479.4339
 147  549.2556
 148  527.0894
 149  421.4092
 150  442.4462
 151  458.3668
 152  436.8409
 153  438.1444
 154  554.7696
 155  503.0655
 156  393.3992
 157  461.9432
 158  567.7038
 159  494.8563
 160  436.0393
 161  489.9545
 162  506.2008
 163  395.5687
 164  449.1273
 165  504.6458
 166  504.0128
 167  517.2783
 168  519.9528
 169  523.0493
 170  504.2421
 171  463.4593
 172  407.705
 173  551.9003
 174  521.7017
 175  429.5558
 176  385.8533
 177  356.8057
 178  398.9012
 179  516.2077
 180  584.3661
 181  525.0438
 182  456.4576
 183  394.353
 184  466.7673
 185  566.989
 186  629.9826
 187  565.7297
 188  588.1032
 189  487.1015
 190  476.4517
 191  536.4967
 192  600.1346
 193  526.0605
 194  528.4746
 195  501.7318
 196  512.7321
 197  479.8569
 198  486.3013
 199  524.7541
 200  538.5068
 201  544.1043
 202  435.753
 203  495.3332
 204  604.422
 205  540.0534
 206  529.6323
 207  466.7946
 208  441.4794
 209  399.732
 210  440.9787
 211  485.347
 212  588.7819
 213  586.6011
 214  442.2031
 215  461.518
 216  557.9569
 217  642.3369
 218  657.1539
 219  588.2181
 220  613.926
 221  472.4019
 222  419.8607
 223  461.0721
 224  482.6779
 225  555.4681
 226  422.5345
 227  498.0957
 228  603.2547
 229  561.1412
 230  581.5646
 231  659.8017
 232  763.7393
 233  525.9694
 234  454.4645
 235  543.9971
 236  615.4759
 237  573.6124
 238  545.9747
 239  592.1268
 240  616.6511
 241  708.6543
 242  623.1009
 243  587.199
 244  714.549
 245  679.3227
 246  689.9293
 247  604.0846
 248  617.1094
 249  609.0714
 250  547.6279
 251  529.4819
 252  532.0272
 253  549.4615
 254  485.3991
 255  459.5157
 256  438.9457
 257  488.1563
 258  502.4328
 259  654.4871
 260  661.0116
 261  489.1756
 262  528.2645
 263  524.5215
 264  561.9884
 265  619.0367
 266  642.6336
 267  548.534
 268  459.2831
 269  460.0787
 270  560.0862
 271  559.2199
 272  605.3594
 273  580.2679
 274  654.5519
 275  628.7198
 276  539.2737
 277  568.3863
 278  553.2904
 279  567.1093
 280  554.588
 281  507.5693
 282  490.6953
 283  551.8049
 284  569.8866
 285  550.846
 286  498.3193
 287  474.4339
 288  502.6098
 289  600.6865
 290  620.6459
 291  628.4058
 292  519.7276
 293  462.6722
 294  466.0111
 295  523.6999
 296  644.8645
 297  545.4156
 298  442.274
 299  474.1907
 300  488.6888
 301  566.9796
 302  529.6913
 303  544.8312
 304  595.6458
 305  696.6019
 306  650.8357
 307  512.8064
 308  552.1757
 309  529.7895
 310  507.3882
 311  498.559
 312  496.7475
 313  554.8457
 314  457.1717
 315  428.8488
 316  564.0815
 317  555.3427
 318  526.644
 319  523.1477
 320  477.1966
 321  390.4832
 322  424.3735
 323  471.2662
 324  580.6506
 325  569.5046
 326  501.7298
 327  408.0922
 328  476.3726
 329  572.396
 330  563.2668
 331  625.623
 332  594.7338
 333  526.0179
 334  474.1953
 335  513.0201
 336  570.648
 337  521.4579
 338  541.8449
 339  441.2061
 340  531.0164
 341  591.0577
 342  521.5307
 343  578.1609
 344  551.178
 345  479.8819
 346  412.3932
 347  414.6431
 348  437.9939
 349  524.9918
 350  530.4882
 351  401.9724
 352  372.78
 353  469.5258
 354  470.7231
 355  419.1402
 356  489.4754
 357  490.2352
 358  457.8495
 359  419.2161
 360  485.8773
 361  558.6339
 362  572.5363
 363  526.5748
 364  651.0177
 365  583.1261
 366  580.7866
 367  518.8557
 368  554.7288
 369  626.1508
 370  568.7209
 371  623.412
 372  600.2408
 373  518.9527
 374  556.2883
 375  645.3316
 376  650.6157
 377  646.2472
 378  567.3083
 379  486.1351
 380  581.3402
 381  612.9025
 382  616.3835
 383  514.0281
 384  638.7889
 385  532.5535
 386  417.6004
 387  409.2359
 388  503.2788
 389  414.3756
 390  392.3385
 391  565.0933
 392  546.4651
 393  548.2806
 394  550.4571
 395  536.7409
 396  567.0651
 397  644.1779
 398  574.15
 399  520.1335
 400  617.7888
 401  655.8002
 402  597.9178
 403  564.3512
 404  553.3168
 405  470.7357
 406  483.4981
 407  511.1607
 408  504.2784
 409  525.5696
 410  500.6116
 411  511.9336
 412  414.91
 413  443.1243
 414  435.4894
 415  552.6937
 416  586.1002
 417  518.5706
 418  526.4978
 419  634.337
 420  623.3577
 421  587.6255
 422  624.6899
 423  636.7145
 424  506.7298
 425  591.7761
 426  639.5164
 427  547.3861
 428  552.459
 429  577.5005
 430  566.2081
 431  631.0644
 432  698.8503
 433  624.0999
 434  503.1388
 435  593.2804
 436  541.062
 437  521.3179
 438  558.1025
 439  542.7513
 440  563.4089
 441  703.0068
 442  697.9944
 443  558.5291
 444  531.8429
 445  543.9196
 446  536.3113
 447  604.1723
 448  611.2969
 449  559.3866
 450  478.0035
 451  600.964
 452  633.8168
 453  552.3468
 454  563.574
 455  690.0049
 456  653.8862
 457  570.6594
 458  540.1647
 459  608.249
 460  661.1606
 461  643.4428
 462  501.0736
 463  481.2601
 464  570.8876
 465  567.0892
 466  548.2241
 467  493.6154
 468  580.5972
 469  613.5374
 470  655.6255
 471  615.8013
 472  584.6072
 473  526.1479
 474  541.6494
 475  577.8544
 476  613.8632
 477  543.8459
 478  383.9111
 479  433.9943
 480  548.2043
 481  590.559
 482  574.8271
 483  483.7331
 484  525.8879
 485  514.795
 486  467.9301
 487  380.5182
 488  510.5259
 489  609.4152
 490  503.2967
 491  456.8174
 492  416.4174
 493  578.5764
 494  537.3199
 495  495.9307
 496  550.2051
 497  534.3736
 498  483.658
 499  460.7092
 500  476.6349
 501  498.2383
 502  579.972
 503  539.2648
 504  441.1941
 505  411.8777
 506  592.2693
 507  518.9791
 508  533.3712
 509  490.6034
 510  388.3633
 511  336.2516
