# Input file       =  1211858286.131636_cleaned.dat
# Candidate        =  PSR_0332+5434
# Telescope        =  AR
# Epoch_topo       =  58270.137790875415
# Epoch_bary       =  N/A
# T_sample         =  0.002
# Data Folded      =  7143424
# Data Avg         =  0.372698335860291
# Data StdDev      =  6.18763390096234 
# Profile Bins     =  256
# Profile Avg      =  10399.6995842425 
# Profile StdDev   =  1033.61271185556 
# Reduced chi-sqr  =  0.873
# Prob(Noise)      <  0.93   (~0.0 sigma)
# P_topo (ms)      =  714.51679624424   +/- 7.22e-05
# P'_topo (s/s)    =  -0                +/- 3.92e-11
# P''_topo (s/s^2) =  0                 +/- 1.78e-14
# P_bary (ms)      =  N/A
# P'_bary (s/s)    =  N/A
# P''_bary (s/s^2) =  N/A
# P_orb (s)        =  N/A
# asin(i)/c (s)    =  N/A
# eccentricity     =  N/A
# w (rad)          =  N/A
# T_peri           =  N/A
######################################################
   0  10460.46
   1  10661.25
   2  12035.77
   3  10780.08
   4  10854.14
   5  10699.1
   6  10516.66
   7  9553.742
   8  10445.64
   9  10400.1
  10  12003.08
  11  11258.36
  12  10256.01
  13  9510.924
  14  10163.82
  15  10934.27
  16  9855.429
  17  9978.126
  18  10734.76
  19  11113.85
  20  10681.73
  21  10193.36
  22  9436.581
  23  10114.75
  24  9979.351
  25  10738.86
  26  11055.55
  27  11483.6
  28  11288.12
  29  10576.87
  30  9968.553
  31  11433.31
  32  9566.245
  33  10107.4
  34  9586.026
  35  12042.75
  36  11051.84
  37  9847.831
  38  9785.128
  39  11043.81
  40  9538.979
  41  10457.72
  42  9690.448
  43  11887.57
  44  10423.16
  45  9462.606
  46  9185.302
  47  10016.01
  48  10353.54
  49  9921.506
  50  9633.543
  51  10134.62
  52  10307.69
  53  10709.32
  54  10425.16
  55  8969.849
  56  10111.55
  57  9171.738
  58  10506.72
  59  10842.88
  60  11165.11
  61  10156.46
  62  9830.922
  63  9033.736
  64  11123.71
  65  9622.315
  66  9906.587
  67  10194.25
  68  12320.16
  69  11114.37
  70  10923.53
  71  9389.717
  72  11295.18
  73  9793.504
  74  11217.06
  75  9999.819
  76  11493.28
  77  11006.43
  78  11009.41
  79  10414.31
  80  10678.41
  81  10695.37
  82  10252.91
  83  10120.57
  84  10444.48
  85  11970.72
  86  10924.86
  87  10021.18
  88  9535.884
  89  10331.71
  90  10794.24
  91  10221.95
  92  10611.02
  93  10891.62
  94  10801.18
  95  10939.2
  96  10249.96
  97  10039.51
  98  9948.764
  99  9704.865
 100  10508.93
 101  11602.27
 102  10015.47
 103  9401.376
 104  8868.231
 105  10575.29
 106  9379.027
 107  9117.943
 108  9594.848
 109  11303.24
 110  10816.79
 111  10597.41
 112  9534.309
 113  10128.72
 114  9986.756
 115  8584.328
 116  9434.291
 117  10222.81
 118  11642.01
 119  10028.98
 120  8964.55
 121  9361.646
 122  10009.14
 123  9923.137
 124  10078.04
 125  9425.237
 126  11443.51
 127  10905.26
 128  11186.71
 129  9982.276
 130  10369.56
 131  9797.326
 132  10468.81
 133  10687.97
 134  11334.05
 135  11084.73
 136  10305.06
 137  9248.675
 138  10629.46
 139  10961.67
 140  9833.834
 141  10434.89
 142  11625.29
 143  11565.79
 144  11724.78
 145  9511.198
 146  10454.24
 147  11710.64
 148  11978.51
 149  13877.53
 150  14543.87
 151  11765.19
 152  10723.87
 153  10752.69
 154  10251.58
 155  11227.15
 156  9864.788
 157  10466.25
 158  10642.57
 159  12367.57
 160  10822.53
 161  10265.42
 162  10369.33
 163  11064.64
 164  10133.83
 165  10351.07
 166  10924.17
 167  11242.72
 168  10422.46
 169  10050.16
 170  10293.19
 171  10094.34
 172  9909.251
 173  9494.801
 174  9113.073
 175  10657.61
 176  11214.2
 177  10600.27
 178  8536.575
 179  8634.219
 180  10152.85
 181  9815.006
 182  9554.182
 183  10242.99
 184  10957.74
 185  10228.42
 186  10175.54
 187  8664.881
 188  10207.99
 189  8289.807
 190  9928.713
 191  10889.95
 192  10831.77
 193  10433.04
 194  10574.73
 195  9026.826
 196  10810.64
 197  9976.167
 198  10387.25
 199  10457.23
 200  10813.61
 201  10596.29
 202  10607.89
 203  10320.95
 204  10802.45
 205  9232.32
 206  9346.523
 207  10466.64
 208  11667.17
 209  11597.9
 210  10007.62
 211  9419.611
 212  10274.74
 213  10721.84
 214  10074.4
 215  9067.892
 216  10844.76
 217  11206.15
 218  10555.91
 219  10482.2
 220  9547.662
 221  9265.334
 222  9139.339
 223  9726.863
 224  9577.569
 225  11316.25
 226  9787.169
 227  10057.65
 228  8873.239
 229  10349.53
 230  9972.846
 231  9128.393
 232  9675.579
 233  11227.78
 234  11111.92
 235  11119.42
 236  9114.501
 237  9200.402
 238  10059.36
 239  11158.54
 240  11268.61
 241  10290.26
 242  10753.09
 243  11208.96
 244  10222.35
 245  10701.32
 246  10706.25
 247  10150.29
 248  10610.9
 249  10509.73
 250  12146.43
 251  10999.28
 252  10437.54
 253  10155
 254  11112.12
 255  10767.7
