# Input file       =  1212648328.110973_cleaned.dat
# Candidate        =  PSR_0332+5434
# Telescope        =  AR
# Epoch_topo       =  58279.281795265888
# Epoch_bary       =  N/A
# T_sample         =  0.002
# Data Folded      =  7340032
# Data Avg         =  -0.075089584867654
# Data StdDev      =  4.82528922764833 
# Profile Bins     =  512
# Profile Avg      =  -1076.5911597191 
# Profile StdDev   =  577.746530622435 
# Reduced chi-sqr  =  0.817
# Prob(Noise)      <  0.999   (~0.0 sigma)
# P_topo (ms)      =  714.507978964807  +/- 0.00043
# P'_topo (s/s)    =  -0                +/- 2.27e-10
# P''_topo (s/s^2) =  0                 +/- 1e-13
# P_bary (ms)      =  N/A
# P'_bary (s/s)    =  N/A
# P''_bary (s/s^2) =  N/A
# P_orb (s)        =  N/A
# asin(i)/c (s)    =  N/A
# eccentricity     =  N/A
# w (rad)          =  N/A
# T_peri           =  N/A
######################################################
   0  -1352.798
   1  -1010.502
   2  -946.4721
   3  -931.8671
   4  -881.6324
   5  -1134.461
   6  -909.0145
   7  -1011.762
   8  -1079.861
   9  -1181.24
  10  -1522.63
  11  -1606.738
  12  -962.768
  13  -1408.21
  14  -1293.468
  15  -1388.764
  16  -1898.211
  17  -1838.572
  18  -1431.072
  19  -1285.131
  20  -1266.742
  21  -1096.38
  22  -668.9297
  23  -680.0881
  24  -875.4108
  25  -1023.979
  26  -560.1534
  27  -685.9617
  28  -1007.633
  29  -982.3071
  30  -828.0043
  31  -941.9003
  32  -908.5861
  33  -569.5057
  34  -642.0755
  35  -1487.839
  36  -1731.592
  37  -1329.758
  38  -953.5072
  39  -743.2144
  40  -495.3509
  41  -1037.129
  42  -1400.3
  43  -1121.679
  44  -459.3794
  45  -470.1697
  46  -475.2768
  47  -874.2244
  48  -1205.57
  49  -1030.005
  50  -702.2516
  51  -1126.588
  52  -1094.179
  53  -618.4654
  54  -839.6658
  55  -965.2324
  56  -807.7023
  57  -487.7348
  58  -801.8061
  59  -754.2478
  60  -1121.08
  61  -987.9239
  62  -1078.239
  63  -916.4458
  64  -735.1163
  65  -1005.852
  66  -1295.839
  67  -664.5022
  68  -407.5268
  69  -611.5989
  70  -1043.185
  71  -969.1298
  72  -1237.892
  73  -1359.965
  74  -1432.446
  75  -767.2491
  76  -960.7166
  77  -1410.854
  78  -1624.302
  79  -1318.263
  80  -1115.126
  81  -1406.26
  82  -673.6291
  83  -626.2325
  84  -793.1987
  85  -711.2467
  86  -864.3204
  87  -487.2239
  88  -758.575
  89  -996.6945
  90  -892.3295
  91  -461.4655
  92  -1009.74
  93  -924.5582
  94  -766.9544
  95  -1044.651
  96  -1265.457
  97  -1127.903
  98  -909.0283
  99  -1042.728
 100  -1417.728
 101  -1448.109
 102  -986.5754
 103  -907.9556
 104  -658.9663
 105  -884.1125
 106  -1093.273
 107  -1273.501
 108  -939.2485
 109  -962.5025
 110  -1211.558
 111  -1332.862
 112  -1428.895
 113  -1611.078
 114  -837.0833
 115  -984.5475
 116  -1439.639
 117  -1203.042
 118  -1218.244
 119  -1018.122
 120  -1203.57
 121  -949.0247
 122  -876.9277
 123  -1137.314
 124  -979.8568
 125  -845.7417
 126  -582.0104
 127  -718.4219
 128  -756.613
 129  -734.7784
 130  -634.915
 131  -900.951
 132  -1302.287
 133  -979.4537
 134  -1183.263
 135  -1271.738
 136  -985.6522
 137  -680.1691
 138  -738.785
 139  -1007.985
 140  -827.8676
 141  -539.5342
 142  -1085.331
 143  -1206.782
 144  -275.8447
 145  250.7033
 146  -570.336
 147  -1105.525
 148  -1102.289
 149  -965.9615
 150  -1233.353
 151  -1235.533
 152  -510.1481
 153  -736.3896
 154  -1183.3
 155  -1439.646
 156  -1165.821
 157  -967.6231
 158  -1009.031
 159  -1216.576
 160  -1323.93
 161  -1230.283
 162  -1547.122
 163  -1080.921
 164  -527.7357
 165  -508.2419
 166  -1166.471
 167  -1469.506
 168  -1217.15
 169  -1323.341
 170  -1290.063
 171  -1253.971
 172  -861.4835
 173  -1061.209
 174  -1209.079
 175  -792.9253
 176  -1017.925
 177  -1242.147
 178  -1060.597
 179  -864.4007
 180  -681.3649
 181  -877.2315
 182  -673.0507
 183  -1140.322
 184  -1438.181
 185  -1532.526
 186  -1039.919
 187  -743.0239
 188  -836.0212
 189  -1143.295
 190  -764.4404
 191  -808.502
 192  -1359.707
 193  -1087.328
 194  -767.8696
 195  -800.7819
 196  -792.1393
 197  -650.8395
 198  -1107.764
 199  -1246.099
 200  -800.7257
 201  -1078.364
 202  -1386.893
 203  -915.6794
 204  -836.0759
 205  -863.5792
 206  -833.3689
 207  -1219.105
 208  -1378.917
 209  -1179.796
 210  -707.4208
 211  -210.9205
 212  -401.534
 213  -411.214
 214  -451.5509
 215  -354.5847
 216  -672.0339
 217  -1060.973
 218  -921.8945
 219  -1065.158
 220  -1380.4
 221  -1391.134
 222  -1074.221
 223  -1204.677
 224  -1733.379
 225  -1586.619
 226  -1601.013
 227  -1342.067
 228  -1375.447
 229  -1649.764
 230  -1825.887
 231  -1330.12
 232  -1424.967
 233  -1815.21
 234  -1786.846
 235  -1163.299
 236  -1350.001
 237  -1516.33
 238  -1549.569
 239  -1561.898
 240  -952.2823
 241  -1164.399
 242  -1616.943
 243  -1735.97
 244  -1769.965
 245  -1525.98
 246  -1230.96
 247  -1327.671
 248  -1524.667
 249  -1437.723
 250  -1310.777
 251  -1398.204
 252  -1282.528
 253  -1357.621
 254  -902.8207
 255  -728.9486
 256  -961.8246
 257  -1062.961
 258  -1287.942
 259  -1164.896
 260  -1325.634
 261  -1218.028
 262  -1152.97
 263  -937.9238
 264  -1102.616
 265  -1094.649
 266  -1320.794
 267  -1219.734
 268  -1074.668
 269  -1237.502
 270  -906.1418
 271  -804.4334
 272  -866.8474
 273  -782.3157
 274  -817.5577
 275  -834.9398
 276  -1010.807
 277  -823.0234
 278  -927.0897
 279  -1334.692
 280  -1162.362
 281  -935.2357
 282  -804.7313
 283  -1178.49
 284  -1723.183
 285  -1027.832
 286  -818.2771
 287  -1094.323
 288  -996.4391
 289  -880.641
 290  -1039.074
 291  -1038.031
 292  -527.3527
 293  -486.1469
 294  -84.56384
 295  -214.7639
 296  391.4617
 297  767.6027
 298  1010.141
 299  776.2556
 300  459.0489
 301  4.092738
 302  -462.2058
 303  -1038.357
 304  -1198.608
 305  -1038.228
 306  -1497.549
 307  -1519.17
 308  -1195.951
 309  -624.1033
 310  -738.1133
 311  -850.4215
 312  -720.7646
 313  -667.897
 314  -927.4813
 315  -1125.53
 316  -1344.438
 317  -1080.696
 318  -1132.936
 319  -1450.67
 320  -1420.474
 321  -1154.973
 322  -1087.384
 323  -1225.922
 324  -1404.08
 325  -1765.036
 326  -2059.313
 327  -1794.906
 328  -1456.146
 329  -1541.376
 330  -1236.386
 331  -875.0861
 332  -760.6838
 333  -1389.618
 334  -1622.515
 335  -1548.908
 336  -1305.839
 337  -926.8113
 338  -1263.24
 339  -1042.539
 340  -1204.674
 341  -1462.476
 342  -1370.454
 343  -1550.405
 344  -1081.893
 345  -1234.157
 346  -1414.964
 347  -1360.042
 348  -943.9764
 349  -1022.217
 350  -1138.894
 351  -1430.443
 352  -1195.749
 353  -1362.164
 354  -1442.473
 355  -942.8312
 356  -1086.124
 357  -1377.778
 358  -1637.253
 359  -1649.545
 360  -1197.009
 361  -1339.396
 362  -1188.756
 363  -1437.745
 364  -1541.305
 365  -1849.108
 366  -1625.357
 367  -1357.164
 368  -985.5993
 369  -953.892
 370  -1407.345
 371  -1443.805
 372  -1605.881
 373  -1433.357
 374  -697.51
 375  -672.1797
 376  -748.0085
 377  -898.3696
 378  -882.5704
 379  -1247.143
 380  -1279.457
 381  -1048.308
 382  -1058.081
 383  -1077.675
 384  -1202.894
 385  -1585.664
 386  -1183.334
 387  -838.8171
 388  -1222.12
 389  -1394.335
 390  -1383.015
 391  -1462.798
 392  -1252.129
 393  -832.7466
 394  -665.2941
 395  -1148.778
 396  -1322.495
 397  -1018.283
 398  -915.6308
 399  -996.5032
 400  -1136.144
 401  -897.5179
 402  -1245.45
 403  -1156.599
 404  -889.4787
 405  -625.9496
 406  -868.2457
 407  -1039.195
 408  -1197.548
 409  -813.1461
 410  -711.9084
 411  -566.0959
 412  -425.6466
 413  -409.5999
 414  -193.2434
 415  -968.3253
 416  -686.543
 417  -685.6233
 418  -1063.53
 419  -946.6541
 420  -984.2278
 421  -955.894
 422  -774.244
 423  -921.6076
 424  -1034.732
 425  -1187.206
 426  -1189.795
 427  -1392.015
 428  -979.4882
 429  -541.9155
 430  -646.4503
 431  -1090.96
 432  -1134.863
 433  -1298.27
 434  -1119.289
 435  -868.9969
 436  -1106.439
 437  -1307.001
 438  -1472.692
 439  -1376.52
 440  -1479.523
 441  -1535.434
 442  -1615.249
 443  -1069.691
 444  -746.3992
 445  -1079.025
 446  -1161.021
 447  -1239.816
 448  -1449.396
 449  -1404.272
 450  -1496.482
 451  -1472.725
 452  -1450.579
 453  -1407.172
 454  -1350.619
 455  -1172.982
 456  -854.8393
 457  -1237.385
 458  -1503.359
 459  -1913.704
 460  -1517.463
 461  -1586.971
 462  -1581.283
 463  -1145.262
 464  -895.976
 465  -1199.189
 466  -1671.826
 467  -1389.148
 468  -1299.603
 469  -1187.112
 470  -735.2175
 471  -727.2081
 472  -678.8484
 473  -1106.962
 474  -1102.223
 475  -621.2929
 476  -514.5536
 477  -892.8349
 478  -1355.991
 479  -1082.798
 480  -994.0864
 481  -1077.69
 482  -1178.769
 483  -952.199
 484  -1447.527
 485  -1848.625
 486  -1928.595
 487  -1211.573
 488  -1024.805
 489  -1169.215
 490  -1157.396
 491  -1452.806
 492  -1526.266
 493  -1814.174
 494  -1317.555
 495  -1104.513
 496  -1175.035
 497  -1383.627
 498  -1451.973
 499  -1376.346
 500  -1172.745
 501  -834.3657
 502  -1174.669
 503  -1506.946
 504  -1271.616
 505  -1425.186
 506  -1290.53
 507  -1066.756
 508  -1519.153
 509  -1286.143
 510  -1232.02
 511  -1002.89
