# Input file       =  1212476026.101743_cleaned.dat
# Candidate        =  PSR_0332+5434
# Telescope        =  AR
# Epoch_topo       =  58277.287559047953
# Epoch_bary       =  N/A
# T_sample         =  0.002
# Data Folded      =  7340032
# Data Avg         =  0.131585205091272
# Data StdDev      =  2.94045886429732 
# Profile Bins     =  512
# Profile Avg      =  1886.29068782457 
# Profile StdDev   =  352.070068163295 
# Reduced chi-sqr  =  1.118
# Prob(Noise)      <  0.0327   (~1.8 sigma)
# P_topo (ms)      =  714.509889030151  +/- 0.000225
# P'_topo (s/s)    =  -0                +/- 1.19e-10
# P''_topo (s/s^2) =  0                 +/- 5.24e-14
# P_bary (ms)      =  N/A
# P'_bary (s/s)    =  N/A
# P''_bary (s/s^2) =  N/A
# P_orb (s)        =  N/A
# asin(i)/c (s)    =  N/A
# eccentricity     =  N/A
# w (rad)          =  N/A
# T_peri           =  N/A
######################################################
   0  1664.153
   1  1420.761
   2  1698.383
   3  2115.752
   4  2216.477
   5  1892.971
   6  1768.293
   7  2216.723
   8  2112.668
   9  1861.354
  10  1904.92
  11  1695.972
  12  1892.834
  13  2115.614
  14  1634.722
  15  1626.956
  16  1534.517
  17  1678.646
  18  1842.972
  19  1932.628
  20  2349.614
  21  2142.86
  22  1781.772
  23  1812.99
  24  2087.422
  25  2016.866
  26  1902.352
  27  1919.131
  28  2011.318
  29  1927.34
  30  2185.057
  31  2309.014
  32  1846.294
  33  1672.881
  34  1661.106
  35  1579.724
  36  1929.972
  37  1829.221
  38  1972.91
  39  2050.095
  40  2254.924
  41  2094.851
  42  2004.181
  43  2147.349
  44  2038.177
  45  1836.328
  46  2092.426
  47  1946.293
  48  1967.595
  49  1879.948
  50  1935.483
  51  1722.695
  52  1738.58
  53  1671.461
  54  1928.829
  55  1822.061
  56  1765.824
  57  2028.509
  58  1816.557
  59  1915.559
  60  2151.922
  61  2072.21
  62  1962.186
  63  1872.637
  64  2088.6
  65  1837.995
  66  1549.597
  67  1819.551
  68  1804.895
  69  1956.11
  70  1755.002
  71  1686.119
  72  2116.691
  73  2213.522
  74  1832.148
  75  1655.122
  76  2141.551
  77  1991.548
  78  1535.375
  79  1791.837
  80  2137.606
  81  2078.632
  82  1728.477
  83  1788.855
  84  1866.372
  85  1934.033
  86  1803.897
  87  1799.024
  88  1829.868
  89  1678.431
  90  1886.35
  91  1455.318
  92  1506.555
  93  1883.098
  94  1931.899
  95  1814.833
  96  1692.192
  97  1688.059
  98  1719.225
  99  1776.961
 100  1743.686
 101  1551.261
 102  1787.247
 103  1600.13
 104  1569.992
 105  1432.056
 106  1518.39
 107  1764.266
 108  1558.607
 109  1159.515
 110  1660.195
 111  1520.209
 112  1594.356
 113  1399.022
 114  1394.086
 115  1671.446
 116  1795.823
 117  1923.71
 118  1604.965
 119  1616.578
 120  1663.137
 121  1864.621
 122  1647.729
 123  1710.62
 124  1719.068
 125  1506.788
 126  1576.946
 127  1774.165
 128  1542.573
 129  1567.135
 130  1614.539
 131  1636.2
 132  1674.908
 133  1738.323
 134  1410.011
 135  1385.625
 136  1585.156
 137  1661.047
 138  1815.646
 139  1704.379
 140  1659.075
 141  1878.259
 142  1782.692
 143  1784.374
 144  1487.603
 145  1830.633
 146  1681.572
 147  1466.778
 148  1789.988
 149  1918.359
 150  1693.874
 151  1611.664
 152  1688.058
 153  1826.261
 154  1919.406
 155  1998.799
 156  1739.421
 157  1541.691
 158  1669.684
 159  1928.056
 160  1869.553
 161  2004.983
 162  2025.029
 163  2057.458
 164  2026.899
 165  1562.719
 166  1657.387
 167  1822.21
 168  1904.165
 169  2088.408
 170  1800.071
 171  1722.2
 172  1945.472
 173  1897.158
 174  2074.296
 175  1942.168
 176  1659.004
 177  1929.739
 178  1839.232
 179  1709.186
 180  1976.747
 181  2118.44
 182  2265.129
 183  2305.31
 184  2470.414
 185  2883.218
 186  3398.99
 187  4042.442
 188  3623.419
 189  3097.448
 190  2683.055
 191  2124.208
 192  1784.294
 193  2018.978
 194  1789.341
 195  1717.247
 196  1950.161
 197  2008.012
 198  1802.905
 199  1864.543
 200  1909.937
 201  1707.912
 202  1765.258
 203  2109.289
 204  1885
 205  1928.91
 206  2034.437
 207  2347.136
 208  1949.638
 209  1678.716
 210  1635.142
 211  1609.789
 212  1692.68
 213  1854.68
 214  2059.615
 215  1933.334
 216  1929.605
 217  2292.594
 218  2021.681
 219  1996.575
 220  1934.904
 221  1683.913
 222  1935.591
 223  2045.464
 224  2023.717
 225  1740.747
 226  1716.19
 227  2016.11
 228  2213.479
 229  1801.331
 230  1813.889
 231  1729.989
 232  1958.093
 233  2001.996
 234  1762.196
 235  1758.84
 236  1958.365
 237  2032.895
 238  2040.818
 239  1990.117
 240  2008.146
 241  2203.308
 242  1753.797
 243  1390.235
 244  1487.868
 245  2016.548
 246  2173.431
 247  2323.605
 248  2209.57
 249  2310.51
 250  2064.423
 251  1960.361
 252  1785.362
 253  1884.313
 254  2037.065
 255  2013.797
 256  1924.789
 257  1739.592
 258  1782.24
 259  2000.188
 260  1714.593
 261  1810.553
 262  1866.476
 263  2064.19
 264  2043.244
 265  1835.692
 266  2054.428
 267  1819.018
 268  1648.669
 269  2106.025
 270  1899.51
 271  1977.435
 272  1849.353
 273  1788.001
 274  1927.962
 275  2138.052
 276  1989.589
 277  1925.341
 278  1819.941
 279  1898.79
 280  1878.269
 281  1824.723
 282  1942.655
 283  1928.08
 284  1756.781
 285  1661.561
 286  1991.197
 287  2038.459
 288  2057.491
 289  2121.794
 290  1940.096
 291  1738.025
 292  2063.536
 293  2084.159
 294  2177.613
 295  1960.946
 296  2105.289
 297  2063.268
 298  1549.876
 299  1795.938
 300  1987.271
 301  2146.611
 302  1862.348
 303  1905.698
 304  2036.099
 305  1788.667
 306  1912.993
 307  1866.037
 308  1794.513
 309  1692.894
 310  1827.055
 311  2124.802
 312  1950.526
 313  1956.843
 314  1988.804
 315  2061.988
 316  2012.413
 317  2000.866
 318  1836.887
 319  1970.691
 320  1978.621
 321  1921.288
 322  1813.557
 323  2036.395
 324  1904.681
 325  1795.469
 326  1826.094
 327  1912.427
 328  2023.677
 329  1911.001
 330  2109.74
 331  2104.139
 332  2029.387
 333  2272.112
 334  2313.196
 335  2287.632
 336  2107.89
 337  2163.517
 338  1879.382
 339  1732.806
 340  1820.278
 341  1844.207
 342  1655.025
 343  1586.41
 344  1483.665
 345  1791.095
 346  1779.272
 347  1857.452
 348  2120.432
 349  1954.557
 350  1699.726
 351  1818.101
 352  2057.433
 353  2065.441
 354  1975.713
 355  1885.157
 356  1736.592
 357  2106.54
 358  2188.396
 359  2115.74
 360  1910.21
 361  2089.019
 362  2127.527
 363  2094.83
 364  1639.94
 365  1802.63
 366  2264.629
 367  1969.539
 368  2005.047
 369  2202.546
 370  2150.554
 371  2097.248
 372  2156.298
 373  2069.302
 374  2127.238
 375  2097.703
 376  2150.689
 377  2243.492
 378  2193.35
 379  2071.005
 380  2198.84
 381  2370.045
 382  2186.713
 383  2408.281
 384  2212.389
 385  1925.579
 386  1869.542
 387  2086.684
 388  2172.251
 389  2140.45
 390  2163.835
 391  2276.301
 392  2172.104
 393  2268.443
 394  2385.504
 395  1763.939
 396  1701.551
 397  2223.926
 398  2026.007
 399  2055.095
 400  2158.537
 401  2070.872
 402  1972.597
 403  1779.262
 404  1805.429
 405  1524.555
 406  1749.124
 407  1748.909
 408  1875.321
 409  1731.959
 410  2048.39
 411  2050.041
 412  1841.119
 413  1875.214
 414  2042.907
 415  2033.32
 416  1888.993
 417  1842.128
 418  1514.311
 419  1466.84
 420  1289.963
 421  1365.494
 422  1771.862
 423  1919.795
 424  2062.078
 425  2072.014
 426  1782.423
 427  1685.132
 428  1823.359
 429  1900.272
 430  1845.304
 431  1851.418
 432  2145.754
 433  2163.449
 434  1771.379
 435  1775.212
 436  1815.036
 437  1749.815
 438  1665.73
 439  2022.974
 440  1902.779
 441  1720.621
 442  1618.561
 443  1755.667
 444  1592.974
 445  1478.498
 446  1500.508
 447  1290.693
 448  1429.762
 449  1685.726
 450  1689.722
 451  1773.419
 452  1862.5
 453  1578.852
 454  1240.355
 455  1349.209
 456  1493.003
 457  1790.751
 458  1644.682
 459  1654.882
 460  1975.827
 461  1558.657
 462  1536.205
 463  1657.872
 464  1741.772
 465  1913.387
 466  2006.646
 467  2098.777
 468  1931.56
 469  1835.903
 470  1710.357
 471  1820.192
 472  1762.178
 473  1709.295
 474  1963.724
 475  2202.082
 476  2013.652
 477  1774.397
 478  1691.715
 479  1792.098
 480  1680.036
 481  1567.607
 482  1863.135
 483  2081.746
 484  1820.201
 485  1680.019
 486  1955.553
 487  1853.985
 488  1380.755
 489  1362.429
 490  1613.595
 491  1892.838
 492  1789.376
 493  1522.756
 494  1606.115
 495  1704.763
 496  1561.282
 497  1828.543
 498  1919.444
 499  2223.911
 500  2269.892
 501  2035.726
 502  1872.233
 503  1683.961
 504  1625.072
 505  1389.49
 506  2031.749
 507  2128.601
 508  1878.289
 509  1829.767
 510  1794.983
 511  1921.128
