# Input file       =  1212562175.108889_cleaned.dat
# Candidate        =  PSR_0332+5434
# Telescope        =  AR
# Epoch_topo       =  58278.284654038071
# Epoch_bary       =  N/A
# T_sample         =  0.002
# Data Folded      =  7340032
# Data Avg         =  0.033319677535189
# Data StdDev      =  1.00007407740976 
# Profile Bins     =  512
# Profile Avg      =  477.704328687062 
# Profile StdDev   =  119.741905889964 
# Reduced chi-sqr  =  1.069
# Prob(Noise)      <  0.135   (~1.1 sigma)
# P_topo (ms)      =  714.508931904705  +/- 0.000136
# P'_topo (s/s)    =  -0                +/- 7.15e-11
# P''_topo (s/s^2) =  0                 +/- 3.16e-14
# P_bary (ms)      =  N/A
# P'_bary (s/s)    =  N/A
# P''_bary (s/s^2) =  N/A
# P_orb (s)        =  N/A
# asin(i)/c (s)    =  N/A
# eccentricity     =  N/A
# w (rad)          =  N/A
# T_peri           =  N/A
######################################################
   0  1044.431
   1  906.4892
   2  822.9407
   3  657.0229
   4  628.6853
   5  677.8636
   6  581.9604
   7  513.5466
   8  519.8116
   9  512.1106
  10  495.1808
  11  424.4258
  12  516.4853
  13  468.5466
  14  470.4581
  15  553.2437
  16  561.1176
  17  545.7593
  18  364.8866
  19  416.7516
  20  544.1501
  21  562.1249
  22  573.5801
  23  561.3272
  24  504.2998
  25  536.4509
  26  461.3382
  27  514.9422
  28  621.6311
  29  540.0667
  30  512.6919
  31  637.7152
  32  540.6625
  33  504.2971
  34  500.6053
  35  493.5724
  36  433.4026
  37  494.8764
  38  552.2659
  39  537.4389
  40  583.1995
  41  496.5672
  42  478.7084
  43  465.5685
  44  463.3133
  45  473.2552
  46  452.5078
  47  467.2676
  48  431.1239
  49  557.6415
  50  572.3438
  51  503.1728
  52  381.6565
  53  483.2661
  54  570.6742
  55  577.3316
  56  536.4239
  57  486.7275
  58  500.3409
  59  525.6113
  60  425.366
  61  370.8521
  62  553.1049
  63  653.1816
  64  557.7134
  65  456.9017
  66  503.8557
  67  493.7897
  68  454.5643
  69  420.5547
  70  415.067
  71  513.7151
  72  575.6895
  73  572.6025
  74  595.4286
  75  474.394
  76  527.1865
  77  570.9927
  78  542.2505
  79  516.2168
  80  458.8685
  81  424.1295
  82  540.0491
  83  579.8538
  84  570.0839
  85  381.4454
  86  340.7407
  87  359.0736
  88  361.5549
  89  451.3633
  90  578.0018
  91  532.4236
  92  497.6615
  93  500.6036
  94  423.5753
  95  423.1453
  96  433.9183
  97  487.4598
  98  432.7542
  99  438.0021
 100  542.5078
 101  563.2364
 102  470.8601
 103  428.3737
 104  527.3794
 105  490.2144
 106  406.0003
 107  319.363
 108  307.6864
 109  401.3626
 110  498.1128
 111  551.1141
 112  488.4117
 113  418.2394
 114  466.8899
 115  463.8693
 116  509.7489
 117  525.525
 118  475.7433
 119  486.4493
 120  461.5112
 121  424.0439
 122  491.945
 123  583.0695
 124  549.1241
 125  569.294
 126  533.1818
 127  485.8184
 128  469.7306
 129  393.6725
 130  445.6743
 131  382.1518
 132  400.4917
 133  394.7892
 134  465.5052
 135  475.8972
 136  480.2105
 137  496.9308
 138  511.2075
 139  503.9704
 140  542.9023
 141  492.1393
 142  418.5734
 143  472.4944
 144  538.8822
 145  557.8318
 146  456.9427
 147  361.0155
 148  415.1589
 149  597.1165
 150  624.1913
 151  517.4429
 152  481.2451
 153  492.5305
 154  422.4373
 155  451.6281
 156  418.6076
 157  566.9891
 158  564.6922
 159  460.8854
 160  549.6866
 161  545.4504
 162  571.7376
 163  556.8159
 164  448.4135
 165  496.1393
 166  499.769
 167  422.7245
 168  483.0735
 169  485.7357
 170  432.6263
 171  479.6272
 172  483.308
 173  453.0632
 174  460.9653
 175  476.1035
 176  412.1046
 177  460.1407
 178  436.3165
 179  509.1888
 180  451.8121
 181  319.2669
 182  415.1107
 183  431.5886
 184  490.2441
 185  500.9763
 186  496.8841
 187  382.9869
 188  436.3304
 189  432.2148
 190  353.9731
 191  371.8259
 192  352.1154
 193  405.7159
 194  479.956
 195  361.5695
 196  420.5142
 197  367.7921
 198  356.3159
 199  418.5656
 200  430.6169
 201  511.5095
 202  440.3822
 203  531.4858
 204  625.2926
 205  486.0177
 206  471.9758
 207  469.0063
 208  441.0034
 209  467.7664
 210  463.7694
 211  333.6484
 212  374.8621
 213  412.5829
 214  500.1167
 215  581.8159
 216  509.7907
 217  441.5069
 218  525.1268
 219  523.8015
 220  424.8608
 221  480.9289
 222  594.5046
 223  511.7402
 224  455.2685
 225  457.905
 226  550.3685
 227  422.6257
 228  362.0865
 229  459.6513
 230  394.1265
 231  399.6576
 232  491.9341
 233  493.0368
 234  480.5673
 235  586.13
 236  622.4303
 237  586.308
 238  495.5535
 239  496.7878
 240  432.8514
 241  490.0711
 242  530.3878
 243  535.7547
 244  518.9012
 245  507.0594
 246  579.1628
 247  560.9433
 248  536.7811
 249  476.3454
 250  490.2008
 251  525.9171
 252  592.0238
 253  544.0003
 254  443.0897
 255  522.6003
 256  566.8458
 257  502.3282
 258  417.1231
 259  377.531
 260  429.1311
 261  429.7143
 262  407.097
 263  457.7965
 264  437.7064
 265  519.8377
 266  444.1268
 267  430.7702
 268  536.0461
 269  570.0107
 270  596.7129
 271  459.9715
 272  464.1414
 273  424.9014
 274  357.32
 275  461.0918
 276  488.0395
 277  458.2732
 278  628.4869
 279  505.774
 280  506.9057
 281  495.8304
 282  573.2176
 283  414.7667
 284  378.2308
 285  464.2292
 286  594.1413
 287  571.9738
 288  483.9709
 289  441.4041
 290  360.8947
 291  366.3106
 292  393.0781
 293  434.0999
 294  400.7615
 295  449.8669
 296  471.1726
 297  544.0241
 298  488.3885
 299  481.9444
 300  510.2099
 301  445.2536
 302  446.5017
 303  418.1478
 304  401.2828
 305  444.1077
 306  476.7139
 307  524.9374
 308  392.7804
 309  391.2397
 310  348.7747
 311  403.7888
 312  370.3658
 313  401.7024
 314  383.94
 315  385.3569
 316  383.7393
 317  558.9149
 318  516.1158
 319  447.4991
 320  375.6945
 321  428.3515
 322  408.7491
 323  446.1331
 324  436.8175
 325  575.6364
 326  457.5896
 327  391.1943
 328  396.7111
 329  503.9971
 330  453.6621
 331  391.2197
 332  381.4843
 333  434.9145
 334  477.7986
 335  475.1574
 336  509.9094
 337  497.808
 338  493.2565
 339  452.3461
 340  494.3853
 341  510.3657
 342  449.4838
 343  401.2117
 344  366.5381
 345  355.4091
 346  474.7552
 347  341.1032
 348  319.4315
 349  310.6122
 350  418.2308
 351  432.9117
 352  370.7918
 353  419.4268
 354  435.3664
 355  377.7577
 356  330.0216
 357  372.9491
 358  508.9004
 359  423.4712
 360  294.0322
 361  322.234
 362  358.0362
 363  404.3451
 364  437.755
 365  507.4879
 366  532.5305
 367  458.8789
 368  458.8283
 369  439.3062
 370  514.8766
 371  461.0211
 372  497.5997
 373  397.4942
 374  428.986
 375  480.0026
 376  411.1212
 377  493.769
 378  506.1053
 379  495.0774
 380  581.152
 381  562.3286
 382  493.8307
 383  462.888
 384  401.3806
 385  436.0679
 386  458.9469
 387  396.5318
 388  440.7882
 389  464.7365
 390  492.1714
 391  489.7123
 392  401.8999
 393  567.0233
 394  629.5298
 395  514.5966
 396  435.927
 397  427.1682
 398  497.5867
 399  538.1647
 400  441.4941
 401  544.4382
 402  611.9405
 403  560.6591
 404  542.8198
 405  534.3765
 406  411.5001
 407  535.3329
 408  496.6717
 409  497.7598
 410  485.0916
 411  437.0976
 412  423.6007
 413  358.0514
 414  412.642
 415  400.1081
 416  447.9691
 417  394.4029
 418  443.2034
 419  504.6511
 420  461.5002
 421  433.2183
 422  373.4247
 423  332.0789
 424  495.519
 425  477.7815
 426  476.1724
 427  439.534
 428  512.4184
 429  491.9078
 430  355.3436
 431  415.8836
 432  531.8152
 433  568.9156
 434  375.9428
 435  308.0839
 436  398.0706
 437  441.1579
 438  344.9312
 439  425.7362
 440  412.559
 441  575.9489
 442  553.3976
 443  554.9028
 444  496.6764
 445  475.8242
 446  479.6989
 447  413.8296
 448  429.3532
 449  498.7016
 450  520.1345
 451  392.4162
 452  390.1267
 453  437.0757
 454  501.0039
 455  449.7806
 456  389.0993
 457  440.3772
 458  376.7922
 459  348.9948
 460  477.4733
 461  439.8795
 462  352.028
 463  402.4861
 464  408.6287
 465  481.8077
 466  484.2877
 467  469.6094
 468  459.7268
 469  374.4193
 470  404.9289
 471  401.6079
 472  263.1612
 473  279.7858
 474  350.7351
 475  450.8736
 476  549.0421
 477  492.3196
 478  320.806
 479  385.7206
 480  420.4047
 481  492.3199
 482  474.5759
 483  484.876
 484  457.1811
 485  492.0989
 486  452.8019
 487  379.1914
 488  428.8438
 489  561.4064
 490  534.1192
 491  439.4516
 492  530.6131
 493  494.4727
 494  564.0285
 495  652.1495
 496  648.6658
 497  607.5532
 498  465.6334
 499  515.9194
 500  485.6512
 501  461.7941
 502  528.6409
 503  479.1651
 504  484.9482
 505  494.7144
 506  644.0576
 507  739.7469
 508  724.111
 509  868.096
 510  913.9768
 511  1162.909
