# Input file       =  1212030580.120176-PSRB0329-2ms-sampling-dd.dat
# Candidate        =  PSR_0332+5434
# Telescope        =  AR
# Epoch_topo       =  58272.131934261299
# Epoch_bary       =  N/A
# T_sample         =  0.002
# Data Folded      =  7208960
# Data Avg         =  9.35719146234421e-10
# Data StdDev      =  43.8410219084615 
# Profile Bins     =  512
# Profile Avg      =  -0.08227438465754
# Profile StdDev   =  5202.13952560416 
# Reduced chi-sqr  =  1.169
# Prob(Noise)      <  0.00488   (~2.6 sigma)
# P_topo (ms)      =  714.514858422139  +/- 0.000122
# P'_topo (s/s)    =  -0                +/- 6.56e-11
# P''_topo (s/s^2) =  0                 +/- 2.95e-14
# P_bary (ms)      =  N/A
# P'_bary (s/s)    =  N/A
# P''_bary (s/s^2) =  N/A
# P_orb (s)        =  N/A
# asin(i)/c (s)    =  N/A
# eccentricity     =  N/A
# w (rad)          =  N/A
# T_peri           =  N/A
######################################################
   0  -261.2722
   1  -4647.815
   2  -4411.48
   3  -6643.014
   4  -2762.107
   5  1788.65
   6  1154.084
   7  2127.567
   8  -9.273534
   9  -62.96389
  10  -1052.593
  11  -1210.029
  12  -148.9169
  13  -3096.134
  14  -4843.917
  15  -3243.206
  16  1185.516
  17  2654.516
  18  2342
  19  2445.731
  20  -2322.125
  21  -3416.99
  22  -2592.71
  23  -87.38744
  24  1584.687
  25  3204.823
  26  1027.023
  27  -1742.349
  28  -1428.487
  29  3312.314
  30  4607.467
  31  4316.597
  32  4726.981
  33  4780.457
  34  4987.627
  35  1792.844
  36  -1770.496
  37  -4292.237
  38  -1853.204
  39  1269.651
  40  5442.772
  41  4814.982
  42  -1705.34
  43  -5027.636
  44  -6722.902
  45  -4702.994
  46  -2276.884
  47  -860.4232
  48  -2056.867
  49  -1062.868
  50  2154.352
  51  2386.074
  52  592.9451
  53  -1602.516
  54  -2406.984
  55  -2387.262
  56  -717.1043
  57  504.8763
  58  -1595.084
  59  -3052.102
  60  -2595.357
  61  1087.626
  62  2794.685
  63  2932.744
  64  -314.0326
  65  -3723.326
  66  -7781.962
  67  -6139.542
  68  -4036.832
  69  -2570.932
  70  -2361.962
  71  -4489.302
  72  -5097.794
  73  -7227.554
  74  -4649.035
  75  -5763.466
  76  -6279.702
  77  -7361.59
  78  -9795.141
  79  -10783.36
  80  -9095.115
  81  -3488.411
  82  -2317.692
  83  -1052.648
  84  101.9687
  85  -1467.907
  86  -2422.042
  87  -663.0226
  88  2876.474
  89  1373.357
  90  4895.591
  91  5886.459
  92  2731.461
  93  644.5648
  94  3809.791
  95  6346.327
  96  7080.488
  97  8237.021
  98  5160.707
  99  4249.708
 100  1342.244
 101  4669.958
 102  4706.793
 103  5784.369
 104  6037.839
 105  5151.942
 106  3980.052
 107  -49.23858
 108  -2826.65
 109  -3020.367
 110  -1823.222
 111  1443.106
 112  2705.795
 113  108.9368
 114  -1322.391
 115  3353.276
 116  5952.352
 117  7194.683
 118  5118.816
 119  832.9089
 120  -4792.805
 121  -690.8206
 122  2749.353
 123  7002.701
 124  5767.825
 125  2534.245
 126  -2451.176
 127  -5178.792
 128  -1996.301
 129  2301.544
 130  4251.337
 131  4722.866
 132  2872.556
 133  363.7323
 134  -166.8425
 135  2277.022
 136  4602.971
 137  3382.031
 138  3250.368
 139  4183.174
 140  2965.826
 141  -557.7083
 142  -2618.559
 143  -501.9971
 144  2056.686
 145  2129.186
 146  -994.9441
 147  -6308.806
 148  -8655.623
 149  -7341.712
 150  -2699.448
 151  -1241.952
 152  -139.0808
 153  -3124.712
 154  -5124.979
 155  -5279.883
 156  -6252.718
 157  -4592.568
 158  -3101.967
 159  -201.6276
 160  -1243.105
 161  -2581.072
 162  -3493.845
 163  -1838.332
 164  -1766.401
 165  -1039.429
 166  1287.531
 167  3024.319
 168  2345.528
 169  2868.146
 170  2294.975
 171  971.1309
 172  69.00375
 173  745.3888
 174  -2337.478
 175  -4640.627
 176  -4528.439
 177  -1590.832
 178  -241.8804
 179  2991.367
 180  2729.171
 181  -1286.78
 182  -5789.937
 183  -8174.914
 184  -7150.527
 185  -4328.64
 186  -135.0896
 187  -196.5665
 188  988.5246
 189  -153.9107
 190  -1160.822
 191  -1540.444
 192  935.985
 193  6064.85
 194  7730.144
 195  6684.474
 196  3387.186
 197  1486.08
 198  2656.552
 199  7283.644
 200  7193.931
 201  7232.496
 202  5106.242
 203  1091.447
 204  1645.147
 205  780.543
 206  3411.394
 207  1827.661
 208  3230.46
 209  1458.568
 210  1666.297
 211  1341.317
 212  1966.849
 213  209.302
 214  -453.7717
 215  -403.26
 216  1887.425
 217  388.3822
 218  -412.313
 219  853.438
 220  1541.834
 221  1527.07
 222  -2077.863
 223  -5634.684
 224  -8165.296
 225  -7905.604
 226  -6236.897
 227  -5609.72
 228  -5800.476
 229  -2907.873
 230  1414.395
 231  7002.134
 232  6115.526
 233  2808.633
 234  -773.9713
 235  -1145.21
 236  3141.862
 237  10068.86
 238  12745.16
 239  8450.345
 240  2714.009
 241  -2718.046
 242  -7196.864
 243  -5300.808
 244  -5315.383
 245  -3748.758
 246  -3731.833
 247  -2518.107
 248  -5215.723
 249  -5787.926
 250  -6578.649
 251  -4662.756
 252  -3933.051
 253  -1511.096
 254  -3184.684
 255  -2536.418
 256  -515.8074
 257  -831.3915
 258  -1715.678
 259  -3503.767
 260  -2286.53
 261  -1350.21
 262  1113.125
 263  851.9335
 264  1179.735
 265  1186.512
 266  -2093.2
 267  -2765.625
 268  -909.8389
 269  -713.6933
 270  -1881.321
 271  -1178.668
 272  68.87236
 273  -635.1467
 274  -3410.386
 275  -2489.772
 276  -2805.761
 277  -2131.436
 278  1011.25
 279  2443.404
 280  1718.941
 281  -240.9575
 282  -720.6675
 283  376.6397
 284  437.7925
 285  3174.246
 286  4700.831
 287  4123.328
 288  204.7231
 289  -1908.833
 290  -4352.068
 291  -8186.343
 292  -7119.209
 293  -3896.547
 294  -3570.122
 295  -3619.106
 296  -3492.508
 297  -4113.838
 298  -5756.915
 299  -3735.225
 300  -446.4175
 301  179.8516
 302  2333.191
 303  869.2144
 304  -600.116
 305  1559.907
 306  4616.13
 307  8233.786
 308  7653.204
 309  7450.895
 310  3460.453
 311  -378.3362
 312  -1691.142
 313  -4914.186
 314  -3217.104
 315  -1059.25
 316  2815.454
 317  3724.794
 318  1923.839
 319  -2354.883
 320  -6694.452
 321  -5528.659
 322  -1431.97
 323  2065.726
 324  3232.586
 325  -3858.111
 326  -4045.923
 327  -1881.241
 328  4107.126
 329  7730.535
 330  6090.635
 331  -432.9349
 332  -4815.557
 333  -6682.519
 334  -2016.29
 335  730.5521
 336  825.1085
 337  -1986.681
 338  -6586.692
 339  -8529.117
 340  -6573.355
 341  -4994.062
 342  -3690.146
 343  -5313.886
 344  -2499.732
 345  -3908.812
 346  -3450.531
 347  -2689.129
 348  125.1905
 349  4360.5
 350  6855.898
 351  6631.601
 352  234.4155
 353  -3488.984
 354  -2335.265
 355  331.0654
 356  3841.638
 357  3303.833
 358  -850.0986
 359  -6597.113
 360  -8035.049
 361  -4175.622
 362  -2346.948
 363  2480.393
 364  4645.393
 365  1517.674
 366  -4539.119
 367  59.66088
 368  3259.611
 369  7372.713
 370  7414.785
 371  7801.117
 372  3059.437
 373  -3162.329
 374  -2942.985
 375  -1631.634
 376  1358.501
 377  3427.894
 378  1727.741
 379  -2489.294
 380  -3634.508
 381  -168.0224
 382  2355.879
 383  2175.386
 384  -1590.02
 385  -5779.304
 386  -9129.091
 387  -7768.663
 388  -3992.435
 389  -3370.203
 390  -6621.489
 391  -8017.582
 392  -10111.25
 393  -7352.161
 394  -3617.929
 395  1416.626
 396  3790.805
 397  3219.985
 398  2079.134
 399  3472.642
 400  2777.609
 401  6438.623
 402  10550.23
 403  10472.21
 404  11066.57
 405  11291.33
 406  9049.631
 407  5579.156
 408  7943.031
 409  8078.412
 410  6049.597
 411  2357.566
 412  454.3475
 413  -947.2712
 414  339.0875
 415  4553.853
 416  6599.933
 417  3617.08
 418  -240.5699
 419  -4497.176
 420  -5302.005
 421  -3094.21
 422  780.3461
 423  4234.441
 424  2734.869
 425  1284.074
 426  -1017.634
 427  -2252.969
 428  -73.15337
 429  3655.487
 430  5748.069
 431  4855.608
 432  4800.698
 433  3411.354
 434  951.2556
 435  -151.8498
 436  1207.365
 437  -1060.088
 438  709.983
 439  -681.973
 440  730.8611
 441  -1270.605
 442  -2485.067
 443  -1600.526
 444  -1170.336
 445  -443.965
 446  1471.384
 447  -212.6792
 448  882.0384
 449  -1621.814
 450  2991.212
 451  1372.521
 452  3282.114
 453  4689.764
 454  4090.49
 455  4892.654
 456  3942.144
 457  3398.902
 458  2286.358
 459  2670.416
 460  5175.693
 461  4189.542
 462  8069.064
 463  7835.764
 464  6606.613
 465  1441.913
 466  -188.6316
 467  -717.6917
 468  422.0968
 469  2043.247
 470  3599.005
 471  2395.039
 472  -919.155
 473  550.6794
 474  -39.21667
 475  433.4325
 476  -1378.88
 477  1370.484
 478  2736.871
 479  4619.99
 480  4303.63
 481  1896.081
 482  -374.8454
 483  -1252.607
 484  -1030.99
 485  210.8862
 486  -193.1504
 487  -178.9034
 488  -3086.616
 489  -4032.975
 490  -3487.831
 491  -618.6414
 492  -1233.99
 493  -151.7652
 494  2730.594
 495  2905.867
 496  4049.859
 497  4779.303
 498  1301.142
 499  -698.3708
 500  428.602
 501  1981.481
 502  1595.548
 503  1417.174
 504  1628.992
 505  -3253.835
 506  -7598.198
 507  -8914.481
 508  -9822.836
 509  -6728.87
 510  -3199.177
 511  -1671.102
