# Input file       =  1212461417.113944-PSRB0329-2ms-sampling-dd.dat
# Candidate        =  PSR_0332+5434
# Telescope        =  AR
# Epoch_topo       =  58277.118473541021
# Epoch_bary       =  N/A
# T_sample         =  0.002
# Data Folded      =  7208960
# Data Avg         =  -4.7819060988222e-10
# Data StdDev      =  7.22882159046077 
# Profile Bins     =  512
# Profile Avg      =  -0.165893833444788
# Profile StdDev   =  857.766011882554 
# Reduced chi-sqr  =  0.619
# Prob(Noise)      <  1   (~0.0 sigma)
# P_topo (ms)      =  714.510040556633  +/- 4.56e-05
# P'_topo (s/s)    =  -0                +/- 2.45e-11
# P''_topo (s/s^2) =  0                 +/- 1.1e-14
# P_bary (ms)      =  N/A
# P'_bary (s/s)    =  N/A
# P''_bary (s/s^2) =  N/A
# P_orb (s)        =  N/A
# asin(i)/c (s)    =  N/A
# eccentricity     =  N/A
# w (rad)          =  N/A
# T_peri           =  N/A
######################################################
   0  -78.18192
   1  -852.8522
   2  -787.4471
   3  -258.3701
   4  -282.2929
   5  -562.7482
   6  248.3744
   7  62.5614
   8  -693.1966
   9  -1060.089
  10  -182.1669
  11  246.5393
  12  326.2268
  13  344.3011
  14  24.69027
  15  -92.32239
  16  -966.2029
  17  -670.2305
  18  -253.8714
  19  337.6674
  20  590.0883
  21  8.554797
  22  11.08029
  23  -414.5334
  24  -496.1855
  25  -698.8152
  26  -572.7833
  27  234.952
  28  349.4174
  29  787.4114
  30  526.5891
  31  -304.816
  32  -111.9542
  33  -400.2247
  34  -596.8908
  35  -278.004
  36  -121.9032
  37  -87.40903
  38  -132.5219
  39  -180.3657
  40  45.21425
  41  -317.6597
  42  -509.3947
  43  -216.4356
  44  150.6612
  45  424.2853
  46  155.0698
  47  166.8097
  48  -127.5816
  49  -455.2112
  50  -577.7189
  51  -341.8354
  52  453.7477
  53  344.9628
  54  491.8373
  55  349.1468
  56  -41.68244
  57  -651.866
  58  -656.088
  59  -337.2972
  60  135.0699
  61  466.6032
  62  638.1971
  63  590.0995
  64  497.1293
  65  -6.925769
  66  -454.2978
  67  -960.7358
  68  -622.942
  69  311.0605
  70  701.412
  71  805.6959
  72  538.995
  73  234.8569
  74  87.67634
  75  -334.2448
  76  -601.3812
  77  363.4991
  78  237.3961
  79  187.5186
  80  181.1284
  81  -430.671
  82  -712.126
  83  -842.7568
  84  -583.8988
  85  -440.8584
  86  251.965
  87  421.3359
  88  223.8427
  89  366.6011
  90  -437.6581
  91  -577.7881
  92  -519.6569
  93  -16.067
  94  16.01264
  95  113.3441
  96  30.27649
  97  -401.3976
  98  -477.0452
  99  -654.5486
 100  -670.3982
 101  75.38217
 102  -31.54792
 103  127.0947
 104  263.7431
 105  168.342
 106  321.5946
 107  -64.38395
 108  -404.3517
 109  -338.1734
 110  -289.4174
 111  215.629
 112  108.3356
 113  -14.04993
 114  136.9444
 115  -380.4316
 116  -191.4536
 117  92.23064
 118  510.9567
 119  415.6942
 120  -36.45951
 121  297.4575
 122  4.020276
 123  -140.2357
 124  -664.6361
 125  -50.84156
 126  947.2574
 127  500.7203
 128  984.2078
 129  470.1849
 130  -1.094746
 131  -398.3104
 132  -519.7192
 133  -449.0797
 134  325.6093
 135  922.139
 136  489.8173
 137  660.1489
 138  520.6734
 139  -171.5161
 140  -394.0386
 141  -535.3824
 142  -431.227
 143  95.18877
 144  214.1994
 145  338.3559
 146  508.7303
 147  310.9029
 148  122.1988
 149  -126.8167
 150  -232.3662
 151  40.55037
 152  184.4054
 153  332.3249
 154  523.8242
 155  661.6056
 156  150.6108
 157  -203.276
 158  10.08836
 159  74.65718
 160  596.637
 161  630.3892
 162  869.2113
 163  345.3869
 164  -237.896
 165  -888.0179
 166  -774.673
 167  -183.6952
 168  628.6691
 169  522.166
 170  302.5186
 171  226.178
 172  -384.1833
 173  -551.8895
 174  -899.7648
 175  -576.3511
 176  -709.3085
 177  -278.2398
 178  178.1959
 179  59.96333
 180  364.2479
 181  -222.1369
 182  -416.1339
 183  -244.4522
 184  -325.4821
 185  -545.5601
 186  -181.5964
 187  38.1101
 188  107.8738
 189  -292.8636
 190  -130.6612
 191  58.65755
 192  -72.15873
 193  -148.4342
 194  -251.8174
 195  -191.5603
 196  -665.2078
 197  -440.7699
 198  -1283.626
 199  -804.2664
 200  -52.67806
 201  383.2502
 202  373.7938
 203  -33.21494
 204  -135.2729
 205  -613.281
 206  -934.2216
 207  -1038.71
 208  -92.4174
 209  668.1381
 210  394.2246
 211  -205.9408
 212  -145.2778
 213  -449.4078
 214  -1066.516
 215  -912.8583
 216  -661.4128
 217  -28.88573
 218  -39.19196
 219  95.14698
 220  -4.538354
 221  98.21547
 222  -302.5232
 223  -571.9991
 224  -523.7105
 225  -359.4479
 226  -311.3054
 227  -211.8402
 228  158.9299
 229  224.2207
 230  -467.2559
 231  -783.3494
 232  -1118.645
 233  -535.7149
 234  431.5516
 235  720.704
 236  944.1948
 237  863.85
 238  334.1782
 239  -223.2625
 240  -148.9974
 241  -117.0859
 242  285.6803
 243  408.7326
 244  302.0117
 245  509.8545
 246  495.6963
 247  152.6836
 248  -606.2047
 249  -520.678
 250  178.8566
 251  640.6529
 252  386.3699
 253  530.695
 254  997.9202
 255  561.436
 256  -20.92023
 257  -307.4101
 258  131.394
 259  20.65537
 260  -33.2481
 261  890.9601
 262  1068.038
 263  666.1437
 264  242.718
 265  -328.6254
 266  358.7585
 267  769.5516
 268  1288.795
 269  1862.306
 270  2281.701
 271  2476.057
 272  1843.067
 273  1511.709
 274  478.9915
 275  883.7195
 276  947.5688
 277  373.2339
 278  162.989
 279  213.8295
 280  341.9007
 281  -570.5312
 282  -271.7406
 283  572.976
 284  1034.031
 285  621.0699
 286  740.2828
 287  576.1292
 288  296.4467
 289  -451.9626
 290  -598.2775
 291  482.0114
 292  142.34
 293  239.3626
 294  199.7336
 295  467.3058
 296  620.0261
 297  -342.9733
 298  -313.7126
 299  -373.6065
 300  347.0557
 301  172.3029
 302  202.0576
 303  988.8293
 304  21.95238
 305  -443.9303
 306  -678.4031
 307  149.4861
 308  558.595
 309  531.1796
 310  664.2598
 311  -1.122163
 312  200.6896
 313  -487.6016
 314  -919.5807
 315  -992.6197
 316  -52.7061
 317  289.2233
 318  461.3658
 319  277.6179
 320  116.0046
 321  -269.2424
 322  -686.1574
 323  -556.4014
 324  -358.7581
 325  149.662
 326  153.6227
 327  184.4971
 328  605.2912
 329  458.8527
 330  34.21242
 331  -417.2564
 332  -685.3013
 333  -481.1195
 334  -446.2217
 335  -200.7286
 336  191.3027
 337  340.7596
 338  139.7343
 339  -364.9653
 340  -47.30305
 341  96.84792
 342  331.6158
 343  -49.3876
 344  349.0871
 345  129.1971
 346  -428.1057
 347  -273.9941
 348  -522.2619
 349  -133.213
 350  -195.4236
 351  -185.441
 352  -195.4969
 353  50.03916
 354  -11.23233
 355  -242.9478
 356  -279.6407
 357  24.33794
 358  265.7877
 359  524.6797
 360  556.7065
 361  58.18441
 362  575.2338
 363  199.0831
 364  -131.4021
 365  -396.131
 366  -295.0664
 367  -200.9255
 368  118.6151
 369  376.2055
 370  192.1294
 371  148.0303
 372  -296.7233
 373  -620.9637
 374  -140.5411
 375  -65.46336
 376  9.564309
 377  721.0425
 378  319.2825
 379  180.4445
 380  -271.236
 381  -277.3714
 382  119.1536
 383  192.5888
 384  367.9221
 385  -309.5348
 386  8.715639
 387  -21.9118
 388  -594.3674
 389  -373.5843
 390  336.341
 391  682.9399
 392  182.063
 393  60.76276
 394  -174.0439
 395  -369.1575
 396  -427.052
 397  -764.2879
 398  -585.2183
 399  -89.71306
 400  114.0079
 401  -16.39178
 402  347.4988
 403  43.09646
 404  -488.8989
 405  -340.7547
 406  -384.7527
 407  -183.4972
 408  286.3021
 409  426.734
 410  293.8621
 411  540.0928
 412  -154.6645
 413  -1073.264
 414  -668.1634
 415  -220.8474
 416  -63.0864
 417  197.8263
 418  432.6753
 419  375.9484
 420  -376.36
 421  -627.6078
 422  -794.084
 423  -336.9424
 424  753.0534
 425  428.1761
 426  260.3932
 427  615.2616
 428  427.9512
 429  95.75531
 430  -103.4472
 431  -148.7838
 432  -524.1463
 433  -357.0144
 434  -534.943
 435  30.73393
 436  588.3958
 437  134.808
 438  -214.4337
 439  -403.1778
 440  -545.4106
 441  -726.7247
 442  -264.5668
 443  -95.75502
 444  -442.0713
 445  -234.9188
 446  -440.3192
 447  -645.5626
 448  207.3206
 449  283.1323
 450  16.95833
 451  117.8499
 452  -288.0003
 453  -476.2519
 454  -561.2825
 455  -760.8633
 456  -257.2563
 457  650.0301
 458  547.0087
 459  160.7109
 460  450.6648
 461  -356.7891
 462  -865.3071
 463  -800.0852
 464  -144.3201
 465  218.5316
 466  263.0173
 467  471.2383
 468  331.6233
 469  156.7092
 470  -622.2339
 471  -345.3603
 472  -60.42158
 473  47.7174
 474  239.0525
 475  447.1973
 476  155.1092
 477  -218.9663
 478  -185.2159
 479  -396.2701
 480  -722.2212
 481  -215.9811
 482  558.6554
 483  486.6058
 484  475.4033
 485  612.4952
 486  113.7879
 487  -191.6151
 488  -300.198
 489  -208.4622
 490  389.96
 491  284.9578
 492  415.3857
 493  250.6934
 494  148.6613
 495  78.05782
 496  -853.2084
 497  -758.5649
 498  -155.0229
 499  459.6804
 500  814.4053
 501  -72.11322
 502  12.88553
 503  220.9326
 504  -138.468
 505  -454.6882
 506  49.79681
 507  644.8079
 508  56.78623
 509  -158.6927
 510  -124.0717
 511  15.51704
