# Input file       =  1212749416.100264_cleaned.dat
# Candidate        =  PSR_0332+5434
# Telescope        =  AR
# Epoch_topo       =  58280.451795141948
# Epoch_bary       =  N/A
# T_sample         =  0.002
# Data Folded      =  2293760
# Data Avg         =  0.0757860423656353
# Data StdDev      =  1.00170857946267 
# Profile Bins     =  512
# Profile Avg      =  339.479461454084 
# Profile StdDev   =  67.0471621338117 
# Reduced chi-sqr  =  0.854
# Prob(Noise)      <  0.993   (~0.0 sigma)
# P_topo (ms)      =  714.507197265001  +/- 0.000655
# P'_topo (s/s)    =  -0                +/- 1.11e-09
# P''_topo (s/s^2) =  0                 +/- 1.56e-12
# P_bary (ms)      =  N/A
# P'_bary (s/s)    =  N/A
# P''_bary (s/s^2) =  N/A
# P_orb (s)        =  N/A
# asin(i)/c (s)    =  N/A
# eccentricity     =  N/A
# w (rad)          =  N/A
# T_peri           =  N/A
######################################################
   0  475.6735
   1  536.1073
   2  493.1404
   3  437.5867
   4  419.0538
   5  397.1346
   6  425.4038
   7  398.615
   8  398.5658
   9  434.5999
  10  442.4387
  11  404.6201
  12  420.2135
  13  326.952
  14  260.4033
  15  278.6812
  16  348.9402
  17  372.3423
  18  368.0678
  19  315.3646
  20  241.3735
  21  273.712
  22  355.0479
  23  381.4698
  24  386.9692
  25  367.0655
  26  373.7533
  27  443.6337
  28  491.3224
  29  438.3123
  30  410.1772
  31  394.058
  32  375.6687
  33  376.0467
  34  356.1407
  35  393.9292
  36  378.8122
  37  345.4486
  38  384.4564
  39  403.9392
  40  372.3156
  41  341.2063
  42  388.2537
  43  371.0968
  44  353.6114
  45  387.4412
  46  435.0793
  47  413.4711
  48  419.0014
  49  369.1741
  50  378.1613
  51  345.9939
  52  343.1098
  53  341.9585
  54  337.8777
  55  333.4485
  56  361.8183
  57  377.9976
  58  358.0962
  59  337.6
  60  335.5267
  61  341.8091
  62  348.8952
  63  339.3039
  64  366.3483
  65  354.1563
  66  342.9383
  67  304.9935
  68  324.5334
  69  324.404
  70  324.7204
  71  359.7274
  72  345.9964
  73  340.3587
  74  356.6639
  75  332.7245
  76  364.3777
  77  370.0716
  78  366.0372
  79  359.9338
  80  367.8363
  81  325.5162
  82  305.8917
  83  293.039
  84  324.7105
  85  395.1048
  86  348.6193
  87  354.1417
  88  348.5319
  89  366.0627
  90  352.4171
  91  348.1835
  92  373.0522
  93  370.2992
  94  318.7838
  95  351.8408
  96  364.1319
  97  360.3063
  98  323.6782
  99  295.8376
 100  290.7856
 101  336.5651
 102  335.5617
 103  311.4258
 104  294.9521
 105  301.4642
 106  304.7463
 107  329.5758
 108  345.6363
 109  320.7165
 110  248.1609
 111  265.1479
 112  342.7373
 113  295.9225
 114  289.0921
 115  328.513
 116  314.3262
 117  314.5084
 118  338.1674
 119  331.3282
 120  336.0207
 121  331.8561
 122  381.0143
 123  427.6516
 124  439.3799
 125  422.1797
 126  382.3351
 127  392.51
 128  387.911
 129  377.62
 130  379.7478
 131  355.4863
 132  387.1844
 133  372.9279
 134  348.7153
 135  331.0895
 136  311.1335
 137  369.6429
 138  411.2839
 139  367.2893
 140  348.6632
 141  368.704
 142  354.0541
 143  312.9673
 144  268.9251
 145  303.3883
 146  379.0576
 147  383.0996
 148  313.0344
 149  305.62
 150  304.3406
 151  261.5699
 152  267.0289
 153  313.8475
 154  302.6166
 155  314.9182
 156  350.5711
 157  399.5647
 158  376.5668
 159  385.8746
 160  417.2966
 161  353.8022
 162  329.9377
 163  336.4481
 164  366.3225
 165  346.3575
 166  378.3412
 167  372.0269
 168  364.3704
 169  325.0623
 170  313.0984
 171  330.3529
 172  344.1545
 173  397.7216
 174  386.3524
 175  328.4214
 176  322.9733
 177  375.4786
 178  342.4802
 179  352.2268
 180  351.0285
 181  355.3048
 182  311.9854
 183  306.9995
 184  308.2262
 185  333.9486
 186  328.9373
 187  326.5884
 188  372.8543
 189  380.9575
 190  328.2709
 191  344.8557
 192  352.9984
 193  365.862
 194  391.4728
 195  353.5301
 196  312.4548
 197  286.3203
 198  289.2128
 199  323.3489
 200  352.8585
 201  388.4152
 202  352.5314
 203  293.5446
 204  353.1994
 205  356.6114
 206  347.8489
 207  390.9742
 208  352.6187
 209  338.7979
 210  375.5554
 211  371.0643
 212  386.8917
 213  373.4219
 214  343.9799
 215  383.8768
 216  434.1587
 217  420.8832
 218  412.2704
 219  363.6698
 220  307.4115
 221  324.999
 222  301.87
 223  269.0582
 224  260.1536
 225  242.5511
 226  261.3976
 227  317.7602
 228  282.1935
 229  282.1222
 230  291.2754
 231  285.0558
 232  297.0359
 233  377.9883
 234  366.1649
 235  353.9417
 236  377.673
 237  317.2415
 238  310.0247
 239  318.6813
 240  295.8943
 241  345.608
 242  385.2479
 243  401.194
 244  372.6571
 245  406.8064
 246  353.7005
 247  302.7361
 248  328.8763
 249  324.2292
 250  327.4986
 251  304.4839
 252  274.9017
 253  320.1048
 254  340.7872
 255  285.4822
 256  287.4363
 257  308.8674
 258  309.214
 259  334.4297
 260  366.4051
 261  356.5615
 262  315.156
 263  298.8584
 264  313.9168
 265  319.5474
 266  303.4877
 267  314.0648
 268  319.1946
 269  357.4548
 270  349.7272
 271  350.4482
 272  277.3581
 273  293.7281
 274  313.7845
 275  405.2627
 276  422.2801
 277  374.214
 278  353.8131
 279  327.466
 280  277.9494
 281  347.3539
 282  345.0878
 283  314.1559
 284  329.2014
 285  305.012
 286  289.6427
 287  267.1338
 288  285.642
 289  332.5424
 290  313.0568
 291  289.1885
 292  312.3405
 293  351.6296
 294  330.7501
 295  335.3711
 296  355.2722
 297  344.1843
 298  370.7695
 299  343.0929
 300  349.2052
 301  338.5999
 302  349.4041
 303  334.1394
 304  310.5574
 305  291.3651
 306  311.579
 307  366.2989
 308  349.0617
 309  334.2352
 310  352.6897
 311  359.8077
 312  350.0892
 313  322.8272
 314  311.7066
 315  337.9476
 316  350.6747
 317  346.7576
 318  372.8661
 319  307.672
 320  282.6637
 321  342.4986
 322  380.5092
 323  361.8779
 324  324.5993
 325  304.7481
 326  254.8582
 327  277.5264
 328  314.307
 329  343.3023
 330  324.6177
 331  330.2846
 332  308.8201
 333  266.5373
 334  267.7612
 335  298.9778
 336  319.9193
 337  308.4684
 338  282.3517
 339  315.8824
 340  313.0669
 341  303.9948
 342  280.8416
 343  321.8545
 344  380.3104
 345  364.109
 346  370.5818
 347  340.4822
 348  368.1187
 349  356.4811
 350  354.8018
 351  287.9376
 352  328.1365
 353  351.9645
 354  372.1024
 355  355.0103
 356  365.6559
 357  367.1329
 358  366.0911
 359  325.2267
 360  394.5152
 361  418.1327
 362  405.165
 363  405.1174
 364  368.596
 365  392.352
 366  424.979
 367  436.7275
 368  347.3957
 369  362.7726
 370  354.6288
 371  311.1573
 372  366.2256
 373  334.0749
 374  275.4062
 375  284.3592
 376  315.7905
 377  353.1082
 378  289.5585
 379  288.089
 380  314.6891
 381  263.9818
 382  203.1172
 383  219.3936
 384  240.2594
 385  270.9785
 386  352.6765
 387  331.4947
 388  313.1542
 389  237.358
 390  264.8097
 391  306.149
 392  344.6138
 393  322.3918
 394  275.6417
 395  277.7913
 396  270.5154
 397  296.6045
 398  312.0579
 399  299.189
 400  336.9674
 401  306.8281
 402  332.5751
 403  295.3759
 404  283.7058
 405  288.4475
 406  356.9603
 407  354.7819
 408  306.0141
 409  309.2448
 410  271.5385
 411  311.1287
 412  278.1675
 413  369.8177
 414  373.603
 415  369.8433
 416  337.114
 417  364.3099
 418  372.6085
 419  358.6991
 420  355.5378
 421  330.0923
 422  264.0733
 423  266.3962
 424  249.5228
 425  243.1086
 426  227.8678
 427  298.9653
 428  318.6502
 429  337.5308
 430  233.8078
 431  218.8748
 432  232.4626
 433  330.7522
 434  365.1263
 435  366.808
 436  336.3462
 437  337.269
 438  380.04
 439  348.2346
 440  329.6693
 441  300.6953
 442  366.26
 443  393.2251
 444  396.5294
 445  392.1214
 446  378.243
 447  370.4169
 448  308.2903
 449  359.2328
 450  337.2814
 451  301.8747
 452  325.2741
 453  335.7517
 454  362.1188
 455  334.4785
 456  333.9232
 457  304.7389
 458  322.8327
 459  331.3659
 460  382.3355
 461  367.6302
 462  318.8549
 463  270.354
 464  247.9986
 465  341.0358
 466  384.6444
 467  335.8954
 468  343.4058
 469  298.8679
 470  286.7463
 471  270.3822
 472  244.0138
 473  308.2428
 474  334.0632
 475  367.7208
 476  383.7436
 477  378.3351
 478  383.0847
 479  328.6587
 480  356.2723
 481  355.2302
 482  322.8179
 483  360.9454
 484  340.6307
 485  317.7112
 486  364.4726
 487  379.5866
 488  387.0671
 489  413.1816
 490  373.4905
 491  390.3324
 492  374.3918
 493  351.0325
 494  376.3116
 495  369.3036
 496  314.894
 497  247.4923
 498  263.7451
 499  311.8427
 500  344.7845
 501  325.0579
 502  268.8951
 503  265.891
 504  274.5529
 505  310.7581
 506  325.1174
 507  324.9919
 508  335.9313
 509  356.091
 510  385.1049
 511  390.5072
