# Input file       =  1212404813.114432_cleaned.dat
# Candidate        =  PSR_0332+5434
# Telescope        =  AR
# Epoch_topo       =  58276.463334657776
# Epoch_bary       =  N/A
# T_sample         =  0.002
# Data Folded      =  7340032
# Data Avg         =  0.0298281549819096
# Data StdDev      =  2.35398068982599 
# Profile Bins     =  256
# Profile Avg      =  855.246576036055 
# Profile StdDev   =  398.595039764982 
# Reduced chi-sqr  =  2.162
# Prob(Noise)      <  6.66e-24   (~10.0 sigma)
# P_topo (ms)      =  714.511015994877  +/- 0.000248
# P'_topo (s/s)    =  -0                +/- 1.31e-10
# P''_topo (s/s^2) =  0                 +/- 5.77e-14
# P_bary (ms)      =  N/A
# P'_bary (s/s)    =  N/A
# P''_bary (s/s^2) =  N/A
# P_orb (s)        =  N/A
# asin(i)/c (s)    =  N/A
# eccentricity     =  N/A
# w (rad)          =  N/A
# T_peri           =  N/A
######################################################
   0  1200.731
   1  797.9757
   2  637.4885
   3  509.9102
   4  939.8963
   5  1168.886
   6  864.867
   7  534.9979
   8  960.6415
   9  961.6898
  10  903.8627
  11  601.5535
  12  433.5093
  13  344.6516
  14  221.9081
  15  660.8965
  16  1044.52
  17  641.2248
  18  1235.948
  19  549.0626
  20  396.1118
  21  984.0384
  22  706.7948
  23  396.6076
  24  639.8383
  25  645.5728
  26  726.7162
  27  758.9588
  28  825.5629
  29  1349.09
  30  981.3134
  31  866.6768
  32  179.4111
  33  1019.935
  34  729.5583
  35  278.4657
  36  1171.154
  37  725.6014
  38  744.8951
  39  1111.856
  40  323.8384
  41  233.4852
  42  1169.58
  43  696.2471
  44  665.7797
  45  547.6887
  46  828.7144
  47  794.5382
  48  951.6418
  49  732.5943
  50  993.6985
  51  1077.095
  52  347.4918
  53  1062.622
  54  680.5941
  55  969.389
  56  998.0985
  57  75.4352
  58  289.3736
  59  1173.012
  60  307.675
  61  628.0771
  62  1158.96
  63  1296.221
  64  687.8705
  65  1003.274
  66  916.7797
  67  701.6241
  68  1274.032
  69  1670.654
  70  1134.72
  71  999.6968
  72  1197.457
  73  1135.351
  74  891.4327
  75  771.5421
  76  742.1125
  77  570.1943
  78  721.2467
  79  1033.076
  80  1263.119
  81  1152.799
  82  255.7383
  83  80.17252
  84  452.3292
  85  386.4557
  86  213.1325
  87  935.9048
  88  419.3849
  89  680.722
  90  1129.852
  91  746.6179
  92  966.5682
  93  761.9722
  94  1264.75
  95  1108.094
  96  809.2092
  97  369.8762
  98  575.3083
  99  311.8217
 100  89.57729
 101  -35.93012
 102  312.2773
 103  401.2677
 104  481.242
 105  283.0824
 106  272.3921
 107  31.72548
 108  778.5077
 109  917.432
 110  944.8538
 111  1057.193
 112  104.5406
 113  481.8815
 114  1043.983
 115  571.9362
 116  520.5784
 117  721.6035
 118  392.3198
 119  380.7702
 120  100.2393
 121  425.4326
 122  79.93955
 123  968.9227
 124  1287.511
 125  370.0048
 126  478.5606
 127  424.1494
 128  407.9758
 129  674.5531
 130  827.6501
 131  503.1149
 132  575.684
 133  885.636
 134  813.0664
 135  684.1837
 136  116.5951
 137  983.632
 138  1068.056
 139  1211.012
 140  512.9334
 141  836.7192
 142  884.3203
 143  771.3827
 144  554.5107
 145  1083.258
 146  1698.937
 147  2409.143
 148  3701.232
 149  4735.417
 150  3736.812
 151  1790.916
 152  1565.567
 153  1159.627
 154  1149.287
 155  1893.743
 156  1203.837
 157  1371.494
 158  933.2965
 159  1242.422
 160  702.3987
 161  842.0649
 162  1060.854
 163  722.3502
 164  949.8936
 165  667.4042
 166  501.898
 167  849.7016
 168  433.9461
 169  550.1246
 170  1009.221
 171  1056.544
 172  963.3651
 173  925.2864
 174  900.4464
 175  778.4872
 176  846.1015
 177  1014.587
 178  1155.554
 179  1063.415
 180  1248.23
 181  1125.658
 182  454.4792
 183  687.0027
 184  1293.728
 185  1125.097
 186  847.3924
 187  887.8201
 188  1113.288
 189  328.5495
 190  767.0916
 191  906.1808
 192  110.0826
 193  844.3935
 194  1461.534
 195  890.3669
 196  796.1516
 197  816.5214
 198  1269.701
 199  474.5442
 200  711.8281
 201  736.9847
 202  227.1592
 203  620.7558
 204  862.278
 205  118.3336
 206  644.8367
 207  520.0999
 208  792.8643
 209  1392.643
 210  1400.512
 211  1281.029
 212  888.1245
 213  1199.344
 214  917.8461
 215  1222.868
 216  1227.794
 217  1178.86
 218  858.6708
 219  1079.217
 220  1172.694
 221  1265.366
 222  891.2158
 223  879.8133
 224  1139.138
 225  1304.489
 226  457.4966
 227  993.5728
 228  686.1745
 229  877.3328
 230  1232.065
 231  1208.286
 232  1259.207
 233  572.6038
 234  1047.518
 235  1013.625
 236  868.8041
 237  367.645
 238  978.8859
 239  1135.927
 240  1063.426
 241  635.7446
 242  909.9174
 243  1115.198
 244  852.4719
 245  858.5265
 246  916.1652
 247  332.297
 248  876.0011
 249  1450.794
 250  290.7675
 251  658.2432
 252  1306.843
 253  847.0286
 254  774.99
 255  718.2168
