# Input file       =  1212562175.108889-PSRB0329-2ms-sampling-dd.dat
# Candidate        =  PSR_0332+5434
# Telescope        =  AR
# Epoch_topo       =  58278.284654038071
# Epoch_bary       =  N/A
# T_sample         =  0.002
# Data Folded      =  7340032
# Data Avg         =  -3.38262010034216e-10
# Data StdDev      =  3.89397541005438 
# Profile Bins     =  512
# Profile Avg      =  0.23194307575367 
# Profile StdDev   =  466.237499422274 
# Reduced chi-sqr  =  0.719
# Prob(Noise)      <  1   (~0.0 sigma)
# P_topo (ms)      =  714.508932484829  +/- 0.000605
# P'_topo (s/s)    =  -0                +/- 3.19e-10
# P''_topo (s/s^2) =  0                 +/- 1.41e-13
# P_bary (ms)      =  N/A
# P'_bary (s/s)    =  N/A
# P''_bary (s/s^2) =  N/A
# P_orb (s)        =  N/A
# asin(i)/c (s)    =  N/A
# eccentricity     =  N/A
# w (rad)          =  N/A
# T_peri           =  N/A
######################################################
   0  -104.6496
   1  -225.2945
   2  -222.5398
   3  -116.4894
   4  152.8865
   5  -282.8454
   6  -643.4288
   7  -377.3523
   8  -479.255
   9  -330.0845
  10  -37.82771
  11  104.3256
  12  -57.94773
  13  -219.3466
  14  -45.27736
  15  -185.6408
  16  -139.8392
  17  -266.5883
  18  -301.5466
  19  -230.8055
  20  -154.4211
  21  -2.499579
  22  -32.65395
  23  54.04562
  24  238.7366
  25  116.9346
  26  -87.7519
  27  -258.0123
  28  -125.9721
  29  -237.0378
  30  -98.86781
  31  -3.424445
  32  -474.3022
  33  -319.7353
  34  -163.7897
  35  -224.304
  36  -277.4689
  37  -556.3987
  38  -413.015
  39  -272.5775
  40  -296.4844
  41  -133.7291
  42  -207.0509
  43  -40.61801
  44  -133.0797
  45  -227.1361
  46  48.36281
  47  53.9133
  48  286.1802
  49  -46.07689
  50  26.10397
  51  -96.25864
  52  -328.8047
  53  87.86218
  54  124.6725
  55  116.7019
  56  483.8102
  57  263.6234
  58  254.4742
  59  24.06571
  60  408.3454
  61  -134.4318
  62  -354.3338
  63  -146.9289
  64  318.0547
  65  185.4282
  66  -149.9034
  67  -321.1115
  68  -376.0229
  69  -321.5229
  70  -347.4773
  71  -42.79451
  72  -281.649
  73  -197.5476
  74  -90.8035
  75  62.48039
  76  87.31235
  77  237.2749
  78  284.7811
  79  -34.29281
  80  -286.4382
  81  -297.0223
  82  -419.6642
  83  -10.95412
  84  143.9388
  85  269.2812
  86  55.45938
  87  -251.1719
  88  -522.6037
  89  -453.6769
  90  -136.5221
  91  -74.61594
  92  -157.7471
  93  -199.7806
  94  -235.3909
  95  238.4331
  96  63.36376
  97  -114.3705
  98  -158.3656
  99  -298.4288
 100  -380.7859
 101  -180.6057
 102  -168.1217
 103  63.19942
 104  -135.2399
 105  -226.6418
 106  -197.6711
 107  142.3753
 108  -31.97036
 109  -160.9457
 110  -89.95319
 111  -258.2381
 112  -48.23565
 113  -50.21138
 114  -5.80561
 115  -42.66912
 116  41.94727
 117  -7.851318
 118  130.571
 119  188.0901
 120  19.99051
 121  -150.8184
 122  -332.0413
 123  -260.2291
 124  294.2552
 125  -197.3185
 126  -269.5663
 127  -255.7411
 128  -142.4505
 129  -50.02692
 130  -151.8165
 131  46.64682
 132  9.682565
 133  -306.5897
 134  -425.5673
 135  -247.1523
 136  69.54747
 137  -94.56982
 138  -445.3489
 139  -357.4276
 140  -348.3703
 141  -299.6015
 142  -90.71288
 143  116.3903
 144  84.42754
 145  91.5118
 146  40.03811
 147  -112.756
 148  176.9541
 149  56.30284
 150  27.47229
 151  -178.1635
 152  -240.5461
 153  -56.62808
 154  -212.0721
 155  26.08901
 156  31.15127
 157  -81.61872
 158  145.1626
 159  129.2924
 160  17.11612
 161  -107.0262
 162  -241.3087
 163  -180.4009
 164  -233.7035
 165  -336.9915
 166  -175.6056
 167  -87.45744
 168  32.81905
 169  66.25488
 170  -64.7508
 171  317.6131
 172  567.2388
 173  277.6912
 174  -107.1139
 175  -107.9985
 176  54.1711
 177  245.0929
 178  -110.7569
 179  237.5273
 180  401.1633
 181  256.3258
 182  185.4423
 183  167.1998
 184  -122.2543
 185  -7.700244
 186  10.40129
 187  -28.62757
 188  172.4699
 189  10.6129
 190  5.345933
 191  -145.8706
 192  68.02145
 193  -125.7454
 194  -224.0209
 195  -271.1222
 196  -35.84759
 197  113.3115
 198  -114.9722
 199  -200.2706
 200  -315.2001
 201  -470.8618
 202  -67.87494
 203  -197.4683
 204  -167.864
 205  -204.1151
 206  42.81297
 207  94.71267
 208  -327.6346
 209  -251.1919
 210  44.53791
 211  142.7833
 212  -312.5311
 213  -465.0381
 214  -261.5468
 215  -78.0558
 216  -307.8566
 217  -83.21227
 218  -177.4896
 219  134.6148
 220  141.4613
 221  190.4599
 222  156.1931
 223  -36.66508
 224  -135.2321
 225  -56.27326
 226  -126.4955
 227  75.67687
 228  245.7289
 229  -41.24035
 230  -24.17719
 231  -144.0472
 232  11.61189
 233  2.541451
 234  -106.7859
 235  -154.8564
 236  -273.5866
 237  -295.2827
 238  96.54954
 239  85.69498
 240  -277.7037
 241  -181.5376
 242  -255.1663
 243  -33.45736
 244  -5.593238
 245  -17.25936
 246  49.74252
 247  -167.6483
 248  -101.7455
 249  -265.4735
 250  -554.8536
 251  -661.2537
 252  -404.6138
 253  55.4631
 254  422.5112
 255  464.0214
 256  -81.74126
 257  13.79329
 258  -15.18834
 259  158.4325
 260  181.3949
 261  215.5327
 262  213.7545
 263  250.959
 264  211.5148
 265  -218.8114
 266  -145.7166
 267  236.5025
 268  114.3287
 269  -260.5623
 270  25.19298
 271  136.2428
 272  369.4344
 273  378.5444
 274  408.5054
 275  359.19
 276  -108.0053
 277  41.70752
 278  -42.84391
 279  39.526
 280  293.6984
 281  -36.39829
 282  -12.39071
 283  14.15472
 284  441.2251
 285  605.8664
 286  564.2932
 287  1020.226
 288  1140.492
 289  2139.482
 290  1837.271
 291  1579.653
 292  1167.976
 293  516.6212
 294  355.5089
 295  659.7021
 296  855.9329
 297  618.5655
 298  235.5418
 299  207.0815
 300  83.98266
 301  -61.1353
 302  173.4446
 303  151.3018
 304  305.4499
 305  476.8202
 306  287.5995
 307  -51.58265
 308  -263.3615
 309  -100.4798
 310  290.923
 311  403.4604
 312  289.1458
 313  342.4569
 314  33.13536
 315  13.92214
 316  -142.9319
 317  -85.66339
 318  221.897
 319  88.13264
 320  106.716
 321  624.3744
 322  387.8113
 323  201.5843
 324  63.43316
 325  11.58908
 326  -305.6627
 327  -101.6608
 328  226.2592
 329  265.4699
 330  486.1333
 331  86.80151
 332  -81.43034
 333  -65.71429
 334  -104.7819
 335  -7.195521
 336  -38.54372
 337  185.8031
 338  109.2088
 339  375.6901
 340  314.7166
 341  116.4025
 342  -325.8295
 343  -99.20523
 344  216.5242
 345  326.4013
 346  200.7879
 347  6.832221
 348  120.369
 349  202.9634
 350  -71.20459
 351  -251.8466
 352  136.8763
 353  543.7679
 354  314.2683
 355  4.785884
 356  124.3481
 357  67.08056
 358  253.1551
 359  -60.46074
 360  -215.8856
 361  101.8311
 362  300.8995
 363  369.6161
 364  222.2608
 365  -93.30962
 366  104.3006
 367  145.5287
 368  -22.26398
 369  -34.11166
 370  3.1915
 371  -107.2297
 372  69.99986
 373  158.187
 374  99.01922
 375  -351.5424
 376  -482.903
 377  -357.0695
 378  -178.167
 379  -76.48349
 380  237.7402
 381  -2.769682
 382  -143.8378
 383  -54.41002
 384  -113.1007
 385  23.12049
 386  75.55033
 387  271.6283
 388  206.0034
 389  88.88728
 390  199.674
 391  328.6163
 392  91.59425
 393  30.07313
 394  280.9984
 395  306.3643
 396  -90.14149
 397  -444.0469
 398  -579.1506
 399  -259.8043
 400  8.374157
 401  96.25397
 402  157.8963
 403  -53.44234
 404  134.2646
 405  90.76717
 406  229.1307
 407  161.208
 408  -143.3381
 409  -166.6452
 410  -94.75712
 411  -172.7129
 412  -103.7842
 413  215.6655
 414  207.9461
 415  399.8285
 416  164.4551
 417  9.634904
 418  -5.318467
 419  -209.9634
 420  41.00298
 421  -225.1666
 422  -282.8494
 423  -497.5632
 424  -129.1953
 425  87.6022
 426  18.3229
 427  127.7531
 428  128.7139
 429  251.0405
 430  108.2227
 431  3.935225
 432  83.83112
 433  211.1306
 434  269.0096
 435  194.5508
 436  -79.85229
 437  -329.9109
 438  -174.2799
 439  488.7756
 440  625.4218
 441  112.0957
 442  -75.90907
 443  13.39859
 444  -120.8518
 445  93.56828
 446  -28.37475
 447  312.3024
 448  418.2659
 449  49.13794
 450  256.5433
 451  160.6713
 452  301.4554
 453  297.9936
 454  93.86425
 455  -71.86313
 456  -202.5462
 457  -267.0567
 458  -175.3832
 459  87.29655
 460  -48.32203
 461  251.0918
 462  182.7446
 463  -65.14767
 464  -222.5051
 465  -191.5915
 466  -190.173
 467  23.05956
 468  175.2588
 469  360.7593
 470  19.65082
 471  -429.2643
 472  -326.0251
 473  -29.55976
 474  165.638
 475  52.6773
 476  74.6594
 477  -321.6317
 478  -203.8057
 479  -232.2354
 480  -411.0825
 481  -336.8429
 482  -317.2156
 483  -386.7756
 484  -193.3346
 485  -485.6587
 486  -336.9255
 487  -173.1586
 488  -267.225
 489  -75.36699
 490  -224.4107
 491  -156.9997
 492  -393.9811
 493  -131.4295
 494  190.8847
 495  -83.85201
 496  17.14278
 497  -210.5699
 498  14.96832
 499  -3.578722
 500  121.6973
 501  -281.9337
 502  -270.7159
 503  -21.63939
 504  -19.51833
 505  318.9521
 506  316.6717
 507  62.69442
 508  164.9075
 509  122.4083
 510  -279.5799
 511  -274.3756
