# Input file       =  1212633698.108952_cleaned.dat
# Candidate        =  PSR_0332+5434
# Telescope        =  AR
# Epoch_topo       =  58279.112466538798
# Epoch_bary       =  N/A
# T_sample         =  0.002
# Data Folded      =  7208960
# Data Avg         =  0.0261964721243838
# Data StdDev      =  0.999989217164162
# Profile Bins     =  512
# Profile Avg      =  368.861046138848 
# Profile StdDev   =  118.657896311117 
# Reduced chi-sqr  =  1.384
# Prob(Noise)      <  1.72e-08   (~5.5 sigma)
# P_topo (ms)      =  714.508130040139  +/- 0.000181
# P'_topo (s/s)    =  -0                +/- 9.75e-11
# P''_topo (s/s^2) =  0                 +/- 4.38e-14
# P_bary (ms)      =  N/A
# P'_bary (s/s)    =  N/A
# P''_bary (s/s^2) =  N/A
# P_orb (s)        =  N/A
# asin(i)/c (s)    =  N/A
# eccentricity     =  N/A
# w (rad)          =  N/A
# T_peri           =  N/A
######################################################
   0  1140.602
   1  1034.328
   2  752.4517
   3  391.2428
   4  308.4184
   5  406.4807
   6  292.9049
   7  269.0709
   8  260.8129
   9  255.4981
  10  318.2226
  11  489.451
  12  452.4072
  13  454.1919
  14  473.5318
  15  417.8687
  16  467.9005
  17  397.5891
  18  328.7443
  19  341.6153
  20  294.7587
  21  381.6868
  22  394.6399
  23  419.2587
  24  497.7929
  25  353.7412
  26  423.2807
  27  345.5839
  28  264.7987
  29  349.5378
  30  421.7009
  31  352.5464
  32  390.1532
  33  201.8126
  34  281.5964
  35  445.6385
  36  257.673
  37  279.58
  38  356.5821
  39  344.9898
  40  281.0122
  41  295.6724
  42  375.6742
  43  557.1068
  44  439.0242
  45  311.5875
  46  211.9131
  47  137.2318
  48  343.5395
  49  483.517
  50  478.4181
  51  403.0481
  52  364.9533
  53  308.8569
  54  244.2865
  55  275.4624
  56  378.8683
  57  404.1595
  58  274.6341
  59  300.5949
  60  388.653
  61  283.9336
  62  330.4814
  63  352.9762
  64  432.7042
  65  403.3214
  66  248.37
  67  206.2315
  68  177.74
  69  248.2622
  70  318.4745
  71  379.108
  72  425.4267
  73  448.121
  74  424.828
  75  369.3528
  76  261.2724
  77  342.7724
  78  344.3749
  79  289.7515
  80  441.922
  81  343.9778
  82  382.3953
  83  318.2496
  84  392.3543
  85  348.0078
  86  269.9559
  87  357.1025
  88  333.3638
  89  416.0432
  90  272.9129
  91  210.4214
  92  344.1133
  93  349.808
  94  338.5478
  95  423.8561
  96  539.2851
  97  404.4174
  98  440.962
  99  427.2586
 100  318.7968
 101  255.8951
 102  277.929
 103  331.1885
 104  388.7059
 105  497.7352
 106  335.4375
 107  322.3439
 108  398.4738
 109  408.0461
 110  374.7329
 111  409.5075
 112  357.0158
 113  326.1041
 114  240.3134
 115  252.5754
 116  260.5219
 117  325.3152
 118  417.7388
 119  370.4105
 120  343.9724
 121  432.9471
 122  416.4513
 123  298.1287
 124  413.653
 125  418.4503
 126  421.9272
 127  504.2808
 128  463.4926
 129  343.8702
 130  223.9944
 131  283.9593
 132  294.4353
 133  324.9035
 134  377.8669
 135  393.7285
 136  336.2084
 137  227.5243
 138  275.6105
 139  404.4094
 140  345.0439
 141  217.8014
 142  347.4614
 143  328.5388
 144  325.9028
 145  527.2217
 146  466.3737
 147  419.241
 148  374.2834
 149  410.1712
 150  410.1304
 151  397.0963
 152  342.9142
 153  401.4596
 154  398.1144
 155  370.8649
 156  317.3823
 157  260.1735
 158  307.8387
 159  377.5483
 160  342.4407
 161  430.2975
 162  417.0936
 163  359.5055
 164  427.9816
 165  441.6941
 166  458.0331
 167  355.7906
 168  397.2869
 169  316.0012
 170  319.8588
 171  396.4738
 172  416.7093
 173  310.294
 174  325.3503
 175  331.8045
 176  275.4362
 177  252.7592
 178  367.6245
 179  408.9584
 180  393.185
 181  369.5966
 182  443.6659
 183  348.4031
 184  182.1441
 185  259.8241
 186  251.2088
 187  336.7786
 188  447.0452
 189  435.8046
 190  341.9084
 191  300.5798
 192  236.3148
 193  405.2485
 194  475.7151
 195  386.3737
 196  283.3701
 197  360.235
 198  482.2741
 199  426.5839
 200  535.1152
 201  485.1093
 202  318.7126
 203  488.8727
 204  459.7377
 205  430.0977
 206  302.0925
 207  278.8879
 208  323.5684
 209  252.9748
 210  380.1762
 211  494.1459
 212  482.0648
 213  327.1463
 214  297.6122
 215  259.1904
 216  391.5917
 217  366.28
 218  356.0571
 219  354.3292
 220  385.1733
 221  496.9775
 222  422.7094
 223  385.7812
 224  299.8722
 225  281.1003
 226  400.4596
 227  411.6351
 228  462.9066
 229  436.0491
 230  370.1418
 231  437.992
 232  428.9523
 233  287.656
 234  345.8479
 235  311.2992
 236  319.4923
 237  400.5855
 238  331.6353
 239  343.5429
 240  429.234
 241  480.708
 242  335.5044
 243  402.7476
 244  381.4668
 245  400.2867
 246  321.6082
 247  317.932
 248  374.927
 249  432.2826
 250  364.7927
 251  436.6441
 252  342.2504
 253  342.6764
 254  264.7841
 255  382.9575
 256  444.9556
 257  262.2349
 258  275.2969
 259  335.0275
 260  479.4413
 261  374.5998
 262  411.509
 263  381.739
 264  258.5797
 265  258.5436
 266  350.4861
 267  452.9564
 268  424.5923
 269  364.4987
 270  305.2484
 271  314.4686
 272  364.1365
 273  391.1658
 274  374.667
 275  432.2336
 276  345.1422
 277  281.92
 278  340.9585
 279  453.9215
 280  425.0666
 281  357.7375
 282  324.2886
 283  370.4171
 284  319.6485
 285  348.1244
 286  394.9059
 287  384.218
 288  303.7971
 289  342.0474
 290  451.2407
 291  334.4648
 292  466.2299
 293  365.1507
 294  328.2068
 295  360.0191
 296  446.0566
 297  380.7554
 298  373.8807
 299  373.4952
 300  487.8505
 301  391.4887
 302  343.153
 303  321.7095
 304  383.8246
 305  236.7394
 306  301.8215
 307  436.1265
 308  421.7278
 309  497.5872
 310  458.8173
 311  376.7173
 312  281.5151
 313  340.2392
 314  505.2265
 315  530.454
 316  430.0643
 317  372.8417
 318  371.7039
 319  253.036
 320  281.4316
 321  423.6774
 322  408.9188
 323  489.942
 324  511.2045
 325  495.6602
 326  404.5311
 327  427.8263
 328  334.9283
 329  286.5338
 330  408.6834
 331  501.6873
 332  325.2026
 333  291.9426
 334  408.2825
 335  425.5031
 336  358.4
 337  282.5291
 338  350.243
 339  420.3144
 340  335.7585
 341  302.9419
 342  354.6549
 343  498.924
 344  558.7479
 345  377.0279
 346  415.3802
 347  397.3003
 348  407.1881
 349  394.0489
 350  322.8275
 351  320.4911
 352  389.4394
 353  305.8397
 354  382.2992
 355  368.0692
 356  406.2538
 357  344.8716
 358  190.7438
 359  290.3166
 360  442.6884
 361  555.8373
 362  514.5798
 363  427.417
 364  377.9915
 365  368.9679
 366  425.7717
 367  488.5274
 368  329.8353
 369  363.1955
 370  352.1125
 371  337.418
 372  258.3668
 373  335.7415
 374  265.2098
 375  389.2686
 376  432.5246
 377  407.5771
 378  414.8564
 379  309.6957
 380  326.7917
 381  412.6805
 382  439.0289
 383  416.4109
 384  296.6276
 385  334.6979
 386  266.6193
 387  327.8915
 388  355.8426
 389  296.4062
 390  296.9516
 391  344.8942
 392  356.2818
 393  494.4063
 394  447.5732
 395  364.6581
 396  486.7372
 397  507
 398  454.0276
 399  350.0319
 400  344.4212
 401  191.1065
 402  158.698
 403  178.7673
 404  155.3617
 405  233.4401
 406  471.3629
 407  391.5877
 408  366.4088
 409  317.6707
 410  327.4344
 411  292.1721
 412  254.7221
 413  200.7168
 414  231.3613
 415  327.1503
 416  369.5222
 417  414.7331
 418  422.6778
 419  380.6137
 420  420.3577
 421  369.2701
 422  240.9383
 423  205.5638
 424  339.8676
 425  390.2929
 426  337.4229
 427  310.6169
 428  335.6789
 429  389.3342
 430  344.5461
 431  159.1249
 432  164.1938
 433  250.3658
 434  210.8822
 435  278.1328
 436  471.2437
 437  271.4281
 438  331.8059
 439  483.3414
 440  521.6772
 441  241.8261
 442  326.5897
 443  388.508
 444  365.4277
 445  415.1606
 446  402.3364
 447  338.8677
 448  306.372
 449  272.3972
 450  386.4259
 451  342.1177
 452  324.7124
 453  349.3642
 454  475.1642
 455  482.7781
 456  438.9402
 457  287.3172
 458  258.4944
 459  269.5826
 460  349.7915
 461  377.0394
 462  353.0968
 463  315.9117
 464  505.8716
 465  404.887
 466  362.7213
 467  418.8258
 468  399.4905
 469  361.5084
 470  319.7324
 471  309.7972
 472  420.636
 473  329.7045
 474  321.3782
 475  285.7121
 476  371.2986
 477  276.7788
 478  245.9763
 479  315.4355
 480  341.1778
 481  336.0087
 482  331.9027
 483  361.6042
 484  371.2226
 485  435.0389
 486  553.4692
 487  321.6463
 488  347.0892
 489  386.5544
 490  386.6389
 491  330.9535
 492  363.609
 493  378.5219
 494  376.3691
 495  295.7406
 496  258.8824
 497  368.5045
 498  206.0183
 499  129.5705
 500  312.3469
 501  394.0458
 502  389.3661
 503  280.8006
 504  324.1425
 505  520.086
 506  482.7627
 507  599.9112
 508  614.8066
 509  736.929
 510  943.6783
 511  1061.494
