# Input file       =  1212232536.125337_cleaned.dat
# Candidate        =  PSR_0332+5434
# Telescope        =  AR
# Epoch_topo       =  58274.469388024736
# Epoch_bary       =  N/A
# T_sample         =  0.002
# Data Folded      =  7340032
# Data Avg         =  0.0143358462531582
# Data StdDev      =  1.00004049966935 
# Profile Bins     =  512
# Profile Avg      =  205.480123029442 
# Profile StdDev   =  119.73788552515  
# Reduced chi-sqr  =  1.432
# Prob(Noise)      <  4.4e-10   (~6.1 sigma)
# P_topo (ms)      =  714.51294079698   +/- 0.000264
# P'_topo (s/s)    =  -0                +/- 1.39e-10
# P''_topo (s/s^2) =  0                 +/- 6.15e-14
# P_bary (ms)      =  N/A
# P'_bary (s/s)    =  N/A
# P''_bary (s/s^2) =  N/A
# P_orb (s)        =  N/A
# asin(i)/c (s)    =  N/A
# eccentricity     =  N/A
# w (rad)          =  N/A
# T_peri           =  N/A
######################################################
   0  239.2478
   1  267.0334
   2  302.7679
   3  291.7505
   4  173.8637
   5  264.7131
   6  288.0052
   7  345.2635
   8  228.6568
   9  185.6471
  10  219.188
  11  288.459
  12  208.1699
  13  106.5837
  14  244.5499
  15  243.0314
  16  233.6358
  17  206.4272
  18  196.2997
  19  239.0727
  20  131.4709
  21  80.68865
  22  144.677
  23  278.231
  24  295.8156
  25  253.0657
  26  354.2296
  27  466.6541
  28  460.1029
  29  335.6614
  30  277.308
  31  389.7165
  32  441.7497
  33  255.3843
  34  163.896
  35  307.0825
  36  295.0048
  37  243.6271
  38  163.078
  39  152.6138
  40  300.0764
  41  296.2129
  42  313.8858
  43  294.5546
  44  152.4252
  45  271.8206
  46  188.179
  47  175.7526
  48  210.0178
  49  93.32079
  50  169.379
  51  177.3987
  52  261.3421
  53  146.1115
  54  127.0699
  55  108.4697
  56  112.1345
  57  144.4257
  58  151.3967
  59  306.1579
  60  191.8417
  61  206.9878
  62  211.3728
  63  164.4928
  64  154.4133
  65  186.5342
  66  174.6103
  67  128.6302
  68  204.7103
  69  167.5754
  70  157.2588
  71  239.7242
  72  120.5525
  73  88.82533
  74  101.6523
  75  147.7826
  76  145.642
  77  179.1461
  78  154.9681
  79  165.0585
  80  75.73169
  81  174.353
  82  311.7002
  83  316.0464
  84  308.4312
  85  236.2353
  86  139.2074
  87  280.7849
  88  295.0158
  89  340.8966
  90  175.5401
  91  47.87505
  92  186.1389
  93  69.15143
  94  217.9724
  95  359.3354
  96  234.5464
  97  317.4618
  98  310.725
  99  178.5492
 100  242.0461
 101  260.1921
 102  228.2377
 103  304.5666
 104  278.4626
 105  169.5286
 106  156.7453
 107  191.1245
 108  200.4137
 109  134.4423
 110  67.41824
 111  177.4532
 112  178.7487
 113  183.8993
 114  273.1243
 115  318.7479
 116  210.5974
 117  231.1707
 118  190.4722
 119  202.7069
 120  198.2539
 121  241.1141
 122  344.2474
 123  160.7881
 124  229.5058
 125  160.3619
 126  225.9766
 127  259.1611
 128  186.6785
 129  226.1407
 130  34.03153
 131  90.38538
 132  233.8998
 133  251.7458
 134  186.1935
 135  296.2947
 136  239.4306
 137  153.8421
 138  71.44372
 139  202.2425
 140  325.0486
 141  273.4718
 142  202.3061
 143  300.1026
 144  237.8248
 145  181.3797
 146  182.5871
 147  78.91897
 148  200.078
 149  221.6905
 150  250.9623
 151  220.9067
 152  153.0513
 153  6.557673
 154  -19.17607
 155  39.03935
 156  48.95213
 157  162.7492
 158  163.283
 159  183.4671
 160  233.0041
 161  228.1656
 162  148.2778
 163  72.56216
 164  185.062
 165  226.9231
 166  46.72093
 167  67.14626
 168  112.7835
 169  126.9379
 170  205.9859
 171  123.9023
 172  103.4187
 173  280.3504
 174  282.3902
 175  148.5713
 176  29.70625
 177  -13.95662
 178  -21.22148
 179  61.46866
 180  162.5869
 181  75.76439
 182  150.5425
 183  77.32845
 184  123.3523
 185  62.85709
 186  66.26813
 187  17.44058
 188  128.3391
 189  193.8615
 190  148.0044
 191  113.3123
 192  82.60696
 193  64.71935
 194  75.67622
 195  114.7218
 196  127.4813
 197  186.1649
 198  282.6031
 199  71.18543
 200  111.9066
 201  221.374
 202  146.8706
 203  81.98326
 204  96.14124
 205  150.2077
 206  158.2755
 207  108.3886
 208  161.0472
 209  172.3292
 210  74.24444
 211  214.1506
 212  211.903
 213  213.3327
 214  124.1577
 215  122.8719
 216  135.3523
 217  163.5847
 218  291.2189
 219  185.6885
 220  32.50072
 221  161.948
 222  191.907
 223  178.9826
 224  162.2445
 225  282.7869
 226  283.5098
 227  235.8224
 228  205.9693
 229  75.6049
 230  91.19102
 231  294.867
 232  178.4168
 233  -32.01601
 234  93.03495
 235  147.364
 236  242.5843
 237  182.3842
 238  188.1014
 239  260.7131
 240  203.3959
 241  190.0659
 242  234.6049
 243  299.0819
 244  174.9603
 245  229.8249
 246  281.4323
 247  357.7412
 248  367.5275
 249  173.6763
 250  148.6819
 251  152.3838
 252  289.4224
 253  280.0155
 254  242.5874
 255  118.0547
 256  109.9893
 257  217.3661
 258  238.9202
 259  185.4262
 260  83.82127
 261  100.9364
 262  169.8061
 263  143.3986
 264  269.4397
 265  130.1778
 266  140.494
 267  216.0065
 268  75.39697
 269  149.0523
 270  111.9803
 271  215.0027
 272  200.0582
 273  274.5517
 274  202.66
 275  130.0761
 276  209.284
 277  207.1025
 278  212.4844
 279  313.8805
 280  277.0068
 281  177.1838
 282  137.3973
 283  184.8578
 284  231.9498
 285  273.2845
 286  217.4757
 287  152.6395
 288  250.1586
 289  264.1436
 290  153.1697
 291  250.0223
 292  318.186
 293  324.2892
 294  289.5085
 295  315.8999
 296  532.073
 297  722.0743
 298  865.1536
 299  901.1768
 300  817.3353
 301  513.4327
 302  297.6672
 303  341.6289
 304  449.9962
 305  122.3503
 306  58.46369
 307  173.1958
 308  267.1688
 309  273.5896
 310  289.2362
 311  266.8598
 312  225.2653
 313  431.8149
 314  418.4065
 315  247.3337
 316  311.9368
 317  237.8553
 318  228.4265
 319  206.4995
 320  268.6964
 321  293.8267
 322  360.7411
 323  286.3885
 324  254.1727
 325  121.0621
 326  283.9962
 327  421.8503
 328  308.0398
 329  369.3705
 330  250.2336
 331  342.1571
 332  390.2191
 333  309.7503
 334  237.9523
 335  218.3566
 336  175.2125
 337  365.5398
 338  340.6901
 339  187.0992
 340  158.9711
 341  149.7278
 342  161.8616
 343  186.0479
 344  240.1598
 345  286.7007
 346  276.8806
 347  157.6873
 348  163.746
 349  45.58676
 350  39.43938
 351  227.8152
 352  206.2688
 353  224.4551
 354  225.9158
 355  308.2197
 356  197.7996
 357  255.9936
 358  111.0483
 359  189.0256
 360  273.4104
 361  228.2136
 362  200.3287
 363  243.5672
 364  67.96043
 365  109.7322
 366  23.42578
 367  34.06979
 368  138.8463
 369  222.88
 370  308.7769
 371  229.4494
 372  201.2256
 373  244.1771
 374  341.8668
 375  339.0759
 376  290.9051
 377  334.4838
 378  260.7946
 379  282.7822
 380  244.4285
 381  128.2276
 382  107.1838
 383  162.8049
 384  223.8389
 385  225.8411
 386  117.7022
 387  201.8694
 388  131.2663
 389  66.75633
 390  94.74072
 391  131.9648
 392  207.8436
 393  176.996
 394  218.8752
 395  225.4247
 396  122.3699
 397  211.7236
 398  297.6717
 399  285.2169
 400  118.6816
 401  47.85168
 402  128.7319
 403  148.0357
 404  86.44469
 405  147.3225
 406  110.769
 407  129.2594
 408  222.0982
 409  171.0009
 410  155.3711
 411  96.77551
 412  154.6837
 413  141.6422
 414  87.90164
 415  141.2948
 416  176.7821
 417  256.1779
 418  179.8021
 419  137.349
 420  204.5393
 421  178.2489
 422  216.94
 423  123.7912
 424  126.1011
 425  200.7162
 426  110.9821
 427  -29.00603
 428  156.353
 429  202.8682
 430  190.027
 431  148.1496
 432  80.26822
 433  87.74565
 434  186.7025
 435  198.4474
 436  104.3016
 437  60.9874
 438  67.56041
 439  139.3136
 440  157.1966
 441  153.7173
 442  113.3751
 443  142.7218
 444  276.3491
 445  322.5618
 446  224.2314
 447  3.193588
 448  234.3988
 449  230.6105
 450  199.4261
 451  102.4316
 452  117.6265
 453  242.4626
 454  226.1125
 455  214.6532
 456  137.8618
 457  94.96844
 458  205.3829
 459  287.4223
 460  136.4871
 461  222.3698
 462  146.7438
 463  32.01281
 464  235.3855
 465  298.4163
 466  228.6405
 467  191.9857
 468  337.9206
 469  457.5706
 470  234.8369
 471  207.4233
 472  206.4266
 473  190.649
 474  187.6643
 475  131.8875
 476  287.1104
 477  303.7689
 478  205.6984
 479  171.138
 480  170.0495
 481  179.7948
 482  258.1094
 483  202.9339
 484  278.8597
 485  186.7663
 486  169.5241
 487  188.9302
 488  319.6296
 489  313.528
 490  273.2766
 491  258.1786
 492  327.2507
 493  278.5911
 494  313.1446
 495  193.6581
 496  292.7747
 497  373.8276
 498  217.4584
 499  214.8102
 500  150.9126
 501  252.8351
 502  328.4829
 503  406.8936
 504  175.9861
 505  172.3359
 506  159.7243
 507  229.9311
 508  176.4934
 509  170.8873
 510  110.6851
 511  230.3692
