# Input file       =  1212577115.126887-PSRB0329-2ms-sampling-dd.dat
# Candidate        =  PSR_0332+5434
# Telescope        =  AR
# Epoch_topo       =  58278.457570913044
# Epoch_bary       =  N/A
# T_sample         =  0.002
# Data Folded      =  7340032
# Data Avg         =  2.32711869119411e-09
# Data StdDev      =  47.3879160917063 
# Profile Bins     =  512
# Profile Avg      =  0.553107083118819
# Profile StdDev   =  5673.89908122741 
# Reduced chi-sqr  =  1.009
# Prob(Noise)      <  0.435   (~0.2 sigma)
# P_topo (ms)      =  714.509101036788  +/- 0.000381
# P'_topo (s/s)    =  -0                +/- 2.01e-10
# P''_topo (s/s^2) =  0                 +/- 8.88e-14
# P_bary (ms)      =  N/A
# P'_bary (s/s)    =  N/A
# P''_bary (s/s^2) =  N/A
# P_orb (s)        =  N/A
# asin(i)/c (s)    =  N/A
# eccentricity     =  N/A
# w (rad)          =  N/A
# T_peri           =  N/A
######################################################
   0  -1259.466
   1  -1270.129
   2  -1966.88
   3  -2587.213
   4  -2880.161
   5  -2583.386
   6  -1780.968
   7  -1521.355
   8  -2151.168
   9  -2607.766
  10  -2724.912
  11  -2807.282
  12  -2582.263
  13  -2988.417
  14  -3028.877
  15  -3143.671
  16  -3332.534
  17  -3358.795
  18  4522.833
  19  5609.052
  20  6388.846
  21  7217.102
  22  719.5966
  23  -2459.699
  24  -563.0878
  25  5745.952
  26  7600.408
  27  8283.568
  28  6300.178
  29  890.5054
  30  -4444.524
  31  -2344.866
  32  -1373.943
  33  -539.7737
  34  1528.31
  35  -474.8228
  36  -1874.635
  37  -4127.782
  38  -390.1186
  39  1748.492
  40  2933.219
  41  2594.344
  42  178.7124
  43  -2379.521
  44  -5479.034
  45  -4356.805
  46  -4773.588
  47  -5148.869
  48  -4574.485
  49  -5345.968
  50  -5244.059
  51  -4044.685
  52  -4271.459
  53  -215.3682
  54  2863.064
  55  4027.575
  56  9436.368
  57  10103.35
  58  13504.47
  59  13943.87
  60  19700.08
  61  18855.9
  62  16313.52
  63  17535.86
  64  18606.12
  65  17025.23
  66  15046.02
  67  14780.64
  68  9246.702
  69  6716.551
  70  5537.674
  71  3135.682
  72  2581.772
  73  2174.862
  74  1115.504
  75  5485.47
  76  6153.62
  77  5517.898
  78  3486.759
  79  1750.851
  80  2015.142
  81  840.7349
  82  645.0539
  83  249.0047
  84  -1957.222
  85  -2598.848
  86  -3196.911
  87  -3524.207
  88  -3609.224
  89  -3214.091
  90  -2321.67
  91  -2127.306
  92  -2260.766
  93  -2649.281
  94  -4010.077
  95  -4363.61
  96  -4147.887
  97  -2914.203
  98  -2325.206
  99  -2010.541
 100  -3204.856
 101  -4564.256
 102  -4926.665
 103  -5141.916
 104  -5182.877
 105  -4913.618
 106  -4942.985
 107  -5227.183
 108  -4651.658
 109  -4687.556
 110  -5344.742
 111  -4981.538
 112  -4674.465
 113  -4524.572
 114  -4290.312
 115  -4117.138
 116  -4066.949
 117  -4148.476
 118  -4147.564
 119  -3003.034
 120  -3326.761
 121  -3297.64
 122  -3165.967
 123  -3091.561
 124  -1740.778
 125  -41.0156
 126  1759.98
 127  2712.804
 128  3291.403
 129  2428.186
 130  620.1279
 131  3316.749
 132  4629.274
 133  5136.559
 134  5324.652
 135  3861.9
 136  2867.67
 137  1961.91
 138  3181.388
 139  3743.63
 140  3432.041
 141  3349.389
 142  2184.915
 143  1754.568
 144  1804.589
 145  3031.702
 146  3789.312
 147  3491.654
 148  2220.981
 149  2112.818
 150  2685.318
 151  2132.123
 152  2027.46
 153  1816.413
 154  1340.46
 155  -685.0958
 156  -426.3896
 157  -586.4737
 158  -1489.81
 159  -1998.685
 160  -2252.927
 161  -2290.138
 162  -1728.787
 163  -1650.933
 164  -1265.181
 165  -233.7329
 166  1106.791
 167  2248.796
 168  2324.825
 169  1880.75
 170  479.3449
 171  271.868
 172  1098.448
 173  1133.135
 174  909.1858
 175  643.3359
 176  -1093.588
 177  -1940.665
 178  -2546.768
 179  -3104.412
 180  -3522.926
 181  -3942.712
 182  -4005.764
 183  -3742.118
 184  -3531.964
 185  -3100.306
 186  -2319.216
 187  -1841.511
 188  -1657.703
 189  -1775.249
 190  -1210.967
 191  -803.6074
 192  139.8406
 193  628.77
 194  606.6996
 195  652.1266
 196  1328.35
 197  2217.599
 198  2836.321
 199  3749.708
 200  4813.077
 201  7130.536
 202  5979.716
 203  6014.372
 204  4489.693
 205  2670.556
 206  2749.509
 207  4330.877
 208  3844.419
 209  2253.641
 210  1120.434
 211  -1636.301
 212  -2901.199
 213  -3450.935
 214  -3560.683
 215  -3894.049
 216  -3982.301
 217  -3836.177
 218  -3843.355
 219  -2619.942
 220  -2735.101
 221  -3090.615
 222  -2808.271
 223  -3964.932
 224  -3942.186
 225  -3665.347
 226  -1812.991
 227  -2162.523
 228  -2935.473
 229  -3643.941
 230  -3968.996
 231  -3478.671
 232  -2155.533
 233  -1858.495
 234  -2502.48
 235  -1766.348
 236  -1940.292
 237  -1780.23
 238  -1170.178
 239  -886.2097
 240  14.28018
 241  -368.6203
 242  -461.4377
 243  -899.6849
 244  -619.9349
 245  -819.2339
 246  -1047.182
 247  -1073.905
 248  -563.9491
 249  -10.13664
 250  591.2159
 251  632.8196
 252  275.878
 253  676.4365
 254  19.78979
 255  289.2541
 256  355.9589
 257  1042.244
 258  1169.595
 259  527.1508
 260  -103.6213
 261  -767.8511
 262  -354.7287
 263  -507.8628
 264  -599.4283
 265  242.7159
 266  -183.2429
 267  -337.1167
 268  629.4735
 269  587.5679
 270  657.1624
 271  432.9895
 272  971.941
 273  1069.655
 274  769.5216
 275  1101.275
 276  1296.057
 277  2332.483
 278  899.5549
 279  422.8505
 280  177.3216
 281  -998.5895
 282  3073.668
 283  5619.713
 284  8943.452
 285  11790.21
 286  10957.91
 287  7548.201
 288  2535.643
 289  5385.871
 290  9930.343
 291  11979.67
 292  13897.34
 293  14191.26
 294  5744.655
 295  2481.127
 296  67.45635
 297  -1264.222
 298  -2446.519
 299  -2205.49
 300  -1677.633
 301  -1107.364
 302  -1504.555
 303  -2025.841
 304  -1929.426
 305  -1902.026
 306  -1776.503
 307  -1284.723
 308  -576.6974
 309  -798.3663
 310  -884.187
 311  -1162.111
 312  -947.6013
 313  -1421.366
 314  -1041.551
 315  -1139.384
 316  -1692.991
 317  -1981.951
 318  -2062.174
 319  -2595.046
 320  -2527.195
 321  -2784.578
 322  -2847.522
 323  -2779.044
 324  -3400.028
 325  -3676.633
 326  -4036.096
 327  -4121.103
 328  -4023.988
 329  -3747.048
 330  -3756.454
 331  -4736.648
 332  -5500.844
 333  -5139.317
 334  -4713.38
 335  -3355.417
 336  -161.2427
 337  549.6121
 338  571.0921
 339  -722.0021
 340  -2555.464
 341  -2863.704
 342  -1874.834
 343  1784.632
 344  3102.088
 345  2549.101
 346  1386.727
 347  -1387.877
 348  -3614.206
 349  -3590.122
 350  -3335.092
 351  -2669.47
 352  -2242.469
 353  -2260.85
 354  -1712.061
 355  -1949.048
 356  -2104.824
 357  -1393.568
 358  -1233.921
 359  -1820.01
 360  33.87574
 361  1190.118
 362  3483.62
 363  5801.161
 364  4964.525
 365  3626.301
 366  -4237.373
 367  1284.719
 368  5914.506
 369  10405.32
 370  10429.38
 371  8449.949
 372  4432.782
 373  1161.458
 374  1118.868
 375  1970.814
 376  90.20831
 377  323.2134
 378  -339.8431
 379  5.214565
 380  -184.2039
 381  -124.3808
 382  -1840.505
 383  -2531.899
 384  -2982.225
 385  -4156.369
 386  -4117.9
 387  -3156.16
 388  -2274.931
 389  -1018.861
 390  -172.3418
 391  1585.635
 392  551.3326
 393  105.5809
 394  998.8404
 395  2614.321
 396  4249.763
 397  6290.803
 398  5510.836
 399  2727.354
 400  1325.819
 401  164.9675
 402  658.9579
 403  312.9849
 404  -123.0561
 405  -1043.982
 406  -2244.283
 407  -3426.41
 408  -3838.013
 409  -3290.298
 410  -2961.078
 411  -2768.355
 412  -2694.992
 413  -2401.074
 414  -2327.586
 415  -2657.941
 416  -2255.717
 417  -2342.619
 418  -2084.103
 419  -2144.03
 420  -2427.51
 421  -2720.686
 422  -2144.49
 423  -2002.62
 424  -1711.316
 425  -2117.813
 426  -2079.947
 427  -2166.735
 428  -2750.75
 429  -2680.593
 430  -1998.276
 431  -1888.819
 432  -1523.246
 433  -1108.019
 434  -1368.164
 435  -1641.698
 436  -3754.272
 437  -2947.093
 438  -2349.792
 439  -1862.919
 440  -1701.391
 441  -1751.213
 442  -1888.274
 443  -2333.461
 444  -1553.341
 445  -1134.049
 446  -1877.915
 447  -2857.472
 448  -1997.069
 449  -711.9176
 450  883.3295
 451  1169.465
 452  1121.438
 453  1405.032
 454  232.9363
 455  772.7141
 456  927.4603
 457  2241.17
 458  5220.775
 459  5764.385
 460  6903.32
 461  8921.094
 462  3641.368
 463  3394.342
 464  4472.757
 465  7752.643
 466  8612.983
 467  8097.09
 468  4469.726
 469  503.6646
 470  -1052.371
 471  329.6013
 472  -1070.419
 473  -1372.718
 474  -1800.305
 475  -3064.724
 476  -3417.943
 477  -3263.485
 478  -3360.023
 479  -3394.167
 480  -3371.649
 481  -3276.093
 482  -3002.435
 483  -3486.502
 484  -3956.122
 485  -3382.037
 486  -3146.609
 487  -3005.329
 488  -3126.312
 489  -2673.92
 490  -2944.514
 491  -3498.608
 492  -2409.318
 493  -2400.536
 494  -2386.68
 495  -1430.844
 496  -1068.353
 497  -1784.115
 498  -2407.58
 499  -2214.876
 500  -2783.63
 501  -3035.538
 502  -2123.049
 503  -1996.206
 504  -2096.231
 505  -1882.673
 506  -1977.714
 507  -1958.757
 508  -1977.776
 509  -2617.919
 510  -2683.054
 511  -1077.748
