# Input file       =  1212490957.114973_cleaned.dat
# Candidate        =  PSR_0332+5434
# Telescope        =  AR
# Epoch_topo       =  58277.460371701076
# Epoch_bary       =  N/A
# T_sample         =  0.002
# Data Folded      =  7340032
# Data Avg         =  0.00771748884477147
# Data StdDev      =  1.00004897901543 
# Profile Bins     =  512
# Profile Avg      =  110.574020599728 
# Profile StdDev   =  119.738900783002 
# Reduced chi-sqr  =  1.467
# Prob(Noise)      <  2.71e-11   (~6.6 sigma)
# P_topo (ms)      =  714.510056362546  +/- 0.000146
# P'_topo (s/s)    =  -0                +/- 7.69e-11
# P''_topo (s/s^2) =  0                 +/- 3.39e-14
# P_bary (ms)      =  N/A
# P'_bary (s/s)    =  N/A
# P''_bary (s/s^2) =  N/A
# P_orb (s)        =  N/A
# asin(i)/c (s)    =  N/A
# eccentricity     =  N/A
# w (rad)          =  N/A
# T_peri           =  N/A
######################################################
   0  825.2756
   1  645.9421
   2  421.3179
   3  225.3889
   4  136.5134
   5  96.10527
   6  141.4294
   7  84.84522
   8  123.7284
   9  54.24543
  10  55.51582
  11  195.3447
  12  187.1508
  13  17.98867
  14  77.47956
  15  193.5304
  16  17.31848
  17  -100.4035
  18  -55.71698
  19  68.70052
  20  5.194441
  21  -26.98909
  22  160.5992
  23  130.9616
  24  129.4989
  25  74.4895
  26  83.27415
  27  -39.94914
  28  47.23923
  29  135.1842
  30  163.256
  31  167.7003
  32  134.926
  33  187.2757
  34  19.79678
  35  6.672812
  36  214.2496
  37  204.6496
  38  164.0248
  39  235.938
  40  258.6905
  41  18.85049
  42  -31.72617
  43  -18.0431
  44  -17.75648
  45  51.24549
  46  94.97616
  47  136.5275
  48  76.98991
  49  230.5303
  50  161.6375
  51  132.7011
  52  72.61016
  53  59.60373
  54  219.9613
  55  72.53378
  56  150.3131
  57  212.6616
  58  177.1547
  59  178.9869
  60  147.9077
  61  -5.717458
  62  63.35256
  63  131.1396
  64  167.2986
  65  105.4559
  66  105.9452
  67  125.2669
  68  5.117199
  69  56.93549
  70  134.7998
  71  41.61049
  72  31.95019
  73  2.995659
  74  74.56445
  75  30.88486
  76  12.71337
  77  41.76168
  78  -37.7103
  79  -82.79189
  80  27.3931
  81  121.4083
  82  37.93144
  83  8.221519
  84  -38.66893
  85  -10.57042
  86  -81.15067
  87  -30.85306
  88  -64.46507
  89  -51.98396
  90  -81.92137
  91  -10.28225
  92  53.64893
  93  -96.3914
  94  45.19262
  95  61.63931
  96  40.3639
  97  -39.93904
  98  33.62957
  99  -1.727496
 100  76.54129
 101  194.6759
 102  104.9152
 103  43.8836
 104  67.41635
 105  13.15926
 106  -60.35384
 107  -41.84088
 108  129.0742
 109  19.67054
 110  -72.61285
 111  116.4657
 112  -13.07405
 113  31.10912
 114  105.2064
 115  7.478016
 116  -44.65528
 117  145.3227
 118  188.063
 119  108.0694
 120  189.2029
 121  185.0494
 122  76.43584
 123  54.3248
 124  77.78238
 125  68.02134
 126  25.26642
 127  -50.82062
 128  -30.78784
 129  64.96729
 130  124.9845
 131  90.03894
 132  130.5312
 133  117.5196
 134  98.25127
 135  149.0609
 136  20.85066
 137  58.82719
 138  49.27152
 139  -23.07813
 140  72.72508
 141  93.19695
 142  164.7684
 143  187.8861
 144  21.50171
 145  -10.24647
 146  73.6995
 147  55.52163
 148  69.44577
 149  168.231
 150  -12.50455
 151  -41.43187
 152  46.52421
 153  58.5954
 154  61.98083
 155  80.4166
 156  111.2821
 157  244.7201
 158  358.0926
 159  124.4532
 160  58.15228
 161  239.6315
 162  219.2596
 163  89.5218
 164  154.9823
 165  311.6872
 166  50.92371
 167  9.974781
 168  166.3918
 169  28.12494
 170  43.13871
 171  165.9234
 172  192.0425
 173  47.76044
 174  99.42957
 175  80.82469
 176  35.25642
 177  210.7408
 178  218.2595
 179  119.1451
 180  -16.29531
 181  108.2503
 182  214.8901
 183  60.68084
 184  51.2508
 185  192.8522
 186  160.8461
 187  106.797
 188  238.3355
 189  218.4321
 190  64.37631
 191  55.55578
 192  133.0588
 193  190.7038
 194  136.8556
 195  40.13181
 196  108.3235
 197  145.7319
 198  4.481931
 199  95.75347
 200  -11.85064
 201  120.8204
 202  128.899
 203  108.4998
 204  159.6915
 205  207.0537
 206  136.3783
 207  12.2731
 208  48.74034
 209  41.24603
 210  29.88628
 211  91.51727
 212  181.2603
 213  90.92992
 214  87.26135
 215  88.79187
 216  97.40572
 217  64.3857
 218  213.0447
 219  145.0041
 220  197.9435
 221  206.3764
 222  297.5716
 223  238.0246
 224  181.8616
 225  147.4177
 226  132.5965
 227  109.7947
 228  -66.25291
 229  -72.17487
 230  -2.472465
 231  44.4501
 232  95.77536
 233  167.0414
 234  267.6494
 235  107.1984
 236  -11.8751
 237  13.92355
 238  -1.450572
 239  -87.0117
 240  -36.87014
 241  117.304
 242  86.49835
 243  134.6534
 244  206.8908
 245  -34.6083
 246  50.47313
 247  164.6019
 248  174.4159
 249  56.88684
 250  -67.30695
 251  22.97883
 252  157.5263
 253  32.52184
 254  9.767272
 255  229.2704
 256  262.427
 257  206.8145
 258  29.18998
 259  92.22693
 260  71.00597
 261  157.0946
 262  123.7249
 263  -35.50898
 264  27.65295
 265  97.16024
 266  82.94545
 267  74.68504
 268  146.0486
 269  207.0503
 270  318.7777
 271  274.6509
 272  184.0663
 273  144.5011
 274  168.896
 275  170.9294
 276  15.0269
 277  -1.799743
 278  92.33356
 279  78.14472
 280  35.10209
 281  -26.48307
 282  163.4663
 283  51.73882
 284  179.0581
 285  21.80386
 286  -11.56132
 287  48.75369
 288  104.6043
 289  120.3114
 290  -9.157691
 291  -43.88046
 292  -4.161537
 293  74.61633
 294  72.86281
 295  118.7289
 296  46.68616
 297  58.67518
 298  130.1766
 299  134.7509
 300  160.4265
 301  274.806
 302  227.589
 303  85.29926
 304  45.53833
 305  58.94923
 306  20.07227
 307  -11.19017
 308  90.59977
 309  170.3657
 310  156.6481
 311  214.2053
 312  219.4583
 313  126.6292
 314  19.68406
 315  13.43278
 316  50.84785
 317  27.36591
 318  -104.2482
 319  128.6849
 320  85.63918
 321  131.2328
 322  226.9824
 323  242.8005
 324  35.18184
 325  71.61382
 326  195.5168
 327  275.2161
 328  164.0991
 329  182.2352
 330  251.5663
 331  119.8309
 332  201.8954
 333  211.927
 334  100.4468
 335  117.5571
 336  37.16068
 337  131.0002
 338  221.8661
 339  163.0288
 340  193.659
 341  160.8751
 342  198.2421
 343  123.4028
 344  186.866
 345  101.8062
 346  114.1449
 347  141.2633
 348  170.1518
 349  112.5035
 350  122.6512
 351  66.62753
 352  41.57735
 353  42.87521
 354  -1.416289
 355  35.04726
 356  100.5429
 357  36.5767
 358  -5.64045
 359  52.66549
 360  95.3596
 361  52.42973
 362  30.06054
 363  -4.299913
 364  123.1318
 365  101.7247
 366  126.8609
 367  267.1141
 368  230.5615
 369  127.7428
 370  1.879769
 371  149.8988
 372  138.3245
 373  13.64363
 374  104.2476
 375  78.60112
 376  136.084
 377  82.71398
 378  99.46977
 379  94.80598
 380  105.7334
 381  133.429
 382  111.1475
 383  -38.35465
 384  -14.50257
 385  18.77098
 386  53.83861
 387  160.1178
 388  176.091
 389  88.99949
 390  50.85956
 391  146.958
 392  121.8208
 393  152.5505
 394  145.7203
 395  307.222
 396  264.0105
 397  116.5365
 398  69.7425
 399  214.2361
 400  191.5912
 401  113.6847
 402  88.49176
 403  142.6678
 404  142.8377
 405  170.2504
 406  254.2346
 407  223.7038
 408  115.1719
 409  20.66055
 410  179.1548
 411  86.04176
 412  -9.775857
 413  99.46113
 414  231.5326
 415  118.1523
 416  132.4021
 417  163.4011
 418  120.6569
 419  162.0797
 420  271.4999
 421  116.9967
 422  64.1828
 423  230.1004
 424  305.5261
 425  108.472
 426  95.37677
 427  159.9467
 428  217.0458
 429  180.9355
 430  146.4398
 431  205.2566
 432  137.5186
 433  78.82341
 434  30.14732
 435  107.8642
 436  61.54409
 437  189.1348
 438  157.3541
 439  186.7378
 440  168.4242
 441  85.00836
 442  -5.191559
 443  -8.273756
 444  147.6402
 445  92.52869
 446  -77.40873
 447  -63.06561
 448  99.12312
 449  180.7618
 450  141.9926
 451  201.7092
 452  84.97644
 453  98.16663
 454  196.327
 455  -38.09051
 456  54.19457
 457  35.75864
 458  40.80024
 459  148.3559
 460  110.9845
 461  146.039
 462  140.5575
 463  111.9763
 464  246.6978
 465  240.0526
 466  289.8702
 467  293.1349
 468  220.0564
 469  268.651
 470  192.5211
 471  71.91048
 472  108.621
 473  79.53054
 474  174.9595
 475  294.701
 476  169.2819
 477  78.24615
 478  -8.330128
 479  82.98357
 480  240.2865
 481  141.222
 482  -14.58303
 483  8.752778
 484  141.6242
 485  76.93066
 486  105.0077
 487  47.18877
 488  46.89376
 489  115.14
 490  222.0951
 491  231.3595
 492  329.0801
 493  281.2532
 494  176.0514
 495  175.097
 496  305.4127
 497  255.8177
 498  185.3815
 499  85.38398
 500  68.63213
 501  102.7355
 502  138.621
 503  89.23319
 504  82.3645
 505  162.883
 506  239.9616
 507  150.605
 508  327.9371
 509  553.1008
 510  639.7131
 511  772.4484
