# Input file       =  1212476026.101743_cleaned.dat
# Candidate        =  PSR_0332+5434
# Telescope        =  AR
# Epoch_topo       =  58277.287559047953
# Epoch_bary       =  N/A
# T_sample         =  0.002
# Data Folded      =  7340032
# Data Avg         =  0.131585205091272
# Data StdDev      =  2.94045886429732 
# Profile Bins     =  256
# Profile Avg      =  3772.58137637    
# Profile StdDev   =  497.902265302152 
# Reduced chi-sqr  =  1.389
# Prob(Noise)      <  3.89e-05   (~4.0 sigma)
# P_topo (ms)      =  714.509889140332  +/- 0.000242
# P'_topo (s/s)    =  -0                +/- 1.28e-10
# P''_topo (s/s^2) =  0                 +/- 5.64e-14
# P_bary (ms)      =  N/A
# P'_bary (s/s)    =  N/A
# P''_bary (s/s^2) =  N/A
# P_orb (s)        =  N/A
# asin(i)/c (s)    =  N/A
# eccentricity     =  N/A
# w (rad)          =  N/A
# T_peri           =  N/A
######################################################
   0  4209.054
   1  3717.135
   2  3288.882
   3  3551.054
   4  3603.15
   5  4108.536
   6  3752.795
   7  4043.809
   8  3639.94
   9  2931.743
  10  2710.014
  11  3781.681
  12  4150.166
  13  3420.791
  14  3721.929
  15  3722.229
  16  4296.144
  17  3522.879
  18  3511.855
  19  3787.387
  20  3526.342
  21  3411.557
  22  3020.387
  23  2720.983
  24  3247.41
  25  3500.221
  26  3296.71
  27  2625.499
  28  3332.312
  29  3368.177
  30  3381.404
  31  3259.776
  32  3735.568
  33  4126.595
  34  3700.464
  35  3537.496
  36  3495.795
  37  4255.295
  38  3666.765
  39  3507.388
  40  3213.638
  41  3997.551
  42  3467.065
  43  3714.703
  44  2774.899
  45  3573.451
  46  3233.725
  47  3323.235
  48  3465.051
  49  4273.343
  50  4197.669
  51  3511.781
  52  3014.295
  53  4222.6
  54  3650.392
  55  3726.614
  56  3041.771
  57  3974.114
  58  3974.659
  59  4122.1
  60  3889.954
  61  3541.238
  62  4020.812
  63  3222.999
  64  3289.024
  65  3837.471
  66  4418.796
  67  3621.464
  68  4103.719
  69  3816.557
  70  3929.894
  71  4524.322
  72  3445.584
  73  3263.824
  74  3758.254
  75  4115.005
  76  4316.268
  77  4191.06
  78  3852.258
  79  4005.26
  80  3850.596
  81  3583.962
  82  3451.982
  83  3723.837
  84  3847.126
  85  3769.571
  86  4192.547
  87  3840.073
  88  3791.292
  89  3466.924
  90  3790.114
  91  3435.137
  92  4343.835
  93  3451.198
  94  4058.002
  95  3463.063
  96  4149.816
  97  3523.461
  98  3809.581
  99  3578.88
 100  3519.994
 101  3220.824
 102  3541.024
 103  3698.331
 104  3397.536
 105  3513.568
 106  3236.881
 107  3352.105
 108  2978.418
 109  3353.768
 110  2636.144
 111  3166.82
 112  2961.384
 113  3213.907
 114  3699.436
 115  3217.959
 116  3532.345
 117  3322.214
 118  3165.63
 119  3404.956
 120  3138.929
 121  3241.068
 122  3410.799
 123  2791.796
 124  3306.64
 125  3465.266
 126  3580.62
 127  3495.687
 128  3407.58
 129  3078.672
 130  3732.494
 131  3265.08
 132  3592.734
 133  3898.369
 134  3233.908
 135  3668.124
 136  3895.282
 137  4143.72
 138  3419.503
 139  3533.43
 140  4071.327
 141  3472.858
 142  3845.425
 143  3959.067
 144  3664.874
 145  3508.388
 146  4209.04
 147  4597.582
 148  5565.041
 149  7635.164
 150  6437.733
 151  4538.156
 152  3831.419
 153  3487.507
 154  3946.247
 155  3691.042
 156  3539.772
 157  3977.808
 158  3828.107
 159  4437.23
 160  3495.637
 161  3233.111
 162  3630.482
 163  3958.113
 164  4315.962
 165  3966.637
 166  3557.46
 167  4055.57
 168  3652.703
 169  3897.039
 170  3900.639
 171  3550.379
 172  3950.599
 173  3535.482
 174  4041.801
 175  3998.93
 176  4209.595
 177  2983.708
 178  3702.561
 179  4525.545
 180  4520.253
 181  3930.846
 182  3716.288
 183  4049.698
 184  3604.965
 185  3786.959
 186  3534.17
 187  4021.28
 188  3839.527
 189  3764.56
 190  3878.593
 191  3842.696
 192  3615.364
 193  4148.705
 194  3864.188
 195  3716.699
 196  3670.162
 197  3857.507
 198  3436.44
 199  4082.684
 200  4208.703
 201  3625.393
 202  4213.634
 203  4071.355
 204  4060.652
 205  3455.151
 206  4147.72
 207  3777.8
 208  3757.108
 209  3787.14
 210  3448.025
 211  4030.277
 212  3895.389
 213  4095.333
 214  3992.816
 215  3830.358
 216  3849.183
 217  3861.435
 218  3676.526
 219  3787.529
 220  3903.348
 221  4219.919
 222  4392.104
 223  4574.596
 224  4237.689
 225  3521.383
 226  3635.596
 227  3163.7
 228  3400.749
 229  3682.067
 230  3996.528
 231  3618.979
 232  4122.444
 233  3784.444
 234  3959.715
 235  4226.88
 236  4027.429
 237  4114.364
 238  3552.931
 239  4201.39
 240  4302.063
 241  4202.244
 242  4217.408
 243  4239.17
 244  4433.345
 245  4201.091
 246  4598.228
 247  4634.935
 248  4031.671
 249  4002.08
 250  4333.121
 251  4470.94
 252  4500.143
 253  3887.906
 254  4048.941
 255  4104.763
