# Input file       =  1212116758.118906_cleaned.dat
# Candidate        =  PSR_0332+5434
# Telescope        =  AR
# Epoch_topo       =  58273.129364802153
# Epoch_bary       =  N/A
# T_sample         =  0.002
# Data Folded      =  7208960
# Data Avg         =  0.392234267670112
# Data StdDev      =  6.53081730596262 
# Profile Bins     =  1024
# Profile Avg      =  2761.37169352419 
# Profile StdDev   =  547.966318102108 
# Reduced chi-sqr  =  0.685
# Prob(Noise)      <  1   (~0.0 sigma)
# P_topo (ms)      =  714.513890970772  +/- 3.48e-05
# P'_topo (s/s)    =  -0                +/- 1.87e-11
# P''_topo (s/s^2) =  0                 +/- 8.41e-15
# P_bary (ms)      =  N/A
# P'_bary (s/s)    =  N/A
# P''_bary (s/s^2) =  N/A
# P_orb (s)        =  N/A
# asin(i)/c (s)    =  N/A
# eccentricity     =  N/A
# w (rad)          =  N/A
# T_peri           =  N/A
######################################################
   0  2529.788
   1  2404.854
   2  2567.526
   3  2583.993
   4  2462.005
   5  2476.429
   6  2799.747
   7  3003.457
   8  3009.634
   9  2945.526
  10  3008.901
  11  3013.193
  12  2971.289
  13  3001.429
  14  2976.569
  15  2744.258
  16  2752.375
  17  2980.567
  18  2814.915
  19  2669.746
  20  2585.809
  21  2709.175
  22  2584.979
  23  2490.264
  24  2655.764
  25  3070.168
  26  3211.809
  27  3045.328
  28  3040.969
  29  3144.025
  30  3136.444
  31  3007.285
  32  2959.258
  33  2900.417
  34  2957.962
  35  2772.605
  36  2633.984
  37  2547.809
  38  2757.721
  39  3064.144
  40  3076.908
  41  3006.911
  42  2847.302
  43  2946.169
  44  2910.939
  45  2924.797
  46  3189.494
  47  3258.722
  48  3285.097
  49  3137.95
  50  3141.238
  51  2803.463
  52  2601.724
  53  2524.732
  54  2609.599
  55  2510.377
  56  2474.143
  57  2607.303
  58  2836.336
  59  2816.177
  60  2965.439
  61  3116.536
  62  3218.417
  63  3146.567
  64  2999.692
  65  2965.373
  66  2922.703
  67  2998.678
  68  2809.062
  69  2629.29
  70  2528.057
  71  2727.346
  72  2932.081
  73  2967.041
  74  2739.421
  75  2823.604
  76  3006.576
  77  3233.41
  78  3123.255
  79  3019.934
  80  2967.637
  81  2886.418
  82  2999.618
  83  2803.678
  84  2701.998
  85  2503.879
  86  2535.737
  87  2691.749
  88  2644.604
  89  2749.642
  90  3167.592
  91  3288.049
  92  3132.408
  93  2988.264
  94  2957.538
  95  2949.347
  96  2716.758
  97  2683.801
  98  2776.917
  99  2869.784
 100  2806.324
 101  2763.892
 102  2730.408
 103  2564.098
 104  2658.144
 105  2726.407
 106  2779.219
 107  2874.94
 108  3115.22
 109  3207.716
 110  3068.159
 111  3052.111
 112  3087.511
 113  3087.204
 114  2982.51
 115  2805.019
 116  2783.312
 117  2620.879
 118  2454.625
 119  2441.032
 120  2621.988
 121  2728.425
 122  2902.211
 123  2826.917
 124  2631.389
 125  2630.271
 126  2898.552
 127  2965.029
 128  2891.592
 129  2840.666
 130  2969.884
 131  2986.325
 132  2861.615
 133  2522.543
 134  2199.239
 135  2149.04
 136  2253.777
 137  2443.327
 138  2517.676
 139  2593.985
 140  2836.729
 141  2994.005
 142  2954.642
 143  3033.635
 144  3158.802
 145  3248.24
 146  3099.142
 147  2862.746
 148  2562.192
 149  2461.307
 150  2435.115
 151  2391.103
 152  2295.513
 153  2278.736
 154  2494.763
 155  2706.249
 156  2797.659
 157  2828.864
 158  3024.571
 159  3149.042
 160  3201.379
 161  3115.043
 162  2977.977
 163  2904.001
 164  2744.94
 165  2837.127
 166  2726.736
 167  2620.762
 168  2468.868
 169  2545.35
 170  2586.308
 171  2466.417
 172  2673.949
 173  3032.094
 174  3095.757
 175  3069.341
 176  3048.799
 177  3215.227
 178  3121.905
 179  3111.445
 180  2940.198
 181  2902.992
 182  2649.25
 183  2607.502
 184  2666.656
 185  2644.674
 186  2460.286
 187  2574.993
 188  2781.519
 189  2752.554
 190  2747.642
 191  2811.132
 192  2931.265
 193  2785.724
 194  2734.899
 195  2908.498
 196  2966.008
 197  2804.917
 198  2805.445
 199  2915.143
 200  2692.28
 201  2487.768
 202  2485.137
 203  2717.859
 204  2763.613
 205  2945.958
 206  3041.946
 207  2972.921
 208  2833.155
 209  3024.604
 210  3173.957
 211  3085.884
 212  2872.855
 213  2970.686
 214  2931.512
 215  2741.896
 216  2478.454
 217  2488.462
 218  2442.722
 219  2467.336
 220  2482.754
 221  2371.439
 222  2439.94
 223  2611.633
 224  2894.653
 225  3017.085
 226  2949.073
 227  2994.347
 228  3191.675
 229  3189.438
 230  3062.57
 231  2890.442
 232  2950.781
 233  2801.142
 234  2763.492
 235  2589.742
 236  2589.703
 237  2712.796
 238  3053.637
 239  2983.914
 240  2874.91
 241  2790.321
 242  3130.105
 243  3424.261
 244  3246.038
 245  2934.224
 246  2688.744
 247  2688.612
 248  2598.41
 249  2624.149
 250  2491.154
 251  2463.209
 252  2563.423
 253  2708.162
 254  2610.253
 255  2614.582
 256  2821.952
 257  3018.789
 258  3123.744
 259  3028.463
 260  3136.055
 261  2980.287
 262  2767.051
 263  2637.6
 264  2753.269
 265  2607.965
 266  2473.7
 267  2195.685
 268  2178.393
 269  2431.046
 270  2587.784
 271  2674.08
 272  2496.92
 273  2772.11
 274  2935.038
 275  3025.561
 276  2990.507
 277  2988.956
 278  3080.968
 279  3018.348
 280  2811.926
 281  2532.093
 282  2448.185
 283  2527.096
 284  2780.278
 285  2706.242
 286  2619.169
 287  2664.271
 288  2773.367
 289  2777.505
 290  2779.827
 291  2716.247
 292  2788.141
 293  2859.474
 294  2757.438
 295  2633.237
 296  2603.757
 297  2718.865
 298  2752.617
 299  2602.818
 300  2306.055
 301  2202.942
 302  2292.552
 303  2593.465
 304  2731.196
 305  2903.068
 306  3079.695
 307  3247.047
 308  3230.706
 309  2815.383
 310  2702.2
 311  2719.49
 312  2653.888
 313  2483.993
 314  2538.946
 315  2463.022
 316  2458.571
 317  2485.709
 318  2453.826
 319  2413.605
 320  2433.916
 321  2771.504
 322  3012.176
 323  3072.396
 324  2928.643
 325  2878.86
 326  2691.372
 327  2501.251
 328  2666.886
 329  2796.267
 330  2663.562
 331  2435.996
 332  2525.535
 333  2416.96
 334  2619.462
 335  2544.77
 336  2776.158
 337  2658.638
 338  2852.547
 339  2980.729
 340  3037.565
 341  2905.673
 342  2804.349
 343  2943.166
 344  3085.524
 345  2814.74
 346  2692.764
 347  2557.561
 348  2415.349
 349  2256.16
 350  2082.498
 351  2103.804
 352  2226.006
 353  2342.692
 354  2505.03
 355  2596.798
 356  2823.451
 357  3053.935
 358  3311.097
 359  3115.099
 360  2979.469
 361  2998.111
 362  3094.693
 363  2880.838
 364  2692.535
 365  2675.332
 366  2709.7
 367  2594.358
 368  2426.518
 369  2660.459
 370  2936.256
 371  3195.058
 372  3167.781
 373  3171.136
 374  2804.434
 375  2846.579
 376  2989.497
 377  3083.79
 378  2903.488
 379  2618.907
 380  2648.531
 381  2783.319
 382  2845.488
 383  2591.113
 384  2422.083
 385  2436.867
 386  2593.23
 387  2741.727
 388  2752.624
 389  2820.365
 390  2940.18
 391  2936.878
 392  2821.06
 393  2817.869
 394  2953.413
 395  3075.183
 396  2980.399
 397  2728.337
 398  2629.214
 399  2666.996
 400  2647.969
 401  2621.377
 402  2780.022
 403  3022.847
 404  3048.088
 405  2881.671
 406  2751.463
 407  2696.397
 408  2866.148
 409  3094.702
 410  3051.112
 411  2920.197
 412  2716.3
 413  2891.869
 414  2814.004
 415  2486.64
 416  2465.198
 417  2671.685
 418  2777.089
 419  2736.99
 420  2733.785
 421  2742.231
 422  2674.163
 423  2778.141
 424  2915.172
 425  2960.361
 426  3039.383
 427  3004.341
 428  2792.751
 429  2589.729
 430  2499.571
 431  2673.697
 432  2632.697
 433  2406.574
 434  2361.561
 435  2371.533
 436  2654.961
 437  2769.403
 438  2830.44
 439  2771.79
 440  2876.572
 441  3039.351
 442  2953.069
 443  2772.898
 444  2655.39
 445  2613.13
 446  2775.138
 447  2649.913
 448  2487.256
 449  2446.288
 450  2523.244
 451  2584.681
 452  2602.845
 453  2417.827
 454  2543.736
 455  2602.804
 456  2705.207
 457  2568.273
 458  2628.134
 459  2733.216
 460  2730.367
 461  2700.201
 462  2547.553
 463  2536.445
 464  2451.858
 465  2437.985
 466  2219.921
 467  2343.395
 468  2346.107
 469  2594.653
 470  2614.283
 471  2692.902
 472  2732.422
 473  2777.804
 474  2768.363
 475  2607.398
 476  2471.773
 477  2488.406
 478  2469.312
 479  2340.847
 480  1988.156
 481  2015.923
 482  2134.922
 483  2324.25
 484  2516.44
 485  2707.049
 486  2656.581
 487  2587.67
 488  2567.745
 489  2606.799
 490  2682.139
 491  2733.876
 492  2787.872
 493  2572.888
 494  2321.409
 495  2241.196
 496  2320.464
 497  2271.312
 498  2177.948
 499  2242.568
 500  2343.978
 501  2541.493
 502  2735.665
 503  2764.971
 504  2881.084
 505  3009.674
 506  3051.846
 507  3005.24
 508  2825.497
 509  2753.661
 510  2781.417
 511  2772.248
 512  2387.256
 513  2160.833
 514  2221.452
 515  2262.905
 516  2131.652
 517  2073.252
 518  2232.311
 519  2508.794
 520  2807.572
 521  2848.353
 522  2869.525
 523  2851.637
 524  2889.793
 525  2935.836
 526  2872.385
 527  2824.275
 528  2747.05
 529  2707.323
 530  2326.205
 531  2163.801
 532  2197.168
 533  2472.877
 534  2582.681
 535  2612.863
 536  2659.453
 537  2817.959
 538  2748.588
 539  2722.792
 540  2795.273
 541  2897.89
 542  2957.532
 543  3018.472
 544  3077.218
 545  2658.234
 546  2533.164
 547  2520.973
 548  2571.375
 549  2401.338
 550  2333.288
 551  2460.754
 552  2744.593
 553  2714.813
 554  2718.931
 555  2897.666
 556  2897.062
 557  2846.604
 558  2781.729
 559  2718.722
 560  2670.081
 561  2572.021
 562  2604.476
 563  2382.993
 564  2487.153
 565  2529.694
 566  2796.02
 567  2770.395
 568  2818.899
 569  2907.803
 570  2868.65
 571  2789.207
 572  2751.523
 573  2785.439
 574  2817.21
 575  2775.226
 576  2857.918
 577  2706.501
 578  2523.26
 579  2333.639
 580  2279.448
 581  2284.258
 582  2328.439
 583  2370.593
 584  2547.683
 585  2592.45
 586  2699.132
 587  2822.702
 588  2942.437
 589  3001.227
 590  3083.431
 591  3066.145
 592  3144.851
 593  3301.139
 594  3432.074
 595  3370.196
 596  3352.381
 597  3351.287
 598  3327.91
 599  3259.156
 600  3181.521
 601  3068.961
 602  3110.351
 603  3050.1
 604  2918.293
 605  2952.253
 606  2877.975
 607  2849.26
 608  2854.23
 609  2767.518
 610  2694.877
 611  2643.605
 612  2782.231
 613  2642.817
 614  2500.737
 615  2312.484
 616  2486.41
 617  2700.301
 618  2763.035
 619  2641.798
 620  2578.596
 621  2460.22
 622  2593.123
 623  2851.736
 624  2801.801
 625  2806.208
 626  2620.395
 627  2590.076
 628  2437.506
 629  2491.974
 630  2517.527
 631  2538.055
 632  2451.566
 633  2704.782
 634  2954.974
 635  3056.865
 636  2900.688
 637  2909.664
 638  2944.58
 639  2963.815
 640  2962.488
 641  2977.301
 642  2795.72
 643  2619.189
 644  2497.938
 645  2337.743
 646  2185.48
 647  2227.574
 648  2403.331
 649  2603.375
 650  2620.155
 651  2427.734
 652  2558.925
 653  2610.344
 654  2615.669
 655  2511.744
 656  2569.762
 657  2714.464
 658  2758.547
 659  2682.557
 660  2628.265
 661  2501.621
 662  2388.343
 663  2202.906
 664  2167.092
 665  2178.338
 666  2435.937
 667  2793.11
 668  2928.286
 669  2979.107
 670  3110.295
 671  3120.44
 672  2917.348
 673  2772.058
 674  2669.554
 675  2732.636
 676  2765.251
 677  2729.3
 678  2511.762
 679  2207.631
 680  2231.055
 681  2455.078
 682  2662.997
 683  2665.004
 684  2826.798
 685  3007.03
 686  2996.649
 687  2990.622
 688  2753.523
 689  2698.004
 690  2579.407
 691  2563.264
 692  2525.133
 693  2507.549
 694  2192.385
 695  2091.171
 696  2155.933
 697  2467.418
 698  2479.709
 699  2821.203
 700  2982.986
 701  3026.595
 702  2914.738
 703  3063.474
 704  3077.729
 705  3031.868
 706  2858.468
 707  2913.542
 708  2770.374
 709  2696.955
 710  2651.088
 711  2709.667
 712  2595.139
 713  2531.753
 714  2606.061
 715  2579.486
 716  2455.711
 717  2662.686
 718  2990.594
 719  3154.515
 720  3221.818
 721  3184.354
 722  3180.558
 723  2947.432
 724  2952.384
 725  3102.589
 726  3146.079
 727  2757.651
 728  2499.832
 729  2450.039
 730  2438.657
 731  2602.615
 732  2794.032
 733  2891.453
 734  2977.089
 735  3146.383
 736  3331.781
 737  3196.037
 738  3022.89
 739  2967.188
 740  3002.914
 741  3060.794
 742  2830.409
 743  2820.336
 744  2574.571
 745  2527.644
 746  2628.965
 747  2672.744
 748  2586.217
 749  2683.224
 750  2953.336
 751  2959.839
 752  2991.416
 753  2984.1
 754  3110.445
 755  2966.864
 756  2840.621
 757  2848.178
 758  3038.392
 759  3037.627
 760  2976.069
 761  2818.333
 762  2754.688
 763  2793.164
 764  2893.989
 765  2977.448
 766  2808.672
 767  2867.169
 768  2895.247
 769  2924.618
 770  3014.818
 771  3072.797
 772  3259.34
 773  3136.515
 774  3020.093
 775  2907.831
 776  3048.964
 777  3118.105
 778  3087.075
 779  2908.579
 780  2784.047
 781  2674.688
 782  2715.775
 783  2823.699
 784  2925.524
 785  3056.597
 786  3125.863
 787  3066.502
 788  2886.63
 789  2801.216
 790  2990.626
 791  3025.131
 792  2901.695
 793  2792.498
 794  2689.251
 795  2706.824
 796  2757.516
 797  2803.447
 798  2650.754
 799  2785.461
 800  3137.958
 801  3443.624
 802  3294.083
 803  2972.353
 804  2902.783
 805  3081.732
 806  3054.862
 807  2772.333
 808  2722.36
 809  2783.83
 810  2789.545
 811  2526.756
 812  2381.769
 813  2487.336
 814  2751.852
 815  2925.151
 816  2997.855
 817  2972.681
 818  2831.271
 819  2783.926
 820  2864.568
 821  2674.615
 822  2811.629
 823  2994.754
 824  3213.69
 825  2903.173
 826  2830.48
 827  2512.728
 828  2571.533
 829  2380.575
 830  2436.127
 831  2528.839
 832  2719.667
 833  3119.673
 834  3198.151
 835  3160.938
 836  2959.297
 837  3085.073
 838  3051.83
 839  2636.204
 840  2482.854
 841  2545.006
 842  2615.642
 843  2443.771
 844  2450.566
 845  2327.668
 846  2364.644
 847  2451.296
 848  2812.186
 849  2964.389
 850  2770.679
 851  2839.702
 852  3050.61
 853  3147.932
 854  2858.321
 855  2879.632
 856  2792.852
 857  2757.704
 858  2609.847
 859  2627.445
 860  2449.499
 861  2283.332
 862  2303.013
 863  2496.528
 864  2690.969
 865  2780.773
 866  2881.493
 867  2959.632
 868  2921.726
 869  2977.463
 870  3075.032
 871  2957.208
 872  2706.647
 873  2854.412
 874  2959.615
 875  2883.851
 876  2575.743
 877  2474.761
 878  2432.899
 879  2383.454
 880  2309.905
 881  2375.885
 882  2545.504
 883  2764.393
 884  3009.719
 885  2802.453
 886  2576.094
 887  2677.006
 888  3098.096
 889  3215.835
 890  2982.147
 891  2856.445
 892  2879.435
 893  2891.87
 894  2739.221
 895  2587.34
 896  2699.654
 897  2742.034
 898  2725.696
 899  2685.974
 900  2642.538
 901  2781.245
 902  2983.188
 903  3109.523
 904  2951.992
 905  2847.091
 906  2859.574
 907  2902.096
 908  2851.747
 909  2586.087
 910  2497.412
 911  2483.688
 912  2371.751
 913  2205.859
 914  2246.95
 915  2394.656
 916  2654.495
 917  2822.431
 918  2964.958
 919  3043.781
 920  3128.192
 921  3008.85
 922  2830.507
 923  2800.694
 924  2811.782
 925  2969.855
 926  2799.569
 927  2554.996
 928  2477.298
 929  2614.493
 930  2595.76
 931  2543.259
 932  2772.778
 933  2966.412
 934  3011.77
 935  2981.071
 936  2897.028
 937  2980.134
 938  2906.217
 939  2915.324
 940  2860.382
 941  2749.275
 942  2557.469
 943  2626.087
 944  2712.792
 945  2635.714
 946  2734.268
 947  2968.588
 948  2964.778
 949  3008.48
 950  2922.839
 951  2873.083
 952  2789.232
 953  2879.581
 954  2914.984
 955  2747.287
 956  2547.743
 957  2589.324
 958  2668.719
 959  2777.753
 960  2675.102
 961  2877.368
 962  2891.02
 963  2742.864
 964  2633.201
 965  2631.173
 966  2871.697
 967  2983.987
 968  3035.588
 969  2848.171
 970  2815.226
 971  3033.417
 972  2904.882
 973  2773.901
 974  2471.658
 975  2571.947
 976  2693.413
 977  2659.285
 978  2605.476
 979  2569.984
 980  2652.031
 981  2691.017
 982  2892.207
 983  2915.907
 984  2914.983
 985  2818.281
 986  2843.371
 987  2736.977
 988  2617.22
 989  2696.65
 990  2930.008
 991  2950.494
 992  2741.998
 993  2611.875
 994  2544.357
 995  2579.534
 996  2599.59
 997  2837.946
 998  2967.361
 999  3230.616
1000  3343.02
1001  3154.023
1002  2993.686
1003  2871.284
1004  2922.511
1005  2878.076
1006  2769.889
1007  2729.982
1008  2662.577
1009  2450.409
1010  2250.542
1011  2464.403
1012  2708.645
1013  2829.276
1014  2841.17
1015  2863.751
1016  2853.617
1017  2940.138
1018  2957.63
1019  2998.601
1020  2991.52
1021  3010.46
1022  3037.911
1023  2895.513
