# Input file       =  1212633698.108952_cleaned.dat
# Candidate        =  PSR_0332+5434
# Telescope        =  AR
# Epoch_topo       =  58279.112466538798
# Epoch_bary       =  N/A
# T_sample         =  0.002
# Data Folded      =  7208960
# Data Avg         =  0.0261964721243838
# Data StdDev      =  0.999989217164162
# Profile Bins     =  512
# Profile Avg      =  368.861050255063 
# Profile StdDev   =  118.657896311117 
# Reduced chi-sqr  =  1.380
# Prob(Noise)      <  2.3e-08   (~5.5 sigma)
# P_topo (ms)      =  714.508130573414  +/- 0.000176
# P'_topo (s/s)    =  -0                +/- 9.48e-11
# P''_topo (s/s^2) =  0                 +/- 4.26e-14
# P_bary (ms)      =  N/A
# P'_bary (s/s)    =  N/A
# P''_bary (s/s^2) =  N/A
# P_orb (s)        =  N/A
# asin(i)/c (s)    =  N/A
# eccentricity     =  N/A
# w (rad)          =  N/A
# T_peri           =  N/A
######################################################
   0  392.379
   1  428.1472
   2  238.9453
   3  203.2251
   4  278.6298
   5  271.8813
   6  402.7905
   7  443.6128
   8  400.1676
   9  314.1949
  10  265.988
  11  291.4196
  12  474.8307
  13  449.9754
  14  318.5856
  15  297.597
  16  434.6876
  17  468.3173
  18  457.9624
  19  552.6045
  20  372.604
  21  376.0234
  22  505.9015
  23  453.5121
  24  364.563
  25  274.7997
  26  319.5398
  27  283.9573
  28  290.3836
  29  440.9759
  30  509.7607
  31  410.9416
  32  309.3675
  33  259.2972
  34  324.948
  35  388.9374
  36  362.2923
  37  358.4609
  38  347.4587
  39  448.1696
  40  469.114
  41  405.9576
  42  354.425
  43  273.7345
  44  341.8926
  45  427.8666
  46  414.3503
  47  471.902
  48  378.2105
  49  401.7492
  50  459.4986
  51  360.3484
  52  293.4828
  53  362.1039
  54  277.2165
  55  373.1909
  56  359.2811
  57  332.7185
  58  368.4816
  59  503.4757
  60  391.6973
  61  380.7546
  62  370.0262
  63  405.2828
  64  362.6617
  65  310.5097
  66  341.9865
  67  404.388
  68  406.3686
  69  405.1642
  70  406.761
  71  316.6398
  72  315.9119
  73  268.6032
  74  477.7215
  75  328.7211
  76  262.4978
  77  290.4688
  78  413.5767
  79  460.4958
  80  348.3208
  81  441.9753
  82  290.6222
  83  258.8761
  84  301.2943
  85  428.6477
  86  442.8689
  87  392.4811
  88  325.0259
  89  285.323
  90  358.2861
  91  367.3483
  92  403.775
  93  399.1073
  94  401.642
  95  317.095
  96  287.8853
  97  395.9753
  98  453.3019
  99  386.9417
 100  338.7725
 101  347.575
 102  350.8275
 103  315.1605
 104  363.5323
 105  403.8167
 106  335.4174
 107  326.2304
 108  399.2785
 109  405.4261
 110  364.6787
 111  470.8669
 112  305.2307
 113  331.1046
 114  409.3035
 115  425.6209
 116  391.8646
 117  345.4249
 118  451.6236
 119  452.3607
 120  366.7792
 121  316.6228
 122  348.7829
 123  334.7752
 124  225.9489
 125  390.4
 126  429.0996
 127  449.2058
 128  497.7025
 129  438.0391
 130  307.1082
 131  293.2838
 132  418.0416
 133  535.5218
 134  493.8315
 135  376.783
 136  393.6831
 137  321.7925
 138  221.8354
 139  379.8741
 140  413.3255
 141  447.6189
 142  500.7974
 143  503.1813
 144  455.4675
 145  399.0374
 146  419.5305
 147  275.8511
 148  339.2057
 149  473.3706
 150  445.9596
 151  270.1641
 152  371.0864
 153  398.1028
 154  427.9673
 155  284.4486
 156  304.4666
 157  402.5091
 158  379.2133
 159  320.0416
 160  302.8954
 161  411.4843
 162  571.0247
 163  466.8005
 164  396.6497
 165  398.739
 166  411.2905
 167  383.4906
 168  390.2285
 169  288.4583
 170  383.9534
 171  344.2745
 172  327.0545
 173  390.9806
 174  374.9601
 175  402.0335
 176  254.4347
 177  195.2005
 178  384.1531
 179  490.2741
 180  575.5568
 181  448.4417
 182  428.0916
 183  371.2899
 184  377.4421
 185  482.1903
 186  400.3276
 187  331.2468
 188  354.8196
 189  364.0271
 190  285.5123
 191  312.3616
 192  298.5134
 193  300.8145
 194  427.2151
 195  411.5239
 196  420.2178
 197  372.2
 198  302.4648
 199  370.6277
 200  431.4134
 201  448.8594
 202  332.107
 203  319.2362
 204  295.4243
 205  292.4982
 206  342.7216
 207  338.1683
 208  283.4667
 209  332.7775
 210  329.0562
 211  425.4958
 212  498.401
 213  385.098
 214  418.7211
 215  500.0971
 216  510.5672
 217  374.9271
 218  369.3654
 219  269.4496
 220  173.7318
 221  158.7486
 222  194.3612
 223  134.1049
 224  378.2294
 225  443.3495
 226  372.2375
 227  356.0059
 228  320.0739
 229  313.7135
 230  270.649
 231  223.0849
 232  190.2843
 233  291.6248
 234  353.8657
 235  392.8516
 236  421.9546
 237  400.2593
 238  387.4646
 239  428.0934
 240  295.0473
 241  200.6372
 242  264.4944
 243  381.1343
 244  375.1704
 245  317.2115
 246  335.4025
 247  344.7574
 248  389.038
 249  243.7146
 250  128.4563
 251  225.5713
 252  243.0087
 253  206.4043
 254  391.7037
 255  405.2607
 256  256.5734
 257  411.4186
 258  544.8246
 259  377.9244
 260  234.2467
 261  389.8367
 262  366.9981
 263  385.0196
 264  436.4034
 265  352.8976
 266  342.1923
 267  259.7483
 268  328.8122
 269  389.6738
 270  323.264
 271  338.3495
 272  393.2818
 273  514.7739
 274  445.2314
 275  375.5553
 276  254.193
 277  256.3666
 278  326.4835
 279  335.4398
 280  408.709
 281  292.5305
 282  413.302
 283  506.8839
 284  332.9508
 285  418.753
 286  391.3351
 287  389.8868
 288  352.1603
 289  296.8902
 290  382.9576
 291  373.9577
 292  328.459
 293  287.6521
 294  323.3997
 295  339.1327
 296  237.481
 297  295.5443
 298  352.1108
 299  327.0733
 300  330.7842
 301  325.0331
 302  376.4304
 303  384.4094
 304  523.4328
 305  459.854
 306  286.967
 307  378.3543
 308  392.6856
 309  370.7934
 310  328.7203
 311  383.7834
 312  367.5263
 313  356.6389
 314  260.235
 315  313.8372
 316  328.1565
 317  113.9412
 318  215.4272
 319  370.0414
 320  400.9578
 321  345.1283
 322  263.6218
 323  448.3833
 324  507.574
 325  509.6581
 326  624.2355
 327  632.8995
 328  858.2021
 329  992.3954
 330  1121.551
 331  1114.401
 332  926.9511
 333  576.7775
 334  281.9279
 335  385.4966
 336  342.9804
 337  284.7988
 338  257.3882
 339  264.6204
 340  260.8523
 341  404.3184
 342  503.1082
 343  430.0233
 344  487.9217
 345  428.0554
 346  453.2657
 347  442.0328
 348  359.1419
 349  325.6379
 350  331.9898
 351  313.3818
 352  415.8119
 353  379.4654
 354  484.6793
 355  420.0965
 356  372.8123
 357  407.9162
 358  283.5848
 359  302.2117
 360  407.6323
 361  380.5208
 362  372.8368
 363  303.2499
 364  188.6448
 365  403.795
 366  371.7559
 367  232.4558
 368  347.343
 369  336.3917
 370  337.7063
 371  241.4713
 372  345.2969
 373  450.676
 374  551.3176
 375  338.5547
 376  293.9372
 377  148.6849
 378  214.1212
 379  432.6848
 380  495.6767
 381  456.8714
 382  375.8542
 383  333.2948
 384  267.4941
 385  244.039
 386  327.0268
 387  416.7661
 388  339.9891
 389  270.1472
 390  355.6201
 391  348.7163
 392  278.7703
 393  354.0695
 394  385.7437
 395  443.9659
 396  328.9383
 397  213.5255
 398  195.243
 399  188.6011
 400  283.9938
 401  344.023
 402  412.1111
 403  440.314
 404  458.5503
 405  393.0785
 406  317.9221
 407  269.7468
 408  373.8839
 409  289.8093
 410  368.9668
 411  415.1292
 412  341.8931
 413  365.6313
 414  329.5999
 415  416.4584
 416  294.0641
 417  294.2726
 418  362.2047
 419  348.2755
 420  412.8243
 421  176.3637
 422  285.5115
 423  358.5014
 424  336.4979
 425  369.1604
 426  483.2877
 427  499.8297
 428  389.8157
 429  474.0287
 430  368.5429
 431  294.4226
 432  242.7283
 433  306.3336
 434  335.7346
 435  463.4998
 436  454.5119
 437  274.7416
 438  392.9548
 439  393.4543
 440  399.2942
 441  372.7691
 442  388.7523
 443  360.0699
 444  267.8587
 445  258.067
 446  242.3887
 447  288.2468
 448  382.0099
 449  396.871
 450  358.0172
 451  349.6607
 452  486.1224
 453  325.9908
 454  346.3897
 455  431.0382
 456  401.9234
 457  464.843
 458  523.2493
 459  398.1782
 460  281.5475
 461  226.1115
 462  290.9985
 463  312.0751
 464  345.4677
 465  390.8658
 466  385.9272
 467  265.7992
 468  241.2919
 469  339.5608
 470  420.2679
 471  251.1894
 472  252.4722
 473  382.252
 474  289.206
 475  434.5806
 476  526.901
 477  421.2295
 478  396.4813
 479  373.8147
 480  424.7272
 481  413.5155
 482  366.6329
 483  367.9631
 484  405.3557
 485  395.8191
 486  342.1044
 487  283.3445
 488  268.5352
 489  339.9004
 490  383.7412
 491  370.9011
 492  458.8719
 493  365.9922
 494  380.4219
 495  423.1757
 496  460.8062
 497  416.4582
 498  374.5742
 499  372.0316
 500  293.5491
 501  363.3149
 502  417.2321
 503  360.0358
 504  302.8437
 505  339.2538
 506  312.2778
 507  257.4053
 508  293.59
 509  414.3464
 510  398.7565
 511  382.2531
