# Input file       =  1212490957.114973_cleaned.dat
# Candidate        =  PSR_0332+5434
# Telescope        =  AR
# Epoch_topo       =  58277.460371701076
# Epoch_bary       =  N/A
# T_sample         =  0.002
# Data Folded      =  7340032
# Data Avg         =  0.0204734451160352
# Data StdDev      =  2.5468387323038  
# Profile Bins     =  512
# Profile Avg      =  293.380173637138 
# Profile StdDev   =  304.940734580688 
# Reduced chi-sqr  =  1.380
# Prob(Noise)      <  2.33e-08   (~5.5 sigma)
# P_topo (ms)      =  714.510057084679  +/- 0.000145
# P'_topo (s/s)    =  -0                +/- 7.64e-11
# P''_topo (s/s^2) =  0                 +/- 3.37e-14
# P_bary (ms)      =  N/A
# P'_bary (s/s)    =  N/A
# P''_bary (s/s^2) =  N/A
# P_orb (s)        =  N/A
# asin(i)/c (s)    =  N/A
# eccentricity     =  N/A
# w (rad)          =  N/A
# T_peri           =  N/A
######################################################
   0  338.6587
   1  -44.67857
   2  115.6497
   3  578.0715
   4  620.9783
   5  318.357
   6  169.4925
   7  198.006
   8  216.9266
   9  408.5537
  10  169.917
  11  -116.8768
  12  165.0604
  13  322.1702
  14  227.2635
  15  278.7257
  16  431.5198
  17  618.7782
  18  806.4749
  19  522.3318
  20  378.3586
  21  273.7384
  22  466.5174
  23  363.4003
  24  -54.80906
  25  63.57007
  26  298.8313
  27  232.1559
  28  61.62663
  29  78.92121
  30  414.9699
  31  187.2804
  32  431.1729
  33  -72.07877
  34  32.62463
  35  151.6398
  36  331.1663
  37  247.6223
  38  -28.16747
  39  -5.667068
  40  95.38747
  41  248.7826
  42  190.93
  43  322.832
  44  125.2777
  45  261.2136
  46  393.446
  47  364.1479
  48  460.3276
  49  713.5535
  50  452.5082
  51  217.7617
  52  149.9821
  53  185.9548
  54  108.3252
  55  118.325
  56  275.3735
  57  461.059
  58  369.7084
  59  615.4277
  60  485.5286
  61  322.8332
  62  -2.128086
  63  38.75776
  64  162.0607
  65  -45.27625
  66  -31.11408
  67  426.5584
  68  248.1095
  69  452.0873
  70  714.7259
  71  440.9848
  72  53.25122
  73  296.0121
  74  549.9694
  75  618.0996
  76  360.3108
  77  674.6498
  78  520.7431
  79  388.3102
  80  581.3188
  81  432.0908
  82  221.7378
  83  257.6812
  84  176.1957
  85  488.1314
  86  598.6749
  87  517.6257
  88  525.8289
  89  518.481
  90  501.5652
  91  325.8232
  92  479.1999
  93  221.0192
  94  344.3813
  95  383.5907
  96  441.3503
  97  312.6032
  98  319.9142
  99  147.3229
 100  108.0728
 101  102.0473
 102  15.21946
 103  154.5464
 104  268.5235
 105  20.19207
 106  6.001929
 107  132.0302
 108  170.8448
 109  70.02569
 110  54.1629
 111  42.05973
 112  352.6752
 113  207.3786
 114  411.7782
 115  609.0922
 116  503.6273
 117  190.5888
 118  85.87997
 119  486.8425
 120  278.4591
 121  126.3608
 122  313.5161
 123  258.2466
 124  345.5648
 125  186.0318
 126  379.2366
 127  269.5662
 128  308.1011
 129  396.084
 130  156.7948
 131  -75.40201
 132  -42.81927
 133  116.2731
 134  152.1933
 135  419.0273
 136  385.8376
 137  227.5088
 138  220.2347
 139  425.6189
 140  312.1705
 141  414.8841
 142  481.4851
 143  907.3297
 144  624.1412
 145  263.1912
 146  283.7452
 147  507.2766
 148  465.7271
 149  348.2787
 150  307.6777
 151  393.1816
 152  405.9449
 153  526.1221
 154  645.0614
 155  543.3335
 156  255.6231
 157  215.3068
 158  513.5968
 159  122.2892
 160  2.571067
 161  468.1461
 162  620.0045
 163  336.662
 164  430.1604
 165  427.1503
 166  371.1203
 167  458.2794
 168  583.1731
 169  200.8101
 170  299.0766
 171  771.6446
 172  765.9097
 173  284.2046
 174  340.7199
 175  481.937
 176  552.7658
 177  469.2328
 178  452.0228
 179  515.6965
 180  308.1757
 181  198.3115
 182  175.6869
 183  210.4549
 184  193.1002
 185  488.8754
 186  374.6852
 187  495.4305
 188  413.7435
 189  162.5461
 190  -8.405969
 191  118.0672
 192  467.1304
 193  130.9082
 194  -225.6904
 195  -102.3292
 196  357.6317
 197  390.4241
 198  429.725
 199  391.9233
 200  171.6494
 201  389.7228
 202  368.9096
 203  -133.4506
 204  226.3222
 205  -9.014139
 206  222.5436
 207  367.7951
 208  313.2693
 209  421.0963
 210  360.2321
 211  424.6503
 212  620.1855
 213  581.4002
 214  795.3814
 215  657.5764
 216  589.9301
 217  695.5086
 218  353.4747
 219  164.7381
 220  275.2752
 221  250.6516
 222  584.1898
 223  707.8998
 224  333.0426
 225  253.9928
 226  49.00825
 227  367.3415
 228  602.1566
 229  236.4766
 230  -116.0369
 231  107.826
 232  351.8679
 233  134.095
 234  219.8597
 235  75.13508
 236  117.49
 237  344.9012
 238  511.1805
 239  613.0642
 240  828.5423
 241  604.4807
 242  427.4062
 243  542.7473
 244  770.5042
 245  552.5646
 246  440.2148
 247  165.4872
 248  233.6594
 249  367.2604
 250  344.7849
 251  170.3663
 252  132.4822
 253  448.6903
 254  528.9034
 255  523.6354
 256  1018.156
 257  1404.945
 258  1636.994
 259  1977.814
 260  1949.954
 261  1436.035
 262  928.8243
 263  412.54
 264  351.3645
 265  309.2041
 266  381.8619
 267  296.9827
 268  334.577
 269  97.26669
 270  255.9218
 271  470.6683
 272  412.7597
 273  -27.95827
 274  401.7773
 275  350.5169
 276  -144.3192
 277  -245.3179
 278  -16.5676
 279  197.2491
 280  -104.238
 281  128.5541
 282  380.3316
 283  281.3653
 284  190.0532
 285  255.0411
 286  86.60231
 287  -188.1609
 288  211.1125
 289  406.0079
 290  396.9938
 291  418.3298
 292  364.2816
 293  453.2754
 294  -35.01931
 295  133.7362
 296  558.1755
 297  493.8866
 298  420.9235
 299  673.1375
 300  427.4344
 301  -36.81962
 302  -122.8913
 303  -34.00058
 304  -71.38696
 305  199.878
 306  297.6055
 307  329.6487
 308  256.6771
 309  564.6711
 310  323.4297
 311  393.1355
 312  49.85395
 313  223.4442
 314  466.6792
 315  103.0925
 316  482.3604
 317  528.9034
 318  362.8936
 319  404.0729
 320  127.223
 321  20.63862
 322  251.338
 323  381.9423
 324  348.8281
 325  229.7526
 326  222.6875
 327  174.8762
 328  -1.086076
 329  242.3737
 330  243.5631
 331  116.6327
 332  84.73306
 333  56.27132
 334  118.0809
 335  18.17595
 336  28.80618
 337  67.0554
 338  -177.0723
 339  -107.4847
 340  187.8136
 341  264.4951
 342  31.16665
 343  -78.01447
 344  -45.47801
 345  -51.28167
 346  -152.0068
 347  -80.89856
 348  -156.2212
 349  -176.8092
 350  -181.938
 351  32.14993
 352  17.86742
 353  -239.9105
 354  270.317
 355  158.3789
 356  93.01482
 357  -36.16238
 358  60.80464
 359  15.59722
 360  274.3942
 361  569.8071
 362  199.8332
 363  158.4571
 364  72.18367
 365  -10.46573
 366  -192.9463
 367  16.12498
 368  350.4427
 369  -47.00864
 370  -7.170227
 371  185.3356
 372  -84.28084
 373  206.4845
 374  244.55
 375  -88.94978
 376  32.77999
 377  431.3481
 378  376.1319
 379  375.3932
 380  478.8185
 381  390.8328
 382  186.6482
 383  318.8361
 384  211.1571
 385  204.7199
 386  63.7626
 387  -93.22456
 388  39.71027
 389  233.0853
 390  237.8513
 391  266.7443
 392  434.4335
 393  302.7742
 394  303.8815
 395  261.9291
 396  23.96992
 397  228.7511
 398  33.77891
 399  111.897
 400  206.8726
 401  313.0499
 402  522.6668
 403  380.2957
 404  -121.4351
 405  3.398798
 406  213.8647
 407  53.97946
 408  318.575
 409  340.5863
 410  -3.211791
 411  53.68225
 412  218.476
 413  182.0715
 414  91.1078
 415  302.276
 416  300.2443
 417  874.9589
 418  754.2146
 419  182.6747
 420  254.4702
 421  705.6423
 422  490.0033
 423  256.0067
 424  612.6675
 425  614.5992
 426  -34.58675
 427  133.9063
 428  410.8337
 429  8.495479
 430  261.5596
 431  527.7076
 432  361.0422
 433  147.5868
 434  324.9389
 435  188.498
 436  352.8143
 437  599.546
 438  523.3224
 439  151.6947
 440  -41.76244
 441  518.261
 442  592.9877
 443  187.0432
 444  324.613
 445  562.5566
 446  262.5912
 447  356.68
 448  638.2846
 449  512.5413
 450  172.4336
 451  322.8948
 452  442.3129
 453  440.7143
 454  277.4357
 455  144.7653
 456  418.6197
 457  235.2423
 458  96.87716
 459  177.1588
 460  94.3206
 461  357.6251
 462  435.8354
 463  396.9918
 464  537.3618
 465  497.3831
 466  338.3543
 467  48.11499
 468  184.7006
 469  144.7439
 470  105.1143
 471  452.1716
 472  476.2836
 473  269.8403
 474  241.5335
 475  274.2374
 476  253.5433
 477  363.8646
 478  525.8295
 479  452.7027
 480  560.425
 481  594.861
 482  792.54
 483  544.2584
 484  488.3648
 485  410.0045
 486  348.519
 487  209.5392
 488  -155.6993
 489  16.76564
 490  78.3262
 491  170.1232
 492  276.604
 493  502.9827
 494  586.1418
 495  163.182
 496  -6.733387
 497  -8.650691
 498  -30.71795
 499  -197.5788
 500  119.4616
 501  367.0356
 502  169.2312
 503  487.5813
 504  320.6635
 505  -90.19975
 506  234.3076
 507  432.0025
 508  416.046
 509  -3.125379
 510  -125.3471
 511  163.7644
