# Input file       =  1212045231.112183_cleaned.dat
# Candidate        =  PSR_0332+5434
# Telescope        =  AR
# Epoch_topo       =  58272.301505928044
# Epoch_bary       =  N/A
# T_sample         =  0.002
# Data Folded      =  7340032
# Data Avg         =  -0.481006922878026
# Data StdDev      =  4.57515039360848 
# Profile Bins     =  512
# Profile Avg      =  -6895.77852022751
# Profile StdDev   =  547.796648507099 
# Reduced chi-sqr  =  0.812
# Prob(Noise)      <  0.999   (~0.0 sigma)
# P_topo (ms)      =  714.514704976397  +/- 0.00122
# P'_topo (s/s)    =  -0                +/- 6.42e-10
# P''_topo (s/s^2) =  0                 +/- 2.83e-13
# P_bary (ms)      =  N/A
# P'_bary (s/s)    =  N/A
# P''_bary (s/s^2) =  N/A
# P_orb (s)        =  N/A
# asin(i)/c (s)    =  N/A
# eccentricity     =  N/A
# w (rad)          =  N/A
# T_peri           =  N/A
######################################################
   0  -7209.998
   1  -7421.035
   2  -6869.397
   3  -6678.327
   4  -6955.225
   5  -6864.344
   6  -7026.902
   7  -7070.697
   8  -6804.292
   9  -6862.793
  10  -7131.794
  11  -7207.785
  12  -7063.979
  13  -7028.601
  14  -6880.771
  15  -6829.87
  16  -7187.642
  17  -7051.641
  18  -6896.333
  19  -7048.863
  20  -6847.813
  21  -6999
  22  -7055.482
  23  -7162.984
  24  -6927.044
  25  -6863.525
  26  -6679.615
  27  -6589.191
  28  -6712.499
  29  -6817.068
  30  -6997.216
  31  -6985.745
  32  -6821.796
  33  -6971.305
  34  -7202.938
  35  -7154.534
  36  -7003.81
  37  -6826.398
  38  -7089.163
  39  -6927.715
  40  -6894.447
  41  -6780.647
  42  -6646.961
  43  -6552.264
  44  -6619.332
  45  -6390.02
  46  -6517.995
  47  -6369.013
  48  -6310.655
  49  -6509.072
  50  -6838.946
  51  -6719.158
  52  -6923.282
  53  -6559.19
  54  -6710.376
  55  -6838.549
  56  -6849.146
  57  -6549.42
  58  -6420.719
  59  -6277.547
  60  -6290.728
  61  -6533.83
  62  -6617.129
  63  -6708.223
  64  -6696.353
  65  -6691.618
  66  -6881.286
  67  -7024.726
  68  -7297.025
  69  -6870.41
  70  -6506.333
  71  -6514.764
  72  -6526.926
  73  -6668.386
  74  -6700.427
  75  -7089.585
  76  -7349.705
  77  -7016.67
  78  -7055.003
  79  -7120.696
  80  -6932.944
  81  -6847.247
  82  -6822.719
  83  -6902.271
  84  -6820.062
  85  -6900.39
  86  -6974.034
  87  -6737.186
  88  -6492.391
  89  -6653.578
  90  -6668.654
  91  -6725.249
  92  -6753.838
  93  -6785.777
  94  -6894.522
  95  -7044.928
  96  -7109.191
  97  -7109.455
  98  -7296.824
  99  -7249.559
 100  -7042.953
 101  -6998.427
 102  -7462.668
 103  -7733.167
 104  -7260.907
 105  -7134.299
 106  -7218.306
 107  -7268.205
 108  -7362.021
 109  -7488.726
 110  -7287.852
 111  -7255.359
 112  -7319.151
 113  -7128.884
 114  -6988.335
 115  -6818.666
 116  -6953.116
 117  -6952.041
 118  -7383.823
 119  -7330.44
 120  -7333.032
 121  -6854.805
 122  -6765.217
 123  -6826.617
 124  -6941.962
 125  -7284.154
 126  -7403.829
 127  -7145.034
 128  -7160.453
 129  -7382.21
 130  -7485.336
 131  -6757.742
 132  -6710.989
 133  -6946.472
 134  -7035.642
 135  -7074.479
 136  -6933.016
 137  -7045.429
 138  -6725.702
 139  -6718.045
 140  -7367.725
 141  -7188.531
 142  -7336.863
 143  -7264.799
 144  -7323.239
 145  -7581.295
 146  -7313.214
 147  -7385.03
 148  -7385.96
 149  -7519.591
 150  -7361.816
 151  -7376.409
 152  -7426.035
 153  -7280.022
 154  -7078.046
 155  -6913.205
 156  -7037.516
 157  -6999.09
 158  -7397.224
 159  -7300.486
 160  -7371.444
 161  -7214.178
 162  -7164.766
 163  -7029.993
 164  -6946.539
 165  -7188.066
 166  -7535.643
 167  -7192.979
 168  -7083.294
 169  -7344.469
 170  -7319.558
 171  -7134.815
 172  -6948.845
 173  -7181.895
 174  -7407.503
 175  -7288.392
 176  -7114.185
 177  -7336.324
 178  -7154.291
 179  -7298.506
 180  -7417.583
 181  -6847.494
 182  -6765.167
 183  -6932.443
 184  -7236.859
 185  -7123.81
 186  -7319.224
 187  -7106.349
 188  -6867.858
 189  -6584.302
 190  -7028.936
 191  -7215.751
 192  -6956.871
 193  -7190.205
 194  -7232.812
 195  -7189.605
 196  -7296.166
 197  -6922.261
 198  -6893.773
 199  -7131.22
 200  -6952.29
 201  -7177.892
 202  -7267.282
 203  -7298.769
 204  -7272.212
 205  -7284.404
 206  -7189.36
 207  -7026.554
 208  -6976.218
 209  -7079.869
 210  -7402.881
 211  -7092.436
 212  -6897.77
 213  -6644.962
 214  -6716.908
 215  -6867.285
 216  -6581.878
 217  -6531.412
 218  -6798.084
 219  -7198.769
 220  -6887.654
 221  -6663.402
 222  -6491.879
 223  -6574.046
 224  -6576.127
 225  -6587.971
 226  -6806.211
 227  -6789.203
 228  -6814.436
 229  -6619.896
 230  -6158.708
 231  -6310.023
 232  -6524.337
 233  -6587.961
 234  -6775.782
 235  -7052.915
 236  -7023.98
 237  -6699.097
 238  -6597.712
 239  -6859.489
 240  -6594.331
 241  -6140.002
 242  -6383.307
 243  -6157.745
 244  -6389.369
 245  -6743.959
 246  -6611.118
 247  -6442.792
 248  -6523.13
 249  -6757.011
 250  -6691.621
 251  -6709.223
 252  -7006.384
 253  -6611.326
 254  -6283.197
 255  -6583.161
 256  -6409.799
 257  -6393.32
 258  -6716.777
 259  -6401.065
 260  -6448.547
 261  -6465.887
 262  -6436.109
 263  -6425.368
 264  -6436.276
 265  -6559.504
 266  -6676.012
 267  -6295.202
 268  -6217.035
 269  -6531.559
 270  -6440.086
 271  -6189.658
 272  -6289.31
 273  -6600.442
 274  -6834.541
 275  -6784.705
 276  -6639.75
 277  -6720.696
 278  -6502.194
 279  -6539.192
 280  -6456.048
 281  -6754.858
 282  -6696.127
 283  -6635.166
 284  -6370.803
 285  -6510.177
 286  -6592.21
 287  -6559.81
 288  -6393.062
 289  -6705.052
 290  -7091.495
 291  -6786.918
 292  -6791.235
 293  -6751.375
 294  -6421.196
 295  -6534.111
 296  -6303.194
 297  -6047.912
 298  -5622.735
 299  -5593.924
 300  -5541.208
 301  -5829.366
 302  -6693.423
 303  -7008.084
 304  -6700.525
 305  -6887.862
 306  -7146.696
 307  -6762.636
 308  -7028.429
 309  -7160.612
 310  -7039.5
 311  -6650.843
 312  -6540.575
 313  -6525.642
 314  -7022.424
 315  -6815.93
 316  -6868.837
 317  -6903.701
 318  -6774.761
 319  -6768.935
 320  -6702.17
 321  -6771.525
 322  -6415.861
 323  -6706.036
 324  -6871.44
 325  -7115.592
 326  -6949.164
 327  -6816.032
 328  -6591.026
 329  -6912.776
 330  -6992.035
 331  -6766.48
 332  -6791.973
 333  -6700.278
 334  -6649.441
 335  -6526.479
 336  -6597.834
 337  -6380.24
 338  -6357.492
 339  -6675.184
 340  -6581.975
 341  -6543.697
 342  -6207.869
 343  -6220.223
 344  -6452.969
 345  -6622.664
 346  -6565.296
 347  -6669.534
 348  -6388.457
 349  -6391.378
 350  -6399.123
 351  -6832.859
 352  -6557.405
 353  -6036.031
 354  -6104.724
 355  -6058.95
 356  -6293.607
 357  -6213.491
 358  -6024.688
 359  -5906.975
 360  -6209.961
 361  -6449.681
 362  -6253.797
 363  -6134.792
 364  -6267.549
 365  -6093.929
 366  -6527.326
 367  -6437.918
 368  -6291.523
 369  -6372.558
 370  -6780.938
 371  -6625.911
 372  -6392.541
 373  -6692.559
 374  -6784.847
 375  -6760.069
 376  -6842.07
 377  -6791.218
 378  -7101.819
 379  -6871.787
 380  -6655.528
 381  -6894.705
 382  -7165.492
 383  -7011.251
 384  -6720.841
 385  -6743.538
 386  -7048.779
 387  -7152.41
 388  -7068.127
 389  -6564.189
 390  -6594.567
 391  -6774.873
 392  -6755.062
 393  -6878.99
 394  -6614.503
 395  -6568.746
 396  -6808.257
 397  -7091.94
 398  -6847.638
 399  -7229.305
 400  -7572.964
 401  -7071.037
 402  -7015.766
 403  -6835.593
 404  -7048.071
 405  -7033.093
 406  -7179.706
 407  -7116.106
 408  -7230.913
 409  -7339.849
 410  -7127.125
 411  -7227.877
 412  -7094.125
 413  -7231.361
 414  -7067.98
 415  -7077.621
 416  -7012.473
 417  -7233.032
 418  -7154.928
 419  -6869.208
 420  -7035.141
 421  -7204.166
 422  -7114.018
 423  -6972.714
 424  -7410.118
 425  -7185.406
 426  -7245.504
 427  -7007.896
 428  -6675.901
 429  -7007.727
 430  -6986.224
 431  -6844.602
 432  -6628.211
 433  -6716.419
 434  -6722.065
 435  -6715.9
 436  -6801.62
 437  -6717.841
 438  -6606.854
 439  -6603.54
 440  -7106.777
 441  -7275.206
 442  -7001.03
 443  -6869.07
 444  -7021.001
 445  -7214.44
 446  -7222.388
 447  -7277.856
 448  -7298.655
 449  -7074.626
 450  -7124.262
 451  -7255.054
 452  -7223.737
 453  -7021.417
 454  -7130.908
 455  -6921.433
 456  -7033.681
 457  -7391.959
 458  -7185.993
 459  -7240.026
 460  -7164.917
 461  -7308.112
 462  -7376.535
 463  -7553.028
 464  -7163.156
 465  -7233.908
 466  -7510.925
 467  -7500.058
 468  -7493.015
 469  -7257.967
 470  -7316.463
 471  -7224.054
 472  -7286.026
 473  -7541.518
 474  -7766.973
 475  -7736.931
 476  -7267.972
 477  -7188.031
 478  -7183.023
 479  -7228.87
 480  -7629.447
 481  -7485.051
 482  -7372.134
 483  -7713.237
 484  -7421.717
 485  -7208.711
 486  -7196.181
 487  -7294.913
 488  -7244.974
 489  -7370.636
 490  -7208.259
 491  -7093.269
 492  -7241.779
 493  -7265.536
 494  -7291.005
 495  -7358.744
 496  -7345.334
 497  -6877.648
 498  -7248.271
 499  -7170.672
 500  -7162.148
 501  -7315.313
 502  -7050.48
 503  -7177.27
 504  -7001.936
 505  -7002.493
 506  -6954.007
 507  -7130.903
 508  -6864.618
 509  -6921.609
 510  -7062.761
 511  -7116.681
