# Input file       =  1212749416.100264-PSRB0329-2ms-sampling-dd.dat
# Candidate        =  PSR_0332+5434
# Telescope        =  AR
# Epoch_topo       =  58280.451795141948
# Epoch_bary       =  N/A
# T_sample         =  0.002
# Data Folded      =  2293760
# Data Avg         =  -1.57603572923395e-08
# Data StdDev      =  738.61520566943  
# Profile Bins     =  512
# Profile Avg      =  0.0515145756746802
# Profile StdDev   =  49437.5854059085 
# Reduced chi-sqr  =  0.911
# Prob(Noise)      <  0.927   (~0.0 sigma)
# P_topo (ms)      =  714.507197646561  +/- 0.00155
# P'_topo (s/s)    =  -0                +/- 2.61e-09
# P''_topo (s/s^2) =  0                 +/- 3.69e-12
# P_bary (ms)      =  N/A
# P'_bary (s/s)    =  N/A
# P''_bary (s/s^2) =  N/A
# P_orb (s)        =  N/A
# asin(i)/c (s)    =  N/A
# eccentricity     =  N/A
# w (rad)          =  N/A
# T_peri           =  N/A
######################################################
   0  -6596.698
   1  -3127.452
   2  -27802.04
   3  -28070.73
   4  -27123.28
   5  -8057.524
   6  13685.07
   7  30354.42
   8  10790.38
   9  832.0931
  10  -7062.254
  11  6328.257
  12  1536.893
  13  5882.44
  14  24944.7
  15  29463.89
  16  28081.94
  17  2823.002
  18  12207.08
  19  22462
  20  32486.79
  21  39823.6
  22  26105.86
  23  42138.53
  24  43296
  25  50725.05
  26  40328.52
  27  43696.51
  28  58163.96
  29  72666.22
  30  46428.83
  31  38846.64
  32  36103.19
  33  28195.51
  34  61183.29
  35  82979.88
  36  67026.22
  37  33653.73
  38  7848.55
  39  3578.409
  40  12582.63
  41  22141.76
  42  17332.7
  43  -15212.66
  44  -10609.22
  45  -13855.48
  46  -32561
  47  -34793.85
  48  -21519.13
  49  -11917.37
  50  -31652.92
  51  -42731.07
  52  -34284.05
  53  -24727.38
  54  -6836.701
  55  18209.32
  56  25811.48
  57  31524.28
  58  40764.21
  59  60885.21
  60  88463.95
  61  98853.33
  62  65504.9
  63  35263.59
  64  66030.73
  65  115220.5
  66  88614.98
  67  84960.22
  68  52167.95
  69  18899.25
  70  -39571.42
  71  -16740.86
  72  38264.99
  73  28809.75
  74  -16718.29
  75  -20934.39
  76  -20541.85
  77  -48276.2
  78  -67539.27
  79  -53082.05
  80  -54789.6
  81  -27032.46
  82  -1506.12
  83  -17083.17
  84  -25818.49
  85  -23178.92
  86  -14284.83
  87  -24514.93
  88  -38923.36
  89  -39987.73
  90  -31950.36
  91  1120.424
  92  19660.66
  93  43788.98
  94  34154.72
  95  4771.709
  96  -17533.61
  97  1835.818
  98  47069.28
  99  64128.27
 100  59162.79
 101  49604.29
 102  14361.75
 103  -13508.58
 104  -36963.91
 105  -32662.78
 106  16228.89
 107  42178.18
 108  35971.46
 109  14963.25
 110  113.4424
 111  -41923.91
 112  -47135.8
 113  -30834.82
 114  -13675.07
 115  -9783.09
 116  -17606.06
 117  -23638.27
 118  -49324.09
 119  -51402.59
 120  -55707.49
 121  -56667.11
 122  -49544.86
 123  -55370.76
 124  -70462.43
 125  -59366.61
 126  -29329.11
 127  -22517.43
 128  -39106.91
 129  -37461.51
 130  -39943.05
 131  -50804.84
 132  -47932.17
 133  -38550.89
 134  -42320.75
 135  -44613.71
 136  -33069.29
 137  -32274.29
 138  -27094.05
 139  -47206.54
 140  -51880.17
 141  -46990.89
 142  -50130.36
 143  -51859.38
 144  -54250.69
 145  -46522.56
 146  -45082.3
 147  -20184.41
 148  -14075.8
 149  -4950.166
 150  -40158.32
 151  -57551.79
 152  -67310.67
 153  -22531.59
 154  -10707.06
 155  17130.04
 156  6169.847
 157  -3891.873
 158  -33976.39
 159  -57369.78
 160  -61222.34
 161  -46497.39
 162  -22281.74
 163  14180
 164  43043.34
 165  20477.27
 166  13366.11
 167  -21571.55
 168  -12986.67
 169  -5151.835
 170  -9950.327
 171  -42863.18
 172  -32004.27
 173  -39238.28
 174  -2963.214
 175  618.7514
 176  2829.069
 177  -15793.5
 178  -42750.41
 179  -32299.95
 180  -26343.25
 181  -3274.476
 182  18270.69
 183  31595.81
 184  39466
 185  16163.26
 186  -5544.565
 187  20299.33
 188  35897.09
 189  -3194.953
 190  9877.046
 191  4282.567
 192  -18005.32
 193  -6125.661
 194  6099.639
 195  19745.48
 196  12669.24
 197  -33768.88
 198  -30293.96
 199  892.6576
 200  -8201.167
 201  -47921.61
 202  -53909.23
 203  -57844.43
 204  -20197.97
 205  -13147.89
 206  519.6272
 207  -13443.62
 208  -31920.42
 209  -22743.67
 210  -25608.51
 211  -27609.82
 212  -20644.5
 213  -21231.48
 214  -11999.71
 215  -4199.049
 216  9916.873
 217  -10524.84
 218  -5791.777
 219  2870.938
 220  13977.56
 221  20374.8
 222  14217.9
 223  30429.38
 224  10405.5
 225  -4727.723
 226  -7625.162
 227  -17934.04
 228  -30040.98
 229  -31381.23
 230  -34165.89
 231  -40062.89
 232  -57484.78
 233  -60639.66
 234  -69994.02
 235  -66458.5
 236  -47706.64
 237  -63321.14
 238  -62070.91
 239  -53924.76
 240  -32475.3
 241  -23831.53
 242  4600.458
 243  -7234.761
 244  -22593.28
 245  -23490.84
 246  -11527.26
 247  -13267.58
 248  -19011.63
 249  -28891.53
 250  -38232.18
 251  -41938.16
 252  -49954.07
 253  -71114.05
 254  -47372.83
 255  -45786.44
 256  -30292.77
 257  -43268.93
 258  -39111.98
 259  -47924.75
 260  -62206.14
 261  -32163.67
 262  -43376.96
 263  -23786.63
 264  -20112.85
 265  -22259.97
 266  -39857.98
 267  -54984.68
 268  -50563.14
 269  -32377.45
 270  21864.56
 271  19758.97
 272  17343.72
 273  9648.056
 274  35299.97
 275  9150.284
 276  -20808.32
 277  -43124.16
 278  -31690.51
 279  -2924.021
 280  19142.66
 281  32248.17
 282  -18068.38
 283  -29486.53
 284  -20036
 285  -22307.8
 286  -26856.43
 287  -21825.65
 288  20345.05
 289  6072.583
 290  17691.18
 291  -29862.18
 292  -37312.23
 293  -19578.67
 294  2862.752
 295  -231.4661
 296  -27304.29
 297  -31000.65
 298  -41276.49
 299  -40853.82
 300  -23422.43
 301  -2744.058
 302  16477.56
 303  -13789.06
 304  -45009.98
 305  -59546.54
 306  -29532.15
 307  -15474.84
 308  -8069.733
 309  -3060.921
 310  1122.972
 311  -13509.71
 312  -34814.92
 313  -41292.46
 314  -34909.25
 315  -33845.6
 316  -9412.501
 317  -30022.23
 318  -47503.24
 319  -7222.52
 320  20124.96
 321  25601.91
 322  20536.17
 323  16022.58
 324  -29193.53
 325  -32130.15
 326  -4894.432
 327  9922.938
 328  18904.02
 329  17133.29
 330  5391.226
 331  -11735.75
 332  23322.25
 333  -5712.855
 334  2897.5
 335  29234.77
 336  31422.87
 337  34998.96
 338  44290.25
 339  22707.1
 340  -1140.128
 341  -34281.11
 342  -5241.604
 343  38122.48
 344  48779.21
 345  74124.62
 346  74160.76
 347  67564.77
 348  55907.03
 349  69733.45
 350  62151.05
 351  50544.4
 352  40909.76
 353  17734.35
 354  12384.5
 355  28012.71
 356  39522.78
 357  35973.43
 358  23382.94
 359  -1153.239
 360  -10084.81
 361  -26579.17
 362  -27726.86
 363  8153.465
 364  32475.22
 365  32970.42
 366  58714.66
 367  24246.45
 368  13324.12
 369  3677.78
 370  12036.84
 371  -1731.153
 372  -29241.59
 373  -18339.09
 374  -10264.64
 375  -6186.302
 376  -26387.79
 377  -8866.617
 378  -16901.12
 379  -14082.55
 380  -24437.52
 381  -23635.95
 382  -40388.07
 383  -3266.311
 384  20937.61
 385  12738.28
 386  3848.591
 387  -8469.875
 388  -2911.869
 389  9905.271
 390  34413.68
 391  60902.06
 392  32010.71
 393  11676.72
 394  35027.27
 395  44791.7
 396  36588.23
 397  4494.18
 398  31045.98
 399  49907.59
 400  18395.71
 401  12099.33
 402  17336.02
 403  -2426.399
 404  -14944.81
 405  5308.148
 406  10233.73
 407  -4615.457
 408  -2224.227
 409  27494.71
 410  23922.68
 411  23473.35
 412  -9755.136
 413  13140.35
 414  14211.55
 415  17588.02
 416  33667.55
 417  38494.87
 418  67936.18
 419  56781.39
 420  75715.24
 421  35869.71
 422  14707.8
 423  40266.07
 424  44267.13
 425  55198.61
 426  74251.02
 427  77197.96
 428  73047.7
 429  55218.92
 430  38387.57
 431  47520.92
 432  23750.67
 433  29807.95
 434  16009.01
 435  32254.42
 436  33724.05
 437  25746.17
 438  25845.34
 439  27260.2
 440  7723.375
 441  11767.73
 442  -16188.97
 443  231.085
 444  35118.91
 445  24171.47
 446  14461.82
 447  27502.8
 448  42093.23
 449  40187.98
 450  26541.25
 451  26860.59
 452  40613.2
 453  61039.43
 454  73821.88
 455  51644.16
 456  22103.23
 457  26173.29
 458  -756.1819
 459  19574.09
 460  30524.75
 461  32430.73
 462  22066.99
 463  11440.14
 464  31994.6
 465  2378.091
 466  -6640.263
 467  -26370.34
 468  -22650.38
 469  -49068.16
 470  -30071.62
 471  9340.349
 472  40049.95
 473  52958.89
 474  59284.23
 475  46860.13
 476  -200.0148
 477  -18652.62
 478  -789.2347
 479  13644.39
 480  5836.311
 481  -6876.938
 482  14437.76
 483  27898.56
 484  12187.02
 485  18837.41
 486  23128.48
 487  13445.31
 488  1940.69
 489  13319.22
 490  1488.376
 491  -2084.835
 492  5913.664
 493  11219.71
 494  31130.6
 495  29359.15
 496  31882.24
 497  18962.35
 498  -2782.137
 499  -25844.26
 500  -24909.45
 501  1690.272
 502  2819.446
 503  8058.933
 504  16680.79
 505  -765.0104
 506  -16408.48
 507  -5724.392
 508  -23322.17
 509  -29610.51
 510  -29647.41
 511  -20418.5
