# Input file       =  1212375269.110713_cleaned.dat
# Candidate        =  PSR_0332+5434
# Telescope        =  AR
# Epoch_topo       =  58276.121390170287
# Epoch_bary       =  N/A
# T_sample         =  0.002
# Data Folded      =  7143424
# Data Avg         =  0.296012154656436
# Data StdDev      =  6.01064420804513 
# Profile Bins     =  512
# Profile Avg      =  4129.87767997499 
# Profile StdDev   =  709.968785678424 
# Reduced chi-sqr  =  0.668
# Prob(Noise)      <  1   (~0.0 sigma)
# P_topo (ms)      =  714.510999602018  +/- 4.02e-05
# P'_topo (s/s)    =  -0                +/- 2.18e-11
# P''_topo (s/s^2) =  0                 +/- 9.89e-15
# P_bary (ms)      =  N/A
# P'_bary (s/s)    =  N/A
# P''_bary (s/s^2) =  N/A
# P_orb (s)        =  N/A
# asin(i)/c (s)    =  N/A
# eccentricity     =  N/A
# w (rad)          =  N/A
# T_peri           =  N/A
######################################################
   0  3592.526
   1  3776.839
   2  4085.944
   3  4212.313
   4  4199.2
   5  3627.777
   6  3354.43
   7  3838.881
   8  3722.812
   9  3862.037
  10  3978.908
  11  3836.85
  12  3596.004
  13  3776.145
  14  4167.91
  15  4231.397
  16  3899.199
  17  3562.183
  18  3657.138
  19  3973.862
  20  4237.161
  21  4486.826
  22  4252.732
  23  4218.785
  24  3458.304
  25  3226.084
  26  3163.965
  27  3352.08
  28  4335.035
  29  4413.043
  30  4339.558
  31  4163.696
  32  3560.811
  33  3541.353
  34  3660.427
  35  4009.966
  36  4482.184
  37  5133.589
  38  4649.246
  39  4015.254
  40  3765.883
  41  3748.668
  42  3662.422
  43  3499.852
  44  4009.384
  45  4449.485
  46  4513.451
  47  4247.451
  48  4346.621
  49  3801.873
  50  3875.34
  51  4090.101
  52  3833.039
  53  4305.395
  54  4504.04
  55  4934.366
  56  4338.179
  57  3751.206
  58  3949.676
  59  3571.33
  60  4236.874
  61  4142.439
  62  4503.296
  63  4335.57
  64  4208.3
  65  4247.555
  66  4161.762
  67  4278.787
  68  4026.242
  69  4427.118
  70  4298.339
  71  4438.056
  72  4907.777
  73  4354.675
  74  3871.771
  75  4054.899
  76  3952.38
  77  3679.859
  78  4093.664
  79  4358.464
  80  4840.38
  81  4620.26
  82  4715.236
  83  4431.23
  84  4232.464
  85  4313.104
  86  3750.884
  87  4559.475
  88  4333.899
  89  3382.742
  90  4058.271
  91  3860.706
  92  4050.376
  93  3914.478
  94  4337.509
  95  4742.472
  96  4448.976
  97  4416.962
  98  3842.528
  99  3810.704
 100  3985.14
 101  4106.971
 102  4892.807
 103  4954.107
 104  5070.781
 105  4562.817
 106  4472.188
 107  3786.089
 108  3539.898
 109  3962.532
 110  4335.825
 111  4594.67
 112  5076.969
 113  4757.321
 114  4269.104
 115  3884.618
 116  3759.067
 117  3918.968
 118  4499.736
 119  4481.972
 120  4936.825
 121  4252.09
 122  4102.596
 123  3652.507
 124  3790.249
 125  4235.355
 126  3866.397
 127  4221.248
 128  4515.275
 129  4689.651
 130  4143.194
 131  3989.677
 132  3766.574
 133  3758.304
 134  4255.862
 135  3976.807
 136  4661.339
 137  4480.689
 138  4436.078
 139  4038.71
 140  4124.375
 141  4048.114
 142  3826.805
 143  4310.264
 144  4568.053
 145  4771.369
 146  4650.522
 147  4356.822
 148  4073.545
 149  3848.067
 150  4121.99
 151  4156.343
 152  4333.242
 153  4357.764
 154  4676.813
 155  4464.563
 156  4019.382
 157  3677.782
 158  3542.996
 159  3889.867
 160  4293.277
 161  4630.583
 162  4209.927
 163  4398.783
 164  4301.324
 165  3943.894
 166  4193.218
 167  3933.545
 168  3926.896
 169  4496.615
 170  4914.38
 171  4316.015
 172  4012.951
 173  4152.25
 174  3772.421
 175  4062.945
 176  4436.641
 177  4637.104
 178  4415.844
 179  4250.982
 180  4170.853
 181  3629.921
 182  3658.86
 183  3941.77
 184  4262.872
 185  4607.521
 186  4813.318
 187  4886.139
 188  4369.808
 189  3859.043
 190  3864.448
 191  3751.378
 192  4124.449
 193  4347.046
 194  4481.238
 195  4371.148
 196  4584.36
 197  3971.493
 198  4003.518
 199  3914.204
 200  4159.046
 201  4494.315
 202  4662.985
 203  4666.785
 204  3886.31
 205  4220.788
 206  3890.455
 207  3442.76
 208  4040.389
 209  4051.547
 210  4678.312
 211  4713.024
 212  4567.915
 213  4298.365
 214  3825.031
 215  3733.655
 216  3939.044
 217  4403.719
 218  4187.615
 219  4733.892
 220  4580.375
 221  4733.997
 222  4563.064
 223  3995.508
 224  3953.522
 225  3973.032
 226  4154.522
 227  4607.88
 228  5198.577
 229  4579.553
 230  3776.205
 231  3870.787
 232  3693.937
 233  3790.531
 234  4109.434
 235  4930.391
 236  4583.889
 237  4309.708
 238  4049.661
 239  3583.294
 240  3979.905
 241  4136.638
 242  4170.133
 243  4503.143
 244  4676.723
 245  4212.217
 246  4127.985
 247  4297.059
 248  3865.474
 249  4441.992
 250  3893.25
 251  4159.174
 252  4478.59
 253  4364.462
 254  4543.396
 255  4430.552
 256  4123.244
 257  4258.346
 258  4082.61
 259  4057.704
 260  4381.045
 261  4321.056
 262  4322.137
 263  4186.525
 264  3989.798
 265  3764.569
 266  3827.728
 267  4095.121
 268  4232.366
 269  4420.386
 270  4087.63
 271  3582.526
 272  3859.064
 273  3573.823
 274  3970.974
 275  4567.664
 276  4645.562
 277  4632.603
 278  4329.783
 279  4255.251
 280  3694.874
 281  3689.644
 282  4250.817
 283  4120.534
 284  4291.152
 285  4679.287
 286  4739.949
 287  4388.151
 288  4591.588
 289  4390.693
 290  3849.593
 291  3914.759
 292  3650.707
 293  4717.229
 294  4932.09
 295  4618.198
 296  4258.812
 297  4036.784
 298  3779.294
 299  3925.385
 300  4628.067
 301  4662.725
 302  5018.94
 303  4872.44
 304  4188.413
 305  4138.814
 306  3591.263
 307  3847.833
 308  3859.149
 309  4441.539
 310  4676.042
 311  4671.168
 312  4250.921
 313  4420.511
 314  4568.945
 315  3880.783
 316  4281.438
 317  4266.653
 318  4245.941
 319  4610.625
 320  4575.841
 321  4417.061
 322  4388.478
 323  4290.322
 324  4119.3
 325  4600.921
 326  4766.758
 327  4622.109
 328  4214.25
 329  4370.133
 330  3848.92
 331  3862.671
 332  3745.021
 333  3643.26
 334  4545.96
 335  4384.091
 336  3899.646
 337  4118.309
 338  3954.331
 339  4179.59
 340  3569.125
 341  3905.042
 342  4459.913
 343  4252.409
 344  3967.347
 345  3940.652
 346  3807.143
 347  3827.836
 348  3714.587
 349  3677.461
 350  4397.778
 351  4290.831
 352  4174.63
 353  4082.088
 354  3368.999
 355  3556.652
 356  3586.495
 357  3633.26
 358  4130.472
 359  4525.919
 360  4192.942
 361  3856.561
 362  3756.883
 363  3843.208
 364  3442.108
 365  3753.458
 366  4263.268
 367  4649.057
 368  4744.837
 369  4671.243
 370  4298.768
 371  4385.872
 372  4333.201
 373  4480.824
 374  5190.945
 375  5515.731
 376  6219.573
 377  6168.053
 378  5742.051
 379  4805.36
 380  4083.002
 381  3751.277
 382  3896.223
 383  4455.656
 384  4212.304
 385  4925.235
 386  3997.409
 387  4008.41
 388  4106.82
 389  3904.106
 390  4515.391
 391  4178.817
 392  4489.028
 393  4305.356
 394  4114.326
 395  4233.354
 396  4043.818
 397  4108.743
 398  4027.185
 399  4413.372
 400  4128.875
 401  4552.639
 402  4566.839
 403  4294.506
 404  3867.847
 405  3846.876
 406  4108.299
 407  3508.546
 408  4279.01
 409  4198.779
 410  4370.14
 411  4489.236
 412  4424.196
 413  3953.276
 414  3709.454
 415  4065.067
 416  3967.221
 417  4722.12
 418  4372.672
 419  4053.076
 420  3514.07
 421  3195.957
 422  3842.174
 423  3801.228
 424  4011.746
 425  4459.163
 426  4068.799
 427  4502.173
 428  3897.514
 429  3618.646
 430  3924.176
 431  3909.037
 432  4088.666
 433  4271.215
 434  4379.773
 435  4166.66
 436  4164.53
 437  3641.475
 438  3527.679
 439  3616.229
 440  3901.763
 441  3938.828
 442  3839.66
 443  3835.688
 444  3774.868
 445  3426.707
 446  3656.035
 447  3791.821
 448  3535.451
 449  3555.083
 450  3970.358
 451  3824.245
 452  3917.068
 453  3404.813
 454  3422.537
 455  3538.146
 456  3431.736
 457  3889.297
 458  3812.283
 459  4101.834
 460  3818.257
 461  3530.572
 462  3624.359
 463  3466.031
 464  3786.963
 465  3521.811
 466  4087.188
 467  4063.575
 468  3659.31
 469  3371.877
 470  3449.788
 471  3379.868
 472  3214.855
 473  3598.206
 474  3788.14
 475  4505.219
 476  4434.969
 477  4016.651
 478  3674.013
 479  3529.384
 480  3336.169
 481  3605.268
 482  3822.631
 483  3861.429
 484  4201.992
 485  3937.867
 486  3189.721
 487  3422.335
 488  3203.304
 489  3308.41
 490  3213.523
 491  3966.633
 492  4229.587
 493  4211.447
 494  4207.61
 495  3706.617
 496  3562.936
 497  3801.635
 498  3938.776
 499  3710.669
 500  4284.098
 501  4631.221
 502  3998.195
 503  4038.489
 504  3665.681
 505  3626.987
 506  3774.598
 507  4349.981
 508  4152.984
 509  4125.35
 510  4130.376
 511  3985.482
