# Input file       =  1212719885.108598-PSRB0329-2ms-sampling-dd.dat
# Candidate        =  PSR_0332+5434
# Telescope        =  AR
# Epoch_topo       =  58280.110001256922
# Epoch_bary       =  N/A
# T_sample         =  0.002
# Data Folded      =  7208960
# Data Avg         =  -4.20761152702558e-10
# Data StdDev      =  7.06659092228536 
# Profile Bins     =  512
# Profile Avg      =  -0.187605420761582
# Profile StdDev   =  838.515854508427 
# Reduced chi-sqr  =  0.439
# Prob(Noise)      <  1   (~0.0 sigma)
# P_topo (ms)      =  714.50717916767   +/- 0.000477
# P'_topo (s/s)    =  -0                +/- 2.56e-10
# P''_topo (s/s^2) =  0                 +/- 1.15e-13
# P_bary (ms)      =  N/A
# P'_bary (s/s)    =  N/A
# P''_bary (s/s^2) =  N/A
# P_orb (s)        =  N/A
# asin(i)/c (s)    =  N/A
# eccentricity     =  N/A
# w (rad)          =  N/A
# T_peri           =  N/A
######################################################
   0  495.2529
   1  92.60339
   2  -317.9673
   3  -98.29746
   4  -91.65616
   5  -292.0021
   6  -489.8976
   7  -38.53603
   8  172.8443
   9  -259.9552
  10  -248.6927
  11  -142.5738
  12  366.4979
  13  325.7318
  14  76.56601
  15  247.3675
  16  578.0874
  17  625.384
  18  -87.80817
  19  137.6914
  20  601.7845
  21  218.5514
  22  -301.2708
  23  -194.9176
  24  -192.2569
  25  -485.758
  26  -169.4716
  27  -86.6399
  28  0.8636483
  29  143.5437
  30  -459.5629
  31  -170.9267
  32  122.3139
  33  445.8415
  34  629.8188
  35  637.7321
  36  764.6761
  37  513.6548
  38  300.9169
  39  -317.1478
  40  -515.5658
  41  19.15107
  42  154.981
  43  198.2386
  44  44.60047
  45  -33.54829
  46  438.4131
  47  384.3431
  48  313.0688
  49  440.5807
  50  528.0679
  51  35.42916
  52  -79.39671
  53  204.6475
  54  446.8119
  55  202.7674
  56  205.9411
  57  523.0916
  58  -56.51732
  59  -481.8535
  60  -331.2176
  61  3.092298
  62  -228.9053
  63  -272.2856
  64  -78.62407
  65  -34.07862
  66  105.5069
  67  -447.0215
  68  -441.8923
  69  38.27763
  70  184.2527
  71  240.584
  72  -769.0889
  73  -442.9865
  74  -482.7209
  75  -691.2495
  76  -806.8841
  77  -394.8578
  78  -626.8403
  79  -524.7437
  80  111.0325
  81  325.2179
  82  453.0495
  83  79.97543
  84  -90.43472
  85  -196.7055
  86  -306.3499
  87  -386.2511
  88  -653.2422
  89  -318.9727
  90  46.63301
  91  305.0005
  92  316.2504
  93  -162.7884
  94  -288.5318
  95  46.70023
  96  -103.1525
  97  -418.0383
  98  19.2095
  99  -15.86539
 100  -119.0093
 101  -6.963744
 102  329.3631
 103  377.0496
 104  127.0603
 105  119.637
 106  84.43647
 107  259.1612
 108  -37.65223
 109  -423.3625
 110  -11.12024
 111  320.8347
 112  287.2339
 113  214.8476
 114  -520.1351
 115  212.1224
 116  348.5383
 117  610.6079
 118  888.7817
 119  768.895
 120  433.0739
 121  -163.5094
 122  471.9388
 123  504.6219
 124  249.2657
 125  -27.83551
 126  69.79939
 127  407.5284
 128  269.9497
 129  525.204
 130  251.6273
 131  574.0068
 132  679.309
 133  445.3238
 134  214.1862
 135  335.3109
 136  203.0444
 137  486.547
 138  560.067
 139  276.888
 140  429.9232
 141  163.2884
 142  217.4848
 143  337.1281
 144  286.8184
 145  393.1851
 146  142.5951
 147  499.2679
 148  767.5259
 149  1047.291
 150  865.1102
 151  279.4553
 152  514.6899
 153  170.67
 154  343.5156
 155  23.22824
 156  624.5406
 157  480.4299
 158  216.1372
 159  244.7093
 160  11.93614
 161  -100.0003
 162  -111.79
 163  -174.2252
 164  115.1833
 165  490.6631
 166  343.4153
 167  89.42841
 168  187.0975
 169  -188.9949
 170  -412.4619
 171  -136.602
 172  -379.5048
 173  -271.4698
 174  28.31736
 175  150.8256
 176  41.47748
 177  -114.7017
 178  172.1147
 179  201.4408
 180  -411.235
 181  120.7105
 182  614.9597
 183  431.5151
 184  424.1212
 185  259.2523
 186  281.4972
 187  376.2546
 188  715.1962
 189  1395.393
 190  1385.811
 191  661.3426
 192  848.018
 193  1190.816
 194  1542.081
 195  1126.457
 196  727.3475
 197  582.3396
 198  110.045
 199  167.7495
 200  435.3846
 201  401.2793
 202  138.4452
 203  -119.31
 204  -113.5065
 205  473.5517
 206  503.5663
 207  184.5567
 208  -95.22926
 209  -470.213
 210  -283.5378
 211  53.94503
 212  45.41788
 213  -578.5668
 214  -362.9476
 215  186.2254
 216  385.6527
 217  -220.4832
 218  -129.9295
 219  -99.84411
 220  -430.4043
 221  456.2388
 222  505.0171
 223  642.1647
 224  123.7873
 225  128.8259
 226  72.90795
 227  -498.537
 228  -287.8289
 229  -324.1741
 230  23.07661
 231  231.107
 232  176.3698
 233  45.99636
 234  -451.867
 235  -341.1846
 236  -499.5771
 237  -944.0453
 238  -653.6774
 239  70.92855
 240  493.2165
 241  -257.4656
 242  -865.1768
 243  -543.6409
 244  -204.8471
 245  -323.9191
 246  -729.819
 247  -727.0947
 248  -138.3726
 249  20.02121
 250  71.62514
 251  297.8753
 252  -62.264
 253  -345.3335
 254  -574.6539
 255  -379.6378
 256  -253.4316
 257  318.4595
 258  100.0037
 259  18.4137
 260  -36.96403
 261  -649.3019
 262  -788.1541
 263  -359.487
 264  303.6256
 265  332.0929
 266  -177.635
 267  -497.3535
 268  -250.7301
 269  -580.4241
 270  -910.8653
 271  -428.12
 272  -14.4349
 273  -476.5679
 274  -904.9894
 275  -771.6931
 276  -565.5296
 277  -265.3052
 278  -414.3475
 279  -454.7638
 280  -428.9954
 281  -464.2209
 282  -110.7285
 283  -781.5153
 284  -162.2381
 285  479.62
 286  189.9539
 287  -270.3272
 288  -25.06991
 289  -510.3831
 290  -509.0864
 291  -611.1174
 292  58.67081
 293  955.8795
 294  597.5314
 295  -111.4617
 296  -424.627
 297  329.7394
 298  -89.0605
 299  -509.99
 300  -171.8613
 301  -149.8663
 302  -226.9811
 303  -257.189
 304  72.24636
 305  -156.5678
 306  -240.7007
 307  -192.2654
 308  -326.766
 309  -613.4478
 310  -439.5559
 311  -410.3626
 312  44.27463
 313  49.36495
 314  328.393
 315  205.0545
 316  -336.453
 317  -174.9941
 318  -188.5387
 319  -341.196
 320  -293.9914
 321  -135.0347
 322  235.7582
 323  -382.5996
 324  300.1548
 325  357.3291
 326  656.9004
 327  297.136
 328  -94.27847
 329  -38.32689
 330  35.85786
 331  730.8806
 332  576.3098
 333  648.5839
 334  483.7796
 335  -488.446
 336  -335.2052
 337  -375.4819
 338  -10.88573
 339  214.8669
 340  288.5945
 341  5.894392
 342  -764.9133
 343  -579.357
 344  -383.139
 345  -334.4151
 346  -57.60836
 347  233.0037
 348  185.5599
 349  -151.7752
 350  -21.25264
 351  258.1032
 352  348.6643
 353  -29.17703
 354  -223.7497
 355  352.6831
 356  431.6842
 357  -193.3426
 358  87.44329
 359  844.0457
 360  555.2334
 361  231.7491
 362  -92.28465
 363  -9.2638
 364  154.7448
 365  270.5342
 366  609.0935
 367  742.3235
 368  697.4637
 369  260.601
 370  -183.3319
 371  -218.5405
 372  -1015.141
 373  -752.9333
 374  -272.6571
 375  75.03538
 376  38.07801
 377  -275.4572
 378  -175.0902
 379  -137.0539
 380  -285.8142
 381  -402.3125
 382  -154.6365
 383  -150.6223
 384  -273.2223
 385  -516.0433
 386  -728.545
 387  -117.9036
 388  515.8351
 389  396.4199
 390  69.15386
 391  -121.3716
 392  44.68254
 393  -99.74655
 394  -649.3683
 395  123.7648
 396  564.1295
 397  116.8447
 398  136.9661
 399  -8.727885
 400  184.1296
 401  127.4342
 402  -135.2112
 403  162.3205
 404  -207.7533
 405  2.46051
 406  -351.4491
 407  64.19622
 408  -34.86318
 409  -190.5127
 410  -223.3387
 411  -532.7263
 412  -223.2397
 413  -23.04017
 414  17.9269
 415  -321.0526
 416  -558.2689
 417  -612.837
 418  -958.7973
 419  -574.3585
 420  -332.0296
 421  -69.96934
 422  432.5677
 423  -22.08546
 424  -149.6994
 425  -502.2466
 426  -292.7901
 427  -2.134228
 428  375.5963
 429  310.9362
 430  499.4464
 431  1.101261
 432  182.8746
 433  493.6753
 434  457.0842
 435  289.469
 436  113.7521
 437  -152.2263
 438  -776.3057
 439  -621.5599
 440  -286.8478
 441  -259.1159
 442  62.49071
 443  347.5174
 444  -24.19128
 445  -197.4926
 446  113.6576
 447  -25.94423
 448  -62.04119
 449  55.42431
 450  -206.0941
 451  -345.9308
 452  -929.6669
 453  -658.3784
 454  -420.4718
 455  -94.32745
 456  -92.83504
 457  140.9071
 458  107.8536
 459  -85.28708
 460  -410.1653
 461  -242.5668
 462  81.81445
 463  224.1548
 464  416.7045
 465  468.1417
 466  278.4402
 467  -9.430923
 468  -373.6645
 469  2.612346
 470  101.033
 471  -36.41653
 472  -242.1087
 473  -297.0128
 474  -76.88988
 475  -178.3011
 476  -48.80408
 477  49.92602
 478  411.4836
 479  938.6729
 480  173.226
 481  -219.4085
 482  -650.7017
 483  -740.5691
 484  -103.2548
 485  -648.4449
 486  -98.57169
 487  -348.152
 488  -66.69042
 489  -329.4808
 490  -581.2761
 491  -572.5206
 492  -727.1121
 493  -419.5626
 494  -35.85098
 495  416.8674
 496  536.2449
 497  373.3143
 498  90.92534
 499  -58.74829
 500  152.6718
 501  -157.839
 502  -657.68
 503  -590.6922
 504  -156.761
 505  -160.0531
 506  18.35363
 507  -68.60607
 508  -296.8191
 509  -334.7106
 510  -188.8826
 511  288.6347
