# Input file       =  1212030580.120176_cleaned.dat
# Candidate        =  PSR_0332+5434
# Telescope        =  AR
# Epoch_topo       =  58272.131934261299
# Epoch_bary       =  N/A
# T_sample         =  0.002
# Data Folded      =  7208960
# Data Avg         =  1.52737126975765 
# Data StdDev      =  15.9382474467922 
# Profile Bins     =  512
# Profile Avg      =  21505.4929830115 
# Profile StdDev   =  1891.2193056297  
# Reduced chi-sqr  =  0.967
# Prob(Noise)      <  0.695   (~0.0 sigma)
# P_topo (ms)      =  714.514858422139  +/- 3.11e-05
# P'_topo (s/s)    =  -0                +/- 1.67e-11
# P''_topo (s/s^2) =  0                 +/- 7.5e-15
# P_bary (ms)      =  N/A
# P'_bary (s/s)    =  N/A
# P''_bary (s/s^2) =  N/A
# P_orb (s)        =  N/A
# asin(i)/c (s)    =  N/A
# eccentricity     =  N/A
# w (rad)          =  N/A
# T_peri           =  N/A
######################################################
   0  21745.83
   1  21369.04
   2  21882.28
   3  19754.51
   4  20547.95
   5  21111.26
   6  21451.31
   7  21753.94
   8  22210.3
   9  22770.73
  10  20153.13
  11  18483.72
  12  19963.3
  13  21444.86
  14  22288.13
  15  23781.3
  16  23447.39
  17  22404.8
  18  21274.29
  19  22334.18
  20  23716.1
  21  24515.24
  22  24061.04
  23  23644.39
  24  21052.71
  25  20174.08
  26  21300.33
  27  21369.57
  28  21846.73
  29  21411.04
  30  20115.05
  31  19822.77
  32  19350.67
  33  21352.06
  34  22800.5
  35  23226.26
  36  21330.03
  37  21289.33
  38  20872.59
  39  20477.53
  40  21704.44
  41  22598.52
  42  23511.82
  43  22166.43
  44  18814.85
  45  17725.25
  46  19773.97
  47  20706.59
  48  21310.42
  49  22430.15
  50  22051.9
  51  20771.05
  52  19982.61
  53  21406.65
  54  23695.06
  55  22408.06
  56  21933.88
  57  21609.99
  58  20417.57
  59  18932.25
  60  20281.71
  61  22211.34
  62  23764.76
  63  23699.19
  64  22198.38
  65  20252.03
  66  18842.67
  67  19901.96
  68  19662.79
  69  21528.83
  70  22945.33
  71  21528.22
  72  20063.25
  73  19736.79
  74  21062.92
  75  21431.76
  76  21343.66
  77  20857.49
  78  20737.83
  79  20846.02
  80  21143
  81  24158.53
  82  25788.47
  83  25805.18
  84  25116.11
  85  23078.22
  86  21494.69
  87  21176.97
  88  22284.63
  89  22926.5
  90  23691.3
  91  23257.85
  92  19564.14
  93  19168.34
  94  21078.65
  95  20854.02
  96  23011.36
  97  24018.35
  98  23341.31
  99  21390.91
 100  20342.51
 101  21707.96
 102  23048.94
 103  22448.31
 104  22858.33
 105  23126.68
 106  22429.68
 107  20910.96
 108  21219.38
 109  21492.49
 110  21757.07
 111  22866.71
 112  21126.11
 113  19577.08
 114  21667.43
 115  22456.93
 116  21995.61
 117  22795.25
 118  22164.95
 119  20461.97
 120  19506.27
 121  20088.47
 122  22385.2
 123  22979.89
 124  22854.53
 125  21222.39
 126  20431.62
 127  20420.65
 128  21963.3
 129  20791.16
 130  21190.08
 131  22316.62
 132  21966.31
 133  21766.89
 134  22969.13
 135  22277.85
 136  21610.47
 137  21229.33
 138  22072.38
 139  20945.46
 140  20242.7
 141  20797.89
 142  20507.69
 143  22184.88
 144  23063.35
 145  22435.93
 146  20964.49
 147  19725.25
 148  20418.85
 149  21115.79
 150  21750.29
 151  21327.46
 152  22152.62
 153  22836.95
 154  21814.51
 155  21755.63
 156  22297.62
 157  22305.84
 158  23044.34
 159  22801.22
 160  22260.14
 161  22161.94
 162  20078.54
 163  19797.05
 164  21021.13
 165  21620.77
 166  22292.57
 167  20577.65
 168  19273.67
 169  19184.19
 170  21450.46
 171  23405.09
 172  22495.68
 173  22547.01
 174  20569.14
 175  19647.86
 176  21082.47
 177  22206.34
 178  22122.11
 179  21696.96
 180  21176.05
 181  20622.43
 182  21155.56
 183  21752.75
 184  20968.68
 185  21808.83
 186  21386.4
 187  21521.54
 188  20565.24
 189  21090.56
 190  19943.84
 191  19157.64
 192  19249.36
 193  20977.08
 194  19687.34
 195  18973.73
 196  19234.29
 197  20897.3
 198  21793.06
 199  22545.33
 200  21988.43
 201  20287.81
 202  19679.17
 203  21376.5
 204  22899.73
 205  24290.21
 206  23817.39
 207  22479.46
 208  21028.96
 209  20147.48
 210  21391.96
 211  21755.94
 212  21766.82
 213  21586.76
 214  22130.51
 215  23186.94
 216  21862.48
 217  20429.7
 218  20990.57
 219  21907.25
 220  22446.5
 221  23172.66
 222  21658.88
 223  20830.72
 224  21246.34
 225  20579.49
 226  23365.87
 227  22927.89
 228  22397.83
 229  21063.47
 230  21886.2
 231  23303.58
 232  24184.93
 233  22736.28
 234  21688.04
 235  20915.87
 236  19779.61
 237  20249.4
 238  21582.46
 239  20700.63
 240  21165.56
 241  20568.21
 242  18748.6
 243  18531.12
 244  17798.66
 245  17745.72
 246  20101.48
 247  21786.38
 248  22464.77
 249  21222.2
 250  19575.08
 251  19531.33
 252  19706.94
 253  21095.54
 254  22325.35
 255  23118.66
 256  21566.55
 257  19623.41
 258  19153.59
 259  20438.85
 260  22505.51
 261  23335.13
 262  23418.06
 263  22375.06
 264  21019.73
 265  20664.42
 266  19033.05
 267  18881.56
 268  18814.24
 269  19508
 270  19135.84
 271  19596.01
 272  20172.72
 273  20719.45
 274  21865.51
 275  21855.86
 276  19938.6
 277  19966.54
 278  20687.02
 279  21338.63
 280  21940.16
 281  22307.92
 282  23365.24
 283  21748.33
 284  21169.49
 285  21440.62
 286  24512.32
 287  23668.56
 288  22821.51
 289  23290.22
 290  23698.23
 291  20559.33
 292  21788.55
 293  23210.25
 294  21657.83
 295  21103.9
 296  22348.61
 297  21727.66
 298  20846.6
 299  21347.64
 300  21984.22
 301  21778.72
 302  22864.32
 303  22278.22
 304  20962.71
 305  19463.04
 306  19991.11
 307  21608.1
 308  22284.63
 309  23357.88
 310  21571.45
 311  19533.14
 312  20391.25
 313  21729.85
 314  24525.59
 315  24765.91
 316  23622.57
 317  22619.98
 318  21530.29
 319  21305.03
 320  21175.12
 321  22206.13
 322  21794.98
 323  21692.22
 324  20552.83
 325  18987.73
 326  19525.58
 327  21426.86
 328  21167.29
 329  21405.22
 330  21803.96
 331  21972.28
 332  21693.44
 333  20494.93
 334  23613.19
 335  24073.01
 336  24013.65
 337  23763.87
 338  21858.04
 339  21719.8
 340  21801.67
 341  22124.07
 342  21774.3
 343  20790.54
 344  19878.33
 345  20419.32
 346  22203.4
 347  22674.65
 348  22809.83
 349  22174.58
 350  21411.4
 351  20807.42
 352  20425.62
 353  21306.94
 354  22135.97
 355  21637.87
 356  21503.68
 357  20891.81
 358  19884.55
 359  18615.29
 360  20680.17
 361  22212.69
 362  22585.57
 363  22364.31
 364  22255.42
 365  20690.51
 366  19974.03
 367  21033.37
 368  20890.45
 369  20766.77
 370  20650.86
 371  22174.12
 372  22000.43
 373  20593.39
 374  21530.79
 375  22238.32
 376  22697.43
 377  21507.23
 378  21574.66
 379  21820.09
 380  20400.37
 381  20558.8
 382  20588.15
 383  21609.57
 384  21916.18
 385  21279.46
 386  20485.13
 387  19438.56
 388  21571
 389  21663.64
 390  22383.73
 391  21416.36
 392  22312.01
 393  20986.43
 394  20439.05
 395  21705.3
 396  22831.32
 397  22633.51
 398  21967.74
 399  21576.56
 400  19525.05
 401  18876.23
 402  20266.78
 403  22200.79
 404  21404.82
 405  20696.63
 406  20988.01
 407  19214.03
 408  19148.89
 409  20825.93
 410  22233.49
 411  22723.9
 412  23041.11
 413  20970.74
 414  19837.19
 415  20612.54
 416  22764.33
 417  23815.36
 418  22922.98
 419  21683.99
 420  21469.13
 421  20950.15
 422  21175.89
 423  22399.91
 424  21146.52
 425  21567.91
 426  21111.41
 427  20445.85
 428  20336.1
 429  23321.78
 430  23799.53
 431  22823.51
 432  22410.68
 433  21738.11
 434  21894.75
 435  22685.57
 436  24178.37
 437  23716.12
 438  24046.44
 439  22861.63
 440  22013.56
 441  21724.44
 442  21592.32
 443  23542.4
 444  23906.06
 445  23873.86
 446  23811.6
 447  21230.07
 448  19264.96
 449  19944.54
 450  20812.67
 451  21052.03
 452  20350.05
 453  20297.51
 454  19285.48
 455  19130.43
 456  20057.96
 457  20656.77
 458  19981.4
 459  21726.32
 460  22202.36
 461  21055.82
 462  19249.76
 463  20832.98
 464  21676.51
 465  22548.09
 466  23409.49
 467  23454.38
 468  21352.22
 469  20769.16
 470  21921.4
 471  21373.72
 472  21619.83
 473  23094.1
 474  22676.6
 475  19848.16
 476  20199.07
 477  21787.58
 478  22131.13
 479  21580.12
 480  21486.88
 481  19671.88
 482  18811.95
 483  19465.06
 484  21673.55
 485  23084.23
 486  22468.6
 487  22443.9
 488  21178.53
 489  20687.24
 490  20692.81
 491  22053.45
 492  23068.08
 493  23250.05
 494  22963.78
 495  21091.19
 496  21165.86
 497  22724.38
 498  23219.46
 499  23165.93
 500  23774.62
 501  24156.12
 502  20417.4
 503  20850.56
 504  21933.67
 505  20649.53
 506  21176.49
 507  22877.76
 508  20178.11
 509  18384.34
 510  18750.87
 511  20590.95
