# Input file       =  1212060153.117047_cleaned.dat
# Candidate        =  PSR_0332+5434
# Telescope        =  AR
# Epoch_topo       =  58272.474214317677
# Epoch_bary       =  N/A
# T_sample         =  0.002
# Data Folded      =  7340032
# Data Avg         =  0.0329124301029618
# Data StdDev      =  2.59413893284327 
# Profile Bins     =  256
# Profile Avg      =  943.537838004835 
# Profile StdDev   =  439.260574889842 
# Reduced chi-sqr  =  1.510
# Prob(Noise)      <  2.52e-07   (~5.0 sigma)
# P_topo (ms)      =  714.514871435217  +/- 0.000334
# P'_topo (s/s)    =  -0                +/- 1.76e-10
# P''_topo (s/s^2) =  0                 +/- 7.78e-14
# P_bary (ms)      =  N/A
# P'_bary (s/s)    =  N/A
# P''_bary (s/s^2) =  N/A
# P_orb (s)        =  N/A
# asin(i)/c (s)    =  N/A
# eccentricity     =  N/A
# w (rad)          =  N/A
# T_peri           =  N/A
######################################################
   0  1712.679
   1  1349.799
   2  728.9688
   3  1647.764
   4  1288.198
   5  1075.187
   6  1300.933
   7  1640.725
   8  1366.033
   9  1148.966
  10  1858.871
  11  1467.76
  12  915.4019
  13  700.6993
  14  986.2698
  15  1054.279
  16  1398.527
  17  1578.089
  18  582.3513
  19  448.8857
  20  815.9001
  21  1092.368
  22  819.3895
  23  1168.376
  24  1105.773
  25  1045.015
  26  758.6423
  27  1054.228
  28  804.2038
  29  1014.651
  30  1000.275
  31  540.3724
  32  1305.119
  33  664.1422
  34  840.1222
  35  252.7328
  36  793.9485
  37  426.6727
  38  856.1275
  39  1174.84
  40  1114.254
  41  1157.567
  42  745.6625
  43  493.1139
  44  520.6237
  45  913.7098
  46  192.4158
  47  527.2986
  48  670.8239
  49  1091.807
  50  721.8021
  51  1183.062
  52  668.9061
  53  1016.49
  54  398.0973
  55  590.5687
  56  1222.503
  57  1076.219
  58  1361.998
  59  595.6108
  60  450.1075
  61  643.2936
  62  1063.292
  63  1102.601
  64  202.1909
  65  329.7841
  66  1056.946
  67  452.4378
  68  547.8253
  69  614.2837
  70  1235.187
  71  715.0121
  72  1549.224
  73  1054.267
  74  611.4351
  75  427.5521
  76  996.1646
  77  1081.258
  78  855.6481
  79  588.3793
  80  1501.78
  81  632.5656
  82  1444.946
  83  1288.232
  84  1174.011
  85  1201.587
  86  1330.887
  87  1404.021
  88  1306.737
  89  1187.457
  90  719.1193
  91  801.0711
  92  418.8042
  93  971.7515
  94  940.7156
  95  744.0718
  96  617.1094
  97  1065.577
  98  1158.437
  99  597.4391
 100  687.6431
 101  1483.005
 102  1444.441
 103  1015.841
 104  760.7634
 105  353.4206
 106  1443.427
 107  274.4076
 108  454.3414
 109  954.0124
 110  543.8215
 111  767.4529
 112  141.3679
 113  494.1776
 114  1072.095
 115  1087.171
 116  953.2938
 117  806.7926
 118  1201.122
 119  1195.792
 120  913.9304
 121  729.7673
 122  1280.3
 123  1249.106
 124  728.6541
 125  372.2263
 126  380.2057
 127  759.2344
 128  727.5901
 129  1098.702
 130  1117.214
 131  747.6028
 132  885.1376
 133  949.533
 134  1072.651
 135  740.6715
 136  278.7414
 137  379.182
 138  1169.94
 139  928.4525
 140  1114.147
 141  1245.353
 142  1070.796
 143  639.8094
 144  1070.905
 145  785.3651
 146  1262.282
 147  2085.772
 148  3084.487
 149  3971.902
 150  3434.418
 151  1943.051
 152  1083.91
 153  489.6311
 154  502.3106
 155  927.9203
 156  1172.197
 157  1446.41
 158  839.9274
 159  906.2657
 160  1159.391
 161  457.6775
 162  745.1622
 163  529.1448
 164  1200.5
 165  1402.392
 166  764.9713
 167  608.2717
 168  741.7441
 169  887.7044
 170  652.777
 171  968.5007
 172  191.6016
 173  731.8965
 174  756.4413
 175  932.276
 176  770.8025
 177  688.3497
 178  562.184
 179  928.4694
 180  1033.384
 181  1191.448
 182  1044.689
 183  284.8008
 184  525.41
 185  524.6436
 186  1065.043
 187  1455.108
 188  91.93111
 189  266.9228
 190  665.7932
 191  729.2037
 192  818.0897
 193  1040.91
 194  368.1416
 195  306.9295
 196  672.9023
 197  1165.475
 198  754.3708
 199  121.7585
 200  645.9525
 201  257.4277
 202  603.9328
 203  600.8624
 204  124.9261
 205  503.9284
 206  798.8224
 207  477.1483
 208  495.9166
 209  598.16
 210  765.846
 211  581.4732
 212  682.0444
 213  1000.619
 214  1012.105
 215  1133.39
 216  833.5574
 217  1280.584
 218  1006.817
 219  799.4908
 220  911.3547
 221  1223.93
 222  811.2147
 223  1381.617
 224  764.2474
 225  636.4201
 226  721.9785
 227  996.8398
 228  1011.612
 229  1304.762
 230  1310.102
 231  1355.387
 232  1207.887
 233  1169.413
 234  743.3911
 235  1002.635
 236  807.0803
 237  841.5082
 238  1004.984
 239  1179.253
 240  1122.185
 241  1116.214
 242  469.441
 243  856.8345
 244  983.6295
 245  640.8494
 246  1152.041
 247  1410.748
 248  1370.43
 249  906.5383
 250  1863.243
 251  1667.009
 252  1953.859
 253  1579.358
 254  1716.265
 255  1492.095
