# Input file       =  1212202951.119541_cleaned.dat
# Candidate        =  PSR_0332+5434
# Telescope        =  AR
# Epoch_topo       =  58274.126968976168
# Epoch_bary       =  N/A
# T_sample         =  0.002
# Data Folded      =  7208960
# Data Avg         =  0.297321679172191
# Data StdDev      =  6.07720551365003 
# Profile Bins     =  512
# Profile Avg      =  4186.28309846834 
# Profile StdDev   =  721.116197377612 
# Reduced chi-sqr  =  1.865
# Prob(Noise)      <  4.08e-29   (~11.1 sigma)
# P_topo (ms)      =  714.512924506954  +/- 3.51e-05
# P'_topo (s/s)    =  -0                +/- 1.89e-11
# P''_topo (s/s^2) =  0                 +/- 8.48e-15
# P_bary (ms)      =  N/A
# P'_bary (s/s)    =  N/A
# P''_bary (s/s^2) =  N/A
# P_orb (s)        =  N/A
# asin(i)/c (s)    =  N/A
# eccentricity     =  N/A
# w (rad)          =  N/A
# T_peri           =  N/A
######################################################
   0  4190.355
   1  4717.493
   2  4743.703
   3  4722.063
   4  4079.646
   5  3923.618
   6  4068.58
   7  3760.292
   8  3702.776
   9  4073.67
  10  4311.26
  11  3924.396
  12  3330.728
  13  3061.986
  14  3404.479
  15  3726.402
  16  3816.671
  17  4854.905
  18  5014.229
  19  4680.307
  20  4195.499
  21  3817.324
  22  3919.427
  23  4217.643
  24  4109.28
  25  4220.035
  26  4680.976
  27  4074.528
  28  3331.521
  29  2667.203
  30  2557.09
  31  3421.281
  32  4063.145
  33  4615.177
  34  4915.854
  35  5090.661
  36  4432.523
  37  3791.146
  38  3965.304
  39  4082.774
  40  3560.014
  41  3733.849
  42  4518.336
  43  4274.705
  44  3734.724
  45  2812.806
  46  3201.554
  47  2985.286
  48  3531.218
  49  3774.851
  50  4516.218
  51  5084.304
  52  4839.563
  53  4586.662
  54  3870.913
  55  3729.857
  56  3647.046
  57  3637.09
  58  4067.629
  59  4531.776
  60  4201.332
  61  3674.864
  62  3434.203
  63  3440.299
  64  3443.961
  65  3662.3
  66  4226.38
  67  5170.237
  68  5537.732
  69  4700.248
  70  4505.267
  71  4284.728
  72  4106.75
  73  3604.75
  74  3541.001
  75  4386.861
  76  4368.572
  77  3971.378
  78  3274.847
  79  3231.019
  80  3427.319
  81  3449.558
  82  3828.453
  83  4839.36
  84  5080.652
  85  4766.659
  86  4273.369
  87  4152.184
  88  4084.332
  89  3874.4
  90  3815.539
  91  4143.251
  92  4320.686
  93  4213.384
  94  3470.068
  95  3055.265
  96  3269.101
  97  3713.952
  98  4510.057
  99  4695.446
 100  5325.938
 101  5127.847
 102  4993.339
 103  4289.971
 104  3899.15
 105  4396.476
 106  4098.222
 107  4309.076
 108  4985.63
 109  4926.05
 110  4325.188
 111  3436.723
 112  3424.037
 113  3862.445
 114  4189.517
 115  4772.211
 116  5142.616
 117  5612.836
 118  5221.861
 119  4842.413
 120  4853.827
 121  4525.442
 122  4382.865
 123  4480.768
 124  4726.741
 125  4813.598
 126  3935.775
 127  3781.876
 128  3373.084
 129  3610.899
 130  3987.808
 131  4253.938
 132  5084.409
 133  5347.203
 134  5706.399
 135  5669.152
 136  4481.502
 137  4463.471
 138  4549.948
 139  4691.792
 140  4308.396
 141  4594.228
 142  4835.338
 143  4004.17
 144  3345.625
 145  3225.352
 146  3696.813
 147  4122.246
 148  4148.971
 149  4553.198
 150  5315.662
 151  5303.918
 152  4605.897
 153  4631.801
 154  4889.462
 155  4537.458
 156  4107.99
 157  4013.872
 158  4539.331
 159  3994.377
 160  3224.057
 161  3807.018
 162  3554.635
 163  3471.717
 164  3825.892
 165  4482.095
 166  5302.747
 167  5692.75
 168  4764.31
 169  3797.473
 170  3890.641
 171  4203.03
 172  4356.624
 173  4035.641
 174  4473.524
 175  4485.311
 176  4240.624
 177  3685.275
 178  3421.789
 179  3594.678
 180  3705.828
 181  4303.566
 182  4870.212
 183  5450.365
 184  4811.827
 185  4783.906
 186  4548.069
 187  4275.345
 188  4455.544
 189  4084.12
 190  4270.223
 191  4448.739
 192  4652.537
 193  3985.421
 194  3860.084
 195  3862.353
 196  4026.242
 197  4607.915
 198  4788.022
 199  5679.839
 200  5721.416
 201  5359.517
 202  5122.263
 203  4568.595
 204  4467.622
 205  4364.196
 206  4310.628
 207  4839.583
 208  5239.427
 209  4272.265
 210  3250.314
 211  3274.246
 212  3692.78
 213  4187.872
 214  4894.957
 215  6021.853
 216  6918.507
 217  6812.903
 218  6461.808
 219  6035.123
 220  5474.411
 221  4777.146
 222  4318.552
 223  4800.173
 224  5225.496
 225  4393.705
 226  4129.815
 227  3687.31
 228  3565.639
 229  3768.889
 230  4435.507
 231  4865.642
 232  5675.524
 233  6111.651
 234  5224.733
 235  4755.654
 236  4561.352
 237  4437.478
 238  4507.819
 239  4503.212
 240  4517.507
 241  4655.964
 242  4019.957
 243  3560.986
 244  3543.004
 245  3978.352
 246  3599.493
 247  3551.155
 248  4846.697
 249  5258.721
 250  5627.816
 251  4750.961
 252  4445.798
 253  4516.25
 254  4360.971
 255  4411.896
 256  3971.089
 257  4282.049
 258  4089.622
 259  3875.481
 260  4217.33
 261  3794.192
 262  3808.187
 263  4395.138
 264  5242.605
 265  5465.913
 266  5057.363
 267  4874.293
 268  4885.941
 269  4238.597
 270  4694.713
 271  4936.328
 272  4363.667
 273  4417.071
 274  4852.441
 275  4524.077
 276  3883.69
 277  3813.593
 278  3733.838
 279  4342.246
 280  5213.425
 281  5505.228
 282  5876.855
 283  5197.867
 284  4670.274
 285  4377.014
 286  4660.162
 287  4631.252
 288  4475.733
 289  4805.398
 290  5201.903
 291  4679.788
 292  4247.843
 293  3700.831
 294  3294.581
 295  3860.854
 296  4487.99
 297  5418.998
 298  6058.921
 299  6307.26
 300  5942.382
 301  4819.864
 302  4716.843
 303  4518.81
 304  4821.232
 305  4473.797
 306  4646.784
 307  4838.663
 308  4315.088
 309  3666.163
 310  3513.917
 311  3759.685
 312  4031.346
 313  4019.161
 314  4256.823
 315  5128.399
 316  5496.839
 317  5284.898
 318  4080.05
 319  4263.997
 320  4371.178
 321  3778.382
 322  3964.659
 323  4547.688
 324  4521.083
 325  3747.122
 326  3480.223
 327  3275.968
 328  3367.147
 329  3816.969
 330  4440.305
 331  4694.353
 332  4611.988
 333  4291.472
 334  4085.712
 335  3967.116
 336  3874.208
 337  3984.015
 338  3817.798
 339  3794.069
 340  3545.171
 341  3368.26
 342  2986.39
 343  2774.523
 344  3495.501
 345  3677.924
 346  3440.079
 347  4032.785
 348  4737.372
 349  4280.202
 350  3864.66
 351  3914.296
 352  4580.167
 353  4382.142
 354  4170.887
 355  3839.355
 356  3740.419
 357  3945.178
 358  3871.436
 359  3640.516
 360  3462.14
 361  3570.95
 362  3802.837
 363  4550.661
 364  5005.965
 365  5050.12
 366  4686.59
 367  4745.719
 368  4342.075
 369  4182.93
 370  4235.454
 371  4402.953
 372  4445.066
 373  4410.338
 374  4171.038
 375  3565.833
 376  3386.011
 377  3682.038
 378  4195.738
 379  4417.354
 380  4627.981
 381  5281.45
 382  5107.783
 383  4883.04
 384  4501.69
 385  3888.561
 386  3861.781
 387  3553.083
 388  4117.237
 389  4401.917
 390  4366.457
 391  3750.977
 392  3083.719
 393  3400.501
 394  3342.586
 395  4275.451
 396  4482.237
 397  4814
 398  5274.503
 399  4807.548
 400  4371.923
 401  3789.056
 402  3743.82
 403  3757.187
 404  3880.109
 405  4158.987
 406  4313.549
 407  3488.667
 408  3099.992
 409  2683.083
 410  3156.087
 411  3258.461
 412  3865.34
 413  4185.695
 414  4393.001
 415  4463.56
 416  3962.165
 417  4097.821
 418  3858.575
 419  3481.721
 420  3426.821
 421  3437.527
 422  3645.228
 423  3264.22
 424  2585.632
 425  2631.031
 426  2784.58
 427  2886.007
 428  2756.735
 429  3028.438
 430  3856.043
 431  4093.628
 432  4073.514
 433  3577.01
 434  3540.601
 435  3888.875
 436  3736.261
 437  3457.764
 438  3214.96
 439  3251.196
 440  3003.009
 441  2908.189
 442  2821.051
 443  2866.267
 444  3411.373
 445  3912.878
 446  4200.393
 447  4737.947
 448  4554.144
 449  3861.165
 450  3405.313
 451  3774.499
 452  4167.572
 453  4011.757
 454  3903.549
 455  4505.751
 456  4059.102
 457  2923.613
 458  2021.161
 459  2153.26
 460  3226.124
 461  3616.439
 462  4427.942
 463  4861.151
 464  5183.892
 465  4277.844
 466  3588.933
 467  3668.302
 468  3463.127
 469  3792.03
 470  3790.381
 471  3836.479
 472  4118.158
 473  3649.926
 474  3059.286
 475  2600.829
 476  2847.256
 477  3613.721
 478  4099.151
 479  4095.525
 480  5128.64
 481  5054.22
 482  5147.187
 483  4214.016
 484  4224.659
 485  4065.582
 486  3605.98
 487  3879.904
 488  4526.122
 489  4472.458
 490  3374.507
 491  2928.294
 492  3126.62
 493  3195.021
 494  3213.47
 495  3871.757
 496  4893.986
 497  5287.405
 498  5098.362
 499  4457.2
 500  4063.204
 501  3711.145
 502  3818.927
 503  3539.636
 504  3639.351
 505  4068.973
 506  3617.175
 507  3635.673
 508  3701.348
 509  3516.047
 510  3110.172
 511  3345.787
