# Input file       =  1212375269.110713-PSRB0329-2ms-sampling-dd.dat
# Candidate        =  PSR_0332+5434
# Telescope        =  AR
# Epoch_topo       =  58276.121390170287
# Epoch_bary       =  N/A
# T_sample         =  0.002
# Data Folded      =  7208960
# Data Avg         =  -8.29957319474804e-10
# Data StdDev      =  7.53527050434795 
# Profile Bins     =  512
# Profile Avg      =  -0.193294164078351
# Profile StdDev   =  894.12898742723  
# Reduced chi-sqr  =  0.687
# Prob(Noise)      <  1   (~0.0 sigma)
# P_topo (ms)      =  714.510999551993  +/- 3.96e-05
# P'_topo (s/s)    =  -0                +/- 2.12e-11
# P''_topo (s/s^2) =  0                 +/- 9.55e-15
# P_bary (ms)      =  N/A
# P'_bary (s/s)    =  N/A
# P''_bary (s/s^2) =  N/A
# P_orb (s)        =  N/A
# asin(i)/c (s)    =  N/A
# eccentricity     =  N/A
# w (rad)          =  N/A
# T_peri           =  N/A
######################################################
   0  -873.8793
   1  -532.1016
   2  -208.0824
   3  129.9118
   4  103.3345
   5  -640.2729
   6  -985.4116
   7  -754.0383
   8  -656.6768
   9  -573.7598
  10  -376.7158
  11  -670.6533
  12  -922.708
  13  -502.2038
  14  -245.1623
  15  -272.001
  16  -511.6917
  17  -660.317
  18  -724.123
  19  -424.9145
  20  -225.5984
  21  106.9611
  22  -192.0511
  23  -100.4796
  24  -779.8007
  25  -1091.44
  26  -1195.378
  27  -959.8796
  28  538.3227
  29  571.8176
  30  402.8054
  31  97.53832
  32  -537.7327
  33  -653.1533
  34  -744.9562
  35  -175.5692
  36  474.6427
  37  1220.383
  38  613.8287
  39  -60.38136
  40  -411.7857
  41  -696.2974
  42  -556.1105
  43  -424.2249
  44  135.8079
  45  624.4936
  46  578.3853
  47  154.9035
  48  -46.79866
  49  -543.9082
  50  -256.0212
  51  151.3749
  52  190.6122
  53  510.9696
  54  545.7047
  55  976.8616
  56  320.2597
  57  -409.338
  58  -107.8988
  59  -577.9509
  60  321.0366
  61  408.2198
  62  1007.734
  63  709.9438
  64  369.1873
  65  556.4215
  66  236.401
  67  473.5168
  68  85.7697
  69  827.2747
  70  800.5918
  71  826.0406
  72  1041.851
  73  285.6482
  74  -127.2167
  75  77.37507
  76  -90.56302
  77  -122.7508
  78  165.3995
  79  449.625
  80  807.4962
  81  301.334
  82  407.0772
  83  45.24889
  84  74.48019
  85  143.8624
  86  -254.4628
  87  649.9153
  88  293.6685
  89  -748.8929
  90  -352.3048
  91  -394.5105
  92  -186.1128
  93  -108.2001
  94  566.1923
  95  1065.122
  96  479.9676
  97  330.6456
  98  -325.1798
  99  -110.4075
 100  210.8721
 101  151.4153
 102  1094.456
 103  1174.448
 104  1307.387
 105  571.2678
 106  548.6836
 107  -278.2586
 108  -670.4564
 109  -245.7155
 110  254.0049
 111  901.0229
 112  1150.022
 113  816.1542
 114  -29.00717
 115  -410.4377
 116  -504.9084
 117  -433.0771
 118  441.6141
 119  658.3225
 120  1030.938
 121  131.9911
 122  -151.2257
 123  -630.5385
 124  -527.6629
 125  1.076464
 126  -299.6357
 127  209.7359
 128  536.1829
 129  497.1215
 130  -87.45824
 131  -174.1289
 132  -263.1793
 133  -169.31
 134  54.34378
 135  -249.7811
 136  554.0485
 137  528.7163
 138  368.1552
 139  -5.949946
 140  144.018
 141  178.2777
 142  34.23397
 143  622.1525
 144  849.8524
 145  1140.401
 146  824.5849
 147  405.7868
 148  345.2486
 149  153.0759
 150  320.4955
 151  398.1124
 152  816.5778
 153  817.5352
 154  1025.228
 155  483.2349
 156  -81.95979
 157  -484.639
 158  -686.6317
 159  -58.82738
 160  568.5786
 161  1001.208
 162  591.9128
 163  551.8827
 164  443.4014
 165  81.88284
 166  182.8269
 167  64.13879
 168  51.88079
 169  678.0831
 170  961.3742
 171  433.1694
 172  93.62331
 173  188.1399
 174  -246.4934
 175  98.05814
 176  439.7133
 177  637.894
 178  663.0765
 179  186.115
 180  -53.31214
 181  -571.6954
 182  -249.1203
 183  -70.95922
 184  355.8007
 185  913.324
 186  1083.589
 187  874.2154
 188  7.482481
 189  -343.9105
 190  -539.0908
 191  -492.9695
 192  -2.447341
 193  436.9667
 194  607.1224
 195  494.1545
 196  797.4886
 197  -74.67232
 198  -30.49166
 199  -151.3376
 200  187.8716
 201  563.918
 202  1026.608
 203  987.2497
 204  -88.91747
 205  -12.85903
 206  -134.5349
 207  -450.6048
 208  -207.1624
 209  42.19659
 210  725.6988
 211  807.4469
 212  502.5841
 213  141.896
 214  -275.9228
 215  -194.0932
 216  -66.06091
 217  367.3382
 218  111.0188
 219  789.0986
 220  638.8802
 221  672.9174
 222  332.5341
 223  -305.7892
 224  -697.8113
 225  -804.7394
 226  -381.4322
 227  196.5499
 228  935.7198
 229  277.5678
 230  -361.9503
 231  -387.9429
 232  -775.6462
 233  -928.2314
 234  -398.5591
 235  406.6596
 236  231.8352
 237  87.61008
 238  -260.1025
 239  -851.69
 240  -682.6116
 241  -550.7767
 242  -461.274
 243  140.4557
 244  442.0378
 245  77.80104
 246  -203.4747
 247  -182.0343
 248  -734.9641
 249  -119.2685
 250  -763.7531
 251  -268.8278
 252  258.4266
 253  -35.00661
 254  58.38875
 255  -4.49086
 256  -415.3881
 257  -410.1084
 258  -511.9679
 259  -572.1899
 260  -25.40445
 261  24.23763
 262  -35.83159
 263  -192.0325
 264  -645.0576
 265  -861.3821
 266  -750.8242
 267  -192.8822
 268  163.9734
 269  373.7246
 270  -132.6778
 271  -908.3137
 272  -680.2994
 273  -1039.84
 274  -436.594
 275  286.5353
 276  539.937
 277  607.8296
 278  246.5286
 279  -186.3211
 280  -859.3205
 281  -547.1119
 282  -37.19713
 283  -216.5278
 284  -107.7381
 285  434.244
 286  314.6933
 287  -89.92757
 288  281.8846
 289  270.6122
 290  -295.8494
 291  -670.1222
 292  -864.6815
 293  144.2551
 294  203.361
 295  141.6525
 296  -174.8264
 297  -125.0316
 298  -470.3744
 299  -512.3456
 300  193.4944
 301  175.7005
 302  633.0148
 303  269.6957
 304  -353.7944
 305  -425.097
 306  -913.3987
 307  -849.7192
 308  -888.6885
 309  26.69621
 310  330.8559
 311  402.4991
 312  -94.04068
 313  37.56133
 314  169.0967
 315  -666.2598
 316  -95.28993
 317  -38.00288
 318  -4.652482
 319  392.0174
 320  229.3041
 321  77.00313
 322  203.5187
 323  109.6889
 324  -286.4623
 325  134.0591
 326  468.3246
 327  401.9369
 328  50.77853
 329  378.6132
 330  -194.4736
 331  -253.9832
 332  -577.0694
 333  -750.3134
 334  352.2236
 335  238.774
 336  -68.68723
 337  115.465
 338  -172.9843
 339  -233.0318
 340  -911.476
 341  -449.4072
 342  279.5208
 343  396.307
 344  301.6742
 345  -86.1613
 346  -400.3591
 347  -556.3612
 348  -368.3982
 349  -485.513
 350  377.3929
 351  386.3138
 352  83.02745
 353  -136.4072
 354  -923.3189
 355  -466.7656
 356  -651.8976
 357  -569.442
 358  1.64911
 359  591.4184
 360  52.31941
 361  -314.0012
 362  -424.7084
 363  -241.8335
 364  -578.7269
 365  -292.465
 366  306.1393
 367  671.1864
 368  787.0367
 369  756.7924
 370  277.1732
 371  344.5009
 372  246.2929
 373  260.3733
 374  958.9174
 375  1551.687
 376  2361.689
 377  2099.35
 378  1951.622
 379  806.9297
 380  176.8021
 381  -109.8939
 382  -211.0549
 383  544.5633
 384  326.8719
 385  1136.076
 386  -91.11247
 387  -69.58643
 388  74.65076
 389  -141.512
 390  314.3879
 391  22.64628
 392  677.8234
 393  360.6724
 394  74.30563
 395  202.677
 396  -27.21284
 397  61.21497
 398  207.3195
 399  776.1732
 400  472.9622
 401  829.5092
 402  791.841
 403  467.6282
 404  -283.3007
 405  -82.75985
 406  172.7161
 407  -611.468
 408  222.345
 409  244.7527
 410  335.2269
 411  432.2108
 412  132.4533
 413  -304.023
 414  -500.194
 415  -38.34115
 416  -38.82264
 417  862.3259
 418  432.9259
 419  94.12101
 420  -353.1929
 421  -738.7025
 422  -22.79775
 423  -411.7727
 424  -236.6297
 425  275.8601
 426  -21.10885
 427  459.7006
 428  -75.09875
 429  -176.3603
 430  -155.6733
 431  -191.6446
 432  61.86465
 433  435.0962
 434  515.6873
 435  226.1982
 436  247.6562
 437  -133.7869
 438  -477.8695
 439  -318.6561
 440  50.94434
 441  116.0223
 442  -63.35853
 443  -240.0232
 444  -387.2158
 445  -850.1307
 446  -476.7961
 447  -178.2019
 448  -304.5562
 449  -607.3424
 450  -205.0304
 451  -511.7982
 452  -447.1992
 453  -1011.076
 454  -683.9097
 455  -687.2613
 456  -892.9214
 457  -526.3272
 458  -492.2795
 459  -130.3308
 460  -657.2625
 461  -941.2568
 462  -756.0925
 463  -1017.397
 464  -487.3813
 465  -382.5451
 466  375.9422
 467  264.3777
 468  -238.4923
 469  -609.1702
 470  -795.8211
 471  -643.4645
 472  -830.1693
 473  -327.1731
 474  -25.26926
 475  587.4443
 476  571.0948
 477  -29.12427
 478  -458.821
 479  -726.0289
 480  -891.7264
 481  -505.6487
 482  -303.6578
 483  -278.4949
 484  42.10717
 485  -379.7502
 486  -1034.427
 487  -793.1353
 488  -986.4244
 489  -1088.899
 490  -1254.097
 491  -443.7438
 492  -128.5971
 493  -251.7371
 494  -333.545
 495  -841.7167
 496  -792.0892
 497  -758.7154
 498  -348.7017
 499  -420.6777
 500  141.9875
 501  637.2805
 502  -74.10923
 503  -60.81047
 504  -549.3713
 505  -594.9478
 506  -356.0372
 507  477.3961
 508  316.5062
 509  -18.73375
 510  -69.99878
 511  -469.7693
