# Input file       =  1212289145.117255_cleaned.dat
# Candidate        =  PSR_0332+5434
# Telescope        =  AR
# Epoch_topo       =  58275.124584690449
# Epoch_bary       =  N/A
# T_sample         =  0.002
# Data Folded      =  7143424
# Data Avg         =  0.276088662755275
# Data StdDev      =  6.1103901061074  
# Profile Bins     =  512
# Profile Avg      =  3852.04431075564 
# Profile StdDev   =  721.750629965413 
# Reduced chi-sqr  =  1.210
# Prob(Noise)      <  0.000752   (~3.2 sigma)
# P_topo (ms)      =  714.511960393025  +/- 4.66e-05
# P'_topo (s/s)    =  -0                +/- 2.53e-11
# P''_topo (s/s^2) =  0                 +/- 1.15e-14
# P_bary (ms)      =  N/A
# P'_bary (s/s)    =  N/A
# P''_bary (s/s^2) =  N/A
# P_orb (s)        =  N/A
# asin(i)/c (s)    =  N/A
# eccentricity     =  N/A
# w (rad)          =  N/A
# T_peri           =  N/A
######################################################
   0  3832.327
   1  3347.968
   2  3300.729
   3  3420.181
   4  3507.745
   5  3476.164
   6  3346.31
   7  3412.402
   8  3198.184
   9  3177.757
  10  2882.802
  11  3844.116
  12  4354.082
  13  4008.704
  14  3493.782
  15  3003.803
  16  2536.124
  17  2628.209
  18  3048.737
  19  3321.966
  20  3543.038
  21  3358.147
  22  2797.257
  23  3093.557
  24  3262.669
  25  3292.454
  26  2797.676
  27  3384.857
  28  3471.364
  29  3671.916
  30  3719.438
  31  2969.358
  32  2972.526
  33  2780.668
  34  2321.339
  35  2769.505
  36  3203.604
  37  3695.121
  38  3737.647
  39  3067.478
  40  3202.628
  41  3078.458
  42  2776.959
  43  2568.218
  44  3294.462
  45  3709.098
  46  4128.136
  47  3464.375
  48  3539.267
  49  3504.479
  50  2759.44
  51  2292.927
  52  2649.557
  53  3234.064
  54  3365.614
  55  3511.316
  56  3330.198
  57  3477.415
  58  3327.827
  59  3350.889
  60  3012.555
  61  3153.39
  62  4040.551
  63  3796.003
  64  3597.811
  65  3472.465
  66  3637.079
  67  3159.955
  68  3254.165
  69  3621.769
  70  3781.394
  71  3629.804
  72  3250.034
  73  3333.344
  74  3510.105
  75  4048.302
  76  3826.35
  77  3683.984
  78  3630.969
  79  4079.463
  80  3697.574
  81  3281.129
  82  3322.667
  83  3413.52
  84  3336.355
  85  3533.152
  86  3719.44
  87  3879.427
  88  4232.474
  89  3738.52
  90  3669.187
  91  3586.084
  92  3386.555
  93  3368.544
  94  4091.29
  95  4383.446
  96  3893.271
  97  3797.21
  98  3756.04
  99  3596.241
 100  3286.356
 101  3348.668
 102  3847.283
 103  4001.173
 104  4116.927
 105  3697.709
 106  3947.346
 107  3450.862
 108  3568.891
 109  4160.275
 110  3937.448
 111  4449.65
 112  4508.157
 113  4232.997
 114  3410.735
 115  3220.334
 116  3333.785
 117  3055.129
 118  3180.682
 119  3617.422
 120  4193.169
 121  4431.194
 122  4059.468
 123  3499.74
 124  3415.73
 125  3300.212
 126  3521.938
 127  4078.541
 128  4659.817
 129  5236.223
 130  4043.69
 131  4068.154
 132  3892.74
 133  3436.851
 134  2892.383
 135  3577.421
 136  4396.453
 137  4225.883
 138  4053.753
 139  4184.134
 140  4355.69
 141  3825.352
 142  3955.066
 143  4328.944
 144  4502.933
 145  4381.921
 146  4275.139
 147  4024.172
 148  4266.441
 149  3740.41
 150  3103.476
 151  2895.771
 152  3926.898
 153  4275.771
 154  3587.235
 155  3586.362
 156  3511.653
 157  3314.992
 158  3564.861
 159  3948.21
 160  4390.093
 161  5309.662
 162  5178.711
 163  4099.191
 164  3908.376
 165  3932.682
 166  3390.837
 167  3493.958
 168  4325.7
 169  4790.332
 170  4766.949
 171  4133.575
 172  4128.691
 173  4388.505
 174  4065.409
 175  4037.113
 176  3738.532
 177  4537.542
 178  4515.074
 179  4104.544
 180  4312.411
 181  4046.84
 182  3771.823
 183  3614.433
 184  3474.876
 185  3931.715
 186  4213.007
 187  4242.264
 188  4169.351
 189  4153.446
 190  3665.403
 191  3573.824
 192  3610.378
 193  4320.398
 194  4665.206
 195  4641.719
 196  3992.166
 197  3800.445
 198  3977.799
 199  3462.912
 200  3646.712
 201  3643.739
 202  4238.856
 203  4315.505
 204  3581.036
 205  4087.58
 206  4030.594
 207  3955.771
 208  3594.139
 209  3665.443
 210  4471.965
 211  4219.054
 212  4211.22
 213  3946.972
 214  4316.638
 215  3998.663
 216  3318.599
 217  3188.163
 218  3331.523
 219  4070.126
 220  4352.684
 221  4027.603
 222  3703.327
 223  3600.835
 224  3570.63
 225  3450.251
 226  4178.488
 227  4824.719
 228  4697.452
 229  4026.454
 230  3608.977
 231  3724.501
 232  3829.915
 233  3206.57
 234  3501.542
 235  4330.834
 236  4277.708
 237  4032.764
 238  3907.047
 239  4322.017
 240  3690.344
 241  3668.503
 242  4352.534
 243  4452.984
 244  5158.061
 245  4664.503
 246  4148.869
 247  3816.625
 248  3909.361
 249  3870.182
 250  3768.439
 251  3992.882
 252  4329
 253  4382.116
 254  4616.726
 255  4465.011
 256  4569.243
 257  4203.452
 258  4004.215
 259  4300.024
 260  5133.233
 261  4812.902
 262  4449.662
 263  4632.669
 264  4577.917
 265  4052.089
 266  3892.418
 267  4308.741
 268  4702.771
 269  4546.097
 270  4176.445
 271  4088.471
 272  4294.183
 273  3913.485
 274  4239.719
 275  4824.956
 276  5314.741
 277  5327.695
 278  4720.094
 279  4814.727
 280  4063.377
 281  3876.162
 282  3452.332
 283  3676.172
 284  4465.14
 285  4929.781
 286  4853.389
 287  4099.227
 288  4535.497
 289  4577.127
 290  4487.799
 291  4481.57
 292  4303.009
 293  5270.566
 294  4905.147
 295  4803.515
 296  5404.51
 297  5443.068
 298  5449.435
 299  5061.637
 300  5169.905
 301  5136.893
 302  5016.434
 303  4174.118
 304  4089.772
 305  4044.64
 306  4008.811
 307  4034.721
 308  3874.865
 309  4601.463
 310  4885.25
 311  4979.582
 312  4285.582
 313  4096.792
 314  4093.104
 315  4066.154
 316  4059.676
 317  4193.778
 318  4392.289
 319  4085.012
 320  4097.767
 321  4572.265
 322  4425.718
 323  4491.468
 324  4121.284
 325  4259.363
 326  4280.83
 327  4622.782
 328  4420.679
 329  4116.354
 330  4632.566
 331  3965.805
 332  3650.858
 333  3784.636
 334  4249.355
 335  4420.377
 336  4062.473
 337  4125.321
 338  4057.42
 339  4037.19
 340  4191.107
 341  4536.724
 342  5156.946
 343  4981.546
 344  4306.165
 345  3884.391
 346  4362.003
 347  4083.586
 348  3676.805
 349  4157.239
 350  4841.456
 351  4739.93
 352  4542.666
 353  4052.92
 354  3580.152
 355  3850.975
 356  4177.021
 357  4823.088
 358  5194.77
 359  4967.862
 360  5204.535
 361  4032.828
 362  3895.099
 363  3675.627
 364  3882.162
 365  3962.74
 366  3968.979
 367  4763.558
 368  4748.927
 369  4183.336
 370  3872.982
 371  4366.586
 372  3878.622
 373  3651.123
 374  3877.113
 375  4425.196
 376  4419.872
 377  4107.214
 378  3879.101
 379  3757.192
 380  3324.546
 381  2485.566
 382  3048.224
 383  3317.628
 384  3588.294
 385  4234.704
 386  3658.185
 387  3953.838
 388  3837.906
 389  3817.923
 390  3700.831
 391  3672.934
 392  4206.429
 393  3959.519
 394  4104.189
 395  3939.584
 396  4046.139
 397  3565.743
 398  3059.018
 399  3003.312
 400  3580.094
 401  3694.544
 402  3307.784
 403  3622.006
 404  3589.074
 405  3627.744
 406  3636.649
 407  3973.114
 408  4315.562
 409  4444.336
 410  3732.172
 411  3547.834
 412  3710.525
 413  3907.601
 414  3259.215
 415  2995.575
 416  3625.542
 417  3944.583
 418  3721.284
 419  3649.124
 420  3487.221
 421  3667.848
 422  3722.389
 423  3519.99
 424  3952.954
 425  4414.917
 426  4605.271
 427  3853.807
 428  3395.617
 429  3504.08
 430  3475.422
 431  3065.235
 432  3387.959
 433  3966.382
 434  3826.062
 435  3132.098
 436  3046.148
 437  2994.935
 438  3067.073
 439  3116.676
 440  3573.221
 441  4802.288
 442  4740.817
 443  3887.662
 444  3473.828
 445  3323.519
 446  2867.17
 447  3001.833
 448  3451.085
 449  3863.8
 450  3500.848
 451  3404.716
 452  3563.599
 453  3302.561
 454  3260.028
 455  2651.929
 456  3351.998
 457  3555.484
 458  3888.507
 459  4390.672
 460  3488.044
 461  3219.219
 462  3106.394
 463  2967.011
 464  2588.514
 465  2767.278
 466  3293.237
 467  3466.824
 468  3720.175
 469  3002.412
 470  3637.843
 471  3433.222
 472  2889.798
 473  3232.941
 474  3596.01
 475  3758.267
 476  3842.285
 477  3585.718
 478  3715.025
 479  3264.221
 480  2442.499
 481  2357.869
 482  3016.789
 483  3401.44
 484  3273.302
 485  3096.122
 486  3468.693
 487  3259.918
 488  3015.783
 489  3534.413
 490  3826.244
 491  4059.356
 492  4324.714
 493  4089.475
 494  3486.574
 495  3542.438
 496  3115.322
 497  3194.074
 498  3347.512
 499  4050.947
 500  4285.702
 501  3312.948
 502  3375.449
 503  3752.24
 504  4059.292
 505  4077.392
 506  3296.382
 507  3584.7
 508  4158.672
 509  3851.088
 510  3582.615
 511  3685.925
