# Input file       =  1212577115.126887_cleaned.dat
# Candidate        =  PSR_0332+5434
# Telescope        =  AR
# Epoch_topo       =  58278.457570913044
# Epoch_bary       =  N/A
# T_sample         =  0.002
# Data Folded      =  7340032
# Data Avg         =  0.0245447794680995
# Data StdDev      =  0.999999193063907
# Profile Bins     =  512
# Profile Avg      =  351.880383006254 
# Profile StdDev   =  119.732939759858 
# Reduced chi-sqr  =  1.592
# Prob(Noise)      <  3.28e-16   (~8.1 sigma)
# P_topo (ms)      =  714.509100387548  +/- 0.000267
# P'_topo (s/s)    =  -0                +/- 1.41e-10
# P''_topo (s/s^2) =  0                 +/- 6.22e-14
# P_bary (ms)      =  N/A
# P'_bary (s/s)    =  N/A
# P''_bary (s/s^2) =  N/A
# P_orb (s)        =  N/A
# asin(i)/c (s)    =  N/A
# eccentricity     =  N/A
# w (rad)          =  N/A
# T_peri           =  N/A
######################################################
   0  1163.31
   1  1049.642
   2  924.1088
   3  655.215
   4  350.0019
   5  317.0202
   6  324.372
   7  295.6092
   8  385.9087
   9  369.4266
  10  281.4806
  11  304.6393
  12  308.961
  13  307.4457
  14  335.8954
  15  396.4449
  16  321.8386
  17  293.0576
  18  321.5139
  19  360.3091
  20  465.1231
  21  326.7246
  22  342.039
  23  419.994
  24  345.5764
  25  263.4004
  26  358.4797
  27  361.4988
  28  264.9147
  29  249.2415
  30  411.2243
  31  298.0645
  32  257.64
  33  300.9789
  34  243.5309
  35  203.8946
  36  283.7527
  37  381.7952
  38  358.4802
  39  282.3056
  40  316.876
  41  302.3423
  42  321.3882
  43  355.3622
  44  376.597
  45  410.7952
  46  478.8619
  47  366.3938
  48  306.7544
  49  262.394
  50  317.8643
  51  355.1944
  52  292.5102
  53  200.3652
  54  283.72
  55  376.67
  56  333.1776
  57  347.4677
  58  378.9199
  59  387.0669
  60  265.2585
  61  207.5458
  62  326.8904
  63  384.3308
  64  408.3945
  65  387.2178
  66  394.2074
  67  412.47
  68  400.3363
  69  435.347
  70  283.4504
  71  319.923
  72  454.6183
  73  477.9716
  74  398.6956
  75  376.7277
  76  318.9012
  77  421.1055
  78  319.9006
  79  388.0153
  80  471.5011
  81  519.4139
  82  427.7483
  83  370.0227
  84  359.7007
  85  417.0789
  86  445.6253
  87  470.1479
  88  516.0507
  89  386.5197
  90  323.3004
  91  304.5888
  92  278.0011
  93  352.4284
  94  320.1716
  95  299.6795
  96  250.022
  97  313.5677
  98  351.7006
  99  378.2679
 100  302.7819
 101  344.8718
 102  373.1426
 103  311.4774
 104  369.5489
 105  325.124
 106  413.3121
 107  395.2313
 108  339.3021
 109  398.5022
 110  479.5323
 111  397.7119
 112  238.732
 113  385.2154
 114  427.4538
 115  398.3672
 116  387.5636
 117  393.2904
 118  355.7716
 119  333.9186
 120  362.5749
 121  384.8737
 122  265.6933
 123  257.9576
 124  252.0522
 125  361.5066
 126  448.6066
 127  406.1525
 128  358.0338
 129  285.4047
 130  328.3132
 131  347.5239
 132  381.8928
 133  286.2292
 134  402.0565
 135  508.2569
 136  372.4987
 137  341.782
 138  347.7991
 139  262.5028
 140  180.006
 141  238.9898
 142  252.6167
 143  284.5721
 144  297.4207
 145  278.6258
 146  397.0615
 147  508.1949
 148  504.1096
 149  433.0312
 150  375.6756
 151  402.8141
 152  533.754
 153  568.3569
 154  506.851
 155  433.5871
 156  313.4831
 157  361.0157
 158  300.1056
 159  371.4901
 160  495.449
 161  468.9259
 162  443.9454
 163  409.58
 164  442.4317
 165  342.8012
 166  323.3028
 167  421.4003
 168  359.0588
 169  149.8297
 170  217.106
 171  345.7735
 172  381.1299
 173  319.1739
 174  368.3768
 175  379.0151
 176  240.7863
 177  299.077
 178  434.972
 179  458.2809
 180  449.1445
 181  376.0009
 182  349.2862
 183  321.6368
 184  313.3925
 185  364.5711
 186  381.8253
 187  462.2548
 188  367.5407
 189  320.9566
 190  359.3149
 191  439.8405
 192  502.9658
 193  523.4024
 194  368.8362
 195  327.2745
 196  303.2724
 197  335.8361
 198  360.9159
 199  286.1159
 200  338.3448
 201  292.3896
 202  180.4506
 203  170.0561
 204  184.8643
 205  409.1452
 206  371.346
 207  202.0614
 208  205.1325
 209  350.8353
 210  315.834
 211  363.2515
 212  340.7606
 213  330.7676
 214  463.3525
 215  389.7495
 216  274.4256
 217  310.3855
 218  393.3799
 219  360.2441
 220  349.318
 221  254.6472
 222  322.2512
 223  400.503
 224  316.292
 225  299.824
 226  368.5325
 227  438.8199
 228  460.0793
 229  468.8314
 230  389.729
 231  341.5777
 232  400.577
 233  473.3719
 234  391.275
 235  368.3198
 236  400.5343
 237  443.1528
 238  354.625
 239  266.1505
 240  242.6101
 241  313.4391
 242  295.9732
 243  369.3376
 244  305.7577
 245  224.5831
 246  91.88283
 247  237.6024
 248  270.8263
 249  224.7516
 250  278.0028
 251  327.7207
 252  252.6421
 253  320.9176
 254  317.1778
 255  239.2554
 256  173.0358
 257  370.7511
 258  349.7085
 259  298.613
 260  357.0864
 261  417.8872
 262  418.3975
 263  277.103
 264  266.3633
 265  341.2345
 266  262.051
 267  278.8139
 268  470.8309
 269  353.1494
 270  271.0813
 271  355.7243
 272  402.8145
 273  386.7811
 274  541.7592
 275  535.2275
 276  312.3813
 277  312.0116
 278  424.456
 279  413.5597
 280  378.545
 281  414.1524
 282  394.3821
 283  425.5701
 284  388.2571
 285  337.5765
 286  453.2946
 287  413.727
 288  315.6553
 289  445.8365
 290  452.4565
 291  327.4649
 292  347.7222
 293  423.3177
 294  376.983
 295  255.6026
 296  271.6141
 297  317.7624
 298  236.219
 299  252.1347
 300  352.998
 301  404.2554
 302  399.0323
 303  187.6382
 304  202.8451
 305  175.5355
 306  190.7831
 307  205.6167
 308  190.7503
 309  338.8402
 310  362.7376
 311  310.416
 312  235.7718
 313  212.3522
 314  319.0544
 315  374.1944
 316  361.811
 317  463.1145
 318  429.9048
 319  491.8723
 320  439.4312
 321  436.1403
 322  420.988
 323  397.7857
 324  388.0391
 325  379.9798
 326  375.037
 327  414.4192
 328  311.8265
 329  263.7461
 330  354.46
 331  296.8809
 332  238.8877
 333  344.7202
 334  277.2078
 335  249.3242
 336  278.529
 337  331.4407
 338  264.2543
 339  286.3631
 340  385.3091
 341  292.1961
 342  297.4916
 343  295.0269
 344  351.9899
 345  258.7175
 346  254.5486
 347  380.0104
 348  314.1481
 349  310.4738
 350  308.5718
 351  343.2705
 352  330.5468
 353  388.0508
 354  554.6047
 355  350.472
 356  252.572
 357  195.8997
 358  334.9972
 359  269.2342
 360  346.7762
 361  470.225
 362  428.1929
 363  394.3693
 364  373.6608
 365  382.3871
 366  406.4408
 367  280.7728
 368  302.3377
 369  379.9579
 370  497.58
 371  396.5902
 372  453.9568
 373  371.4725
 374  440.663
 375  377.4404
 376  347.3369
 377  266.5782
 378  254.9445
 379  363.404
 380  358.1114
 381  341.8762
 382  470.8592
 383  454.7036
 384  358.655
 385  261.1618
 386  189.2044
 387  229.3369
 388  161.0701
 389  240.742
 390  344.565
 391  364.8641
 392  207.9102
 393  258.8637
 394  286.2969
 395  237.4084
 396  228.2596
 397  301.5641
 398  399.7122
 399  263.5032
 400  173.5548
 401  188.953
 402  167.2581
 403  233.1342
 404  283.7556
 405  338.8776
 406  227.2906
 407  240.3585
 408  191.4996
 409  180.7051
 410  404.5623
 411  421.9139
 412  284.8247
 413  421.1445
 414  298.2883
 415  359.5634
 416  368.7361
 417  416.9974
 418  470.279
 419  485.183
 420  299.958
 421  280.7435
 422  277.4309
 423  227.6359
 424  266.7503
 425  297.3995
 426  402.5807
 427  376.7041
 428  397.493
 429  398.6161
 430  328.2332
 431  350.4711
 432  272.33
 433  200.038
 434  221.2066
 435  321.7574
 436  228.5222
 437  272.18
 438  340.3924
 439  219.0892
 440  208.7125
 441  173.7948
 442  283.4991
 443  251.4059
 444  265.4323
 445  392.9251
 446  295.2086
 447  358.3813
 448  258.5772
 449  286.1472
 450  332.4057
 451  344.5305
 452  357.6753
 453  407.9631
 454  319.2553
 455  317.0995
 456  291.5275
 457  286.3893
 458  289.3603
 459  385.9749
 460  226.7803
 461  192.0956
 462  340.6433
 463  350.2807
 464  288.4204
 465  323.8917
 466  249.7881
 467  226.1315
 468  293.5393
 469  175.9917
 470  132.1511
 471  243.1507
 472  245.3177
 473  316.7992
 474  360.4744
 475  356.8759
 476  241.4474
 477  176.8359
 478  344.5984
 479  364.1074
 480  338.1775
 481  262.0395
 482  359.5527
 483  432.5761
 484  320.5285
 485  415.9388
 486  514.3124
 487  431.8173
 488  441.8299
 489  420.4893
 490  508.3326
 491  598.7047
 492  566.6817
 493  558.2777
 494  575.3569
 495  436.7489
 496  480.903
 497  495.9957
 498  397.2599
 499  388.7004
 500  428.8062
 501  400.5391
 502  407.3429
 503  425.9548
 504  494.2144
 505  489.331
 506  439.5979
 507  495.0573
 508  593.6898
 509  678.559
 510  893.9648
 511  1090.292
