# Input file       =  1212232536.125337_cleaned.dat
# Candidate        =  PSR_0332+5434
# Telescope        =  AR
# Epoch_topo       =  58274.469388024736
# Epoch_bary       =  N/A
# T_sample         =  0.002
# Data Folded      =  7340032
# Data Avg         =  0.0143358462531582
# Data StdDev      =  1.00004049966935 
# Profile Bins     =  512
# Profile Avg      =  205.480096184783 
# Profile StdDev   =  119.73788552515  
# Reduced chi-sqr  =  1.434
# Prob(Noise)      <  3.86e-10   (~6.2 sigma)
# P_topo (ms)      =  714.512939982809  +/- 0.000309
# P'_topo (s/s)    =  -0                +/- 1.63e-10
# P''_topo (s/s^2) =  0                 +/- 7.2e-14
# P_bary (ms)      =  N/A
# P'_bary (s/s)    =  N/A
# P''_bary (s/s^2) =  N/A
# P_orb (s)        =  N/A
# asin(i)/c (s)    =  N/A
# eccentricity     =  N/A
# w (rad)          =  N/A
# T_peri           =  N/A
######################################################
   0  897.063
   1  804.4219
   2  478.3583
   3  292.6237
   4  358.0624
   5  434.7415
   6  101.6045
   7  64.73125
   8  188.9436
   9  268.0775
  10  275.5128
  11  285.8291
  12  263.4813
  13  234.4129
  14  445.1573
  15  403.7292
  16  241.3705
  17  316.2701
  18  233.4791
  19  225.3661
  20  211.8813
  21  269.4561
  22  300.1804
  23  359.7666
  24  280.5238
  25  241.6616
  26  121.1036
  27  304.3781
  28  417.0171
  29  311.8488
  30  362.3029
  31  249.631
  32  348.4539
  33  388.8247
  34  300.3972
  35  235.7916
  36  218.6067
  37  182.8163
  38  371.8647
  39  333.1548
  40  180.1755
  41  161.4938
  42  147.5764
  43  161.0375
  44  187.6824
  45  243.3268
  46  296.7283
  47  261.0886
  48  162.4523
  49  152.5106
  50  39.02763
  51  50.29865
  52  234.6155
  53  202.7802
  54  227.6764
  55  232.6485
  56  302.1759
  57  193.3434
  58  255.8277
  59  104.1089
  60  204.679
  61  269.9692
  62  221.7533
  63  208.7054
  64  234.4606
  65  61.90185
  66  112.8147
  67  12.70345
  68  42.82375
  69  145.4385
  70  230.8319
  71  311.052
  72  223.441
  73  196.5546
  74  258.9878
  75  347.4702
  76  334.1399
  77  287.9219
  78  337.2515
  79  253.9489
  80  282.4211
  81  235.1544
  82  125.6651
  83  107.1762
  84  171.2252
  85  224.8179
  86  218.4188
  87  118.1868
  88  205.0863
  89  124.5488
  90  61.20559
  91  99.03924
  92  136.295
  93  213.3783
  94  173.7139
  95  226.8635
  96  214.9841
  97  127.5406
  98  218.096
  99  305.1209
 100  269.3928
 101  102.81
 102  55.79473
 103  134.9611
 104  145.1968
 105  83.3634
 106  152.2876
 107  103.3105
 108  140.8237
 109  220.3019
 110  166.6124
 111  156.874
 112  92.73442
 113  164.9424
 114  129.3311
 115  91.19723
 116  148.0921
 117  182.0872
 118  250.7383
 119  175.4922
 120  141.402
 121  203.5771
 122  183.6101
 123  212.2639
 124  117.9035
 125  128.2761
 126  204.0135
 127  91.7896
 128  -22.04689
 129  169.8749
 130  205.2322
 131  182.8121
 132  143.5982
 133  80.58925
 134  96.2737
 135  187.5717
 136  194.1823
 137  95.01909
 138  66.4506
 139  68.07366
 140  142.5771
 141  157.1287
 142  151.5006
 143  111.3514
 144  152.0773
 145  289.3769
 146  316.5447
 147  205.8798
 148  0.1002068
 149  255.3534
 150  222.0019
 151  195.4416
 152  96.08639
 153  126.0291
 154  249.1068
 155  219.7894
 156  214.2283
 157  132.4636
 158  96.99903
 159  215.4893
 160  288.9865
 161  123.7438
 162  239.1494
 163  121.2637
 164  39.91712
 165  251.5762
 166  293.9236
 167  223.6948
 168  195.3032
 169  363.7241
 170  442.0419
 171  227.3142
 172  202.3388
 173  209.5775
 174  185.516
 175  188.2157
 176  138.4259
 177  295.7863
 178  291.127
 179  202.2012
 180  169.1391
 181  169.3064
 182  189.3457
 183  258.3687
 184  200.5624
 185  285.2878
 186  172.2871
 187  175.2953
 188  195.827
 189  328.3056
 190  303.5447
 191  275.4181
 192  259.2337
 193  326.8708
 194  279.2405
 195  310.9207
 196  186.1162
 197  311.665
 198  368.5125
 199  209.9425
 200  214.0215
 201  145.3583
 202  262.6659
 203  337.7117
 204  401.2059
 205  160.1663
 206  176.7973
 207  156.4248
 208  235.3093
 209  172.3021
 210  170.5602
 211  108.3973
 212  241.8367
 213  237.0408
 214  265.5809
 215  314.2967
 216  274.2131
 217  179.7225
 218  267.1299
 219  293.7399
 220  345.5404
 221  214.3396
 222  191.4962
 223  221.3929
 224  285.5409
 225  196.8718
 226  112.0805
 227  254.8581
 228  234.767
 229  243.9419
 230  195.5125
 231  204.6696
 232  231.419
 233  124.1215
 234  79.48536
 235  154.4008
 236  284.5312
 237  291.9269
 238  260.7256
 239  362.0849
 240  475.9487
 241  450.9175
 242  321.3033
 243  284.8411
 244  400.3571
 245  433.335
 246  234.5355
 247  174.4501
 248  318.1558
 249  288.8012
 250  240.2391
 251  154.8272
 252  162.218
 253  307.9074
 254  286.6799
 255  323.8241
 256  277.5937
 257  158.5205
 258  274.3168
 259  177.9475
 260  183.4442
 261  204.6278
 262  90.34049
 263  171.6424
 264  179.8245
 265  263.1817
 266  137.587
 267  128.1376
 268  108.9243
 269  112.6707
 270  138.7549
 271  165.9596
 272  305.7079
 273  184.4083
 274  213.9107
 275  208.1108
 276  164.7295
 277  153.6648
 278  189.7267
 279  165.1481
 280  133.3308
 281  207.0273
 282  159.3605
 283  168.025
 284  236.6799
 285  112.7634
 286  93.30438
 287  101.1265
 288  148.2311
 289  148.576
 290  177.9825
 291  160.1511
 292  156.8751
 293  71.87245
 294  191.6548
 295  314.3534
 296  318.5928
 297  304.0076
 298  225.103
 299  146.8564
 300  287.248
 301  291.9138
 302  342.7841
 303  148.6235
 304  56.54499
 305  185.6218
 306  69.28361
 307  233.9137
 308  359.5318
 309  235.046
 310  326.2197
 311  296.1042
 312  172.0146
 313  254.6225
 314  251.3185
 315  235.9639
 316  304.4019
 317  268.3635
 318  166.1427
 319  160.8576
 320  191.8325
 321  200.8764
 322  124.2935
 323  73.56673
 324  179.0875
 325  180.1881
 326  186.5825
 327  286.815
 328  310.2137
 329  207.4642
 330  232.1448
 331  186.1107
 332  204.9822
 333  192.5565
 334  257.1555
 335  333.9597
 336  154.5167
 337  236.9355
 338  150.7617
 339  240.9488
 340  254.1667
 341  186.1971
 342  219.3318
 343  22.24171
 344  105.8281
 345  241.0747
 346  242.6281
 347  192.9352
 348  303.7368
 349  227.9438
 350  146.7088
 351  67.651
 352  219.3872
 353  328.289
 354  261.8953
 355  207.0355
 356  303.6852
 357  227.9354
 358  184.5247
 359  168.4297
 360  85.19965
 361  215.2151
 362  218.1413
 363  253.1717
 364  215.7726
 365  137.1665
 366  3.479688
 367  -20.28081
 368  46.64252
 369  53.00113
 370  171.4564
 371  161.3066
 372  186.8345
 373  233.9182
 374  227.6705
 375  133.9573
 376  73.06995
 377  202.2616
 378  215.6128
 379  40.39857
 380  68.09848
 381  117.8838
 382  127.6758
 383  209.4482
 384  109.5883
 385  118.6423
 386  286.1911
 387  273.3336
 388  143.8417
 389  24.97044
 390  -23.37506
 391  -14.8427
 392  72.00867
 393  162.9601
 394  74.45364
 395  152.0811
 396  75.44331
 397  120.2943
 398  56.32746
 399  66.19247
 400  21.92174
 401  141.6511
 402  190.7055
 403  141.6933
 404  111.218
 405  78.57307
 406  67.08557
 407  78.63623
 408  116.7764
 409  124.5087
 410  203.306
 411  271.8984
 412  64.01942
 413  115.746
 414  227.6252
 415  136.3707
 416  82.35205
 417  99.74773
 418  152.3999
 419  157.1763
 420  106.9883
 421  169.2315
 422  160.4421
 423  82.95988
 424  220.0155
 425  211.0216
 426  203.9685
 427  125.0478
 428  121.3376
 429  134.329
 430  173.0492
 431  295.2922
 432  166.7193
 433  37.90297
 434  168.5947
 435  195.1399
 436  175.05
 437  169.5762
 438  287.2628
 439  276.5586
 440  233.2145
 441  201.0188
 442  62.01829
 443  112.8404
 444  296.8603
 445  156.9314
 446  -32.41674
 447  102.0378
 448  151.6492
 449  253.8162
 450  168.9898
 451  206.0082
 452  246.8142
 453  205.1828
 454  186.5795
 455  248.5574
 456  294.5577
 457  166.3445
 458  238.4884
 459  282.4879
 460  365.6781
 461  351.8101
 462  167.549
 463  148.0739
 464  165.0515
 465  294.2323
 466  272.2969
 467  240.4914
 468  106.2821
 469  122.3078
 470  218.503
 471  238.9658
 472  174.6218
 473  81.83199
 474  106.1315
 475  169.1905
 476  150.721
 477  270.0763
 478  119.5306
 479  148.4125
 480  216.57
 481  66.65222
 482  156.9551
 483  109.7708
 484  220.3989
 485  201.5727
 486  276.2107
 487  193.44
 488  129.6657
 489  214.3959
 490  208.381
 491  214.9876
 492  319.5362
 493  267.5282
 494  171.3637
 495  136.142
 496  197.0146
 497  230.1157
 498  279.5456
 499  199.4936
 500  162.7553
 501  253.4478
 502  255.9512
 503  150.8194
 504  261.4068
 505  320.9539
 506  324.7127
 507  283.5316
 508  329.9644
 509  554.959
 510  736.2496
 511  871.433
