# Input file       =  1212461417.113944_cleaned.dat
# Candidate        =  PSR_0332+5434
# Telescope        =  AR
# Epoch_topo       =  58277.118473541021
# Epoch_bary       =  N/A
# T_sample         =  0.002
# Data Folded      =  7143424
# Data Avg         =  0.265370412754245
# Data StdDev      =  5.77458980891046 
# Profile Bins     =  512
# Profile Avg      =  3702.42879200827 
# Profile StdDev   =  682.086374191919 
# Reduced chi-sqr  =  0.712
# Prob(Noise)      <  1   (~0.0 sigma)
# P_topo (ms)      =  714.510040588034  +/- 4.89e-05
# P'_topo (s/s)    =  -0                +/- 2.65e-11
# P''_topo (s/s^2) =  0                 +/- 1.2e-14
# P_bary (ms)      =  N/A
# P'_bary (s/s)    =  N/A
# P''_bary (s/s^2) =  N/A
# P_orb (s)        =  N/A
# asin(i)/c (s)    =  N/A
# eccentricity     =  N/A
# w (rad)          =  N/A
# T_peri           =  N/A
######################################################
   0  4185.721
   1  3764.5
   2  3324.458
   3  3322.448
   4  3334.584
   5  3941.077
   6  3837.879
   7  3847.698
   8  4051.44
   9  3818.336
  10  4047.04
  11  3352.082
  12  3156.336
  13  3375.515
  14  3888.517
  15  4349.119
  16  3737.441
  17  3972.478
  18  3958.005
  19  3938.844
  20  3240.001
  21  3681.586
  22  4073.807
  23  3936.929
  24  3641.535
  25  3771.42
  26  3958.625
  27  3961.376
  28  3768.95
  29  3040.73
  30  3507.823
  31  3372.888
  32  3033.591
  33  3700.646
  34  4029.01
  35  3688.419
  36  2905.22
  37  3329.39
  38  3760.646
  39  3744.488
  40  3607.953
  41  3739.58
  42  4011.441
  43  3347.673
  44  3157.476
  45  3543.235
  46  4093.51
  47  4173.012
  48  3699.646
  49  3680.584
  50  3592.16
  51  3540.522
  52  3598.816
  53  3256.837
  54  4033.204
  55  3986.886
  56  4204.936
  57  4524.594
  58  3943.244
  59  3808.757
  60  3713.735
  61  3421.693
  62  3787.323
  63  3771.126
  64  3713.335
  65  3755.986
  66  3692.621
  67  3893.338
  68  3524.779
  69  3332.752
  70  3658.968
  71  3822.972
  72  4135.706
  73  3968.942
  74  4007.862
  75  3911.712
  76  3645.955
  77  3395.902
  78  3266.709
  79  4054.655
  80  4010.221
  81  3861.433
  82  3847.815
  83  3761.753
  84  3284.958
  85  2954.064
  86  3202.507
  87  3575.471
  88  4124.848
  89  3982.243
  90  3931.369
  91  4220.337
  92  3761.176
  93  3400.222
  94  2832.485
  95  3043.166
  96  3459.191
  97  3988.297
  98  4202
  99  4155.954
 100  3910.105
 101  3559.393
 102  3359.695
 103  2900.955
 104  3548.959
 105  3754.007
 106  3658.617
 107  3856.751
 108  3576.534
 109  3240.8
 110  3151.088
 111  3473.554
 112  3204.991
 113  3566.669
 114  3916.516
 115  3624.356
 116  4005.797
 117  3608.669
 118  3236.886
 119  2929.664
 120  3545.908
 121  3631.982
 122  3631.911
 123  3751.37
 124  3394.957
 125  3340.617
 126  3174.688
 127  2932.578
 128  3534.193
 129  3567.335
 130  3459.106
 131  3543.992
 132  3929.229
 133  4027.735
 134  3799.156
 135  3283.059
 136  2997.646
 137  2987.372
 138  3383.002
 139  3769.392
 140  3627.743
 141  3920.761
 142  3464.225
 143  3163.22
 144  3390.564
 145  4119.468
 146  4115.141
 147  3643.549
 148  3756.133
 149  3620.124
 150  3494.301
 151  3043.068
 152  3239.23
 153  4508.21
 154  4231.903
 155  4494.869
 156  4327.932
 157  4120.572
 158  3768.487
 159  3610.724
 160  3263.715
 161  3481.583
 162  4402.195
 163  4081.695
 164  3816.879
 165  4194.899
 166  3756.927
 167  3513.085
 168  3154.242
 169  3273.836
 170  3841.318
 171  3807.288
 172  3940.813
 173  3952.885
 174  3962.052
 175  3750.165
 176  3828.156
 177  3738.861
 178  3701.422
 179  3796.079
 180  3937.207
 181  3952.979
 182  4286.097
 183  4085.816
 184  3530.346
 185  3662.455
 186  3616.515
 187  3974.274
 188  4162.325
 189  4381.471
 190  4199.971
 191  3775.542
 192  3480.761
 193  2984.661
 194  3341.317
 195  3834.326
 196  3881.683
 197  3951.163
 198  4039.643
 199  3764.395
 200  3509.733
 201  2988.919
 202  3072.64
 203  2959.536
 204  3322.328
 205  3749.964
 206  3866.138
 207  3963.692
 208  3951.291
 209  3412.042
 210  3918.082
 211  3726.049
 212  3387.518
 213  3402.699
 214  3748.145
 215  4090.534
 216  3529.574
 217  3762.092
 218  3811.144
 219  3909.033
 220  3642.207
 221  3441.15
 222  3633.934
 223  3361.696
 224  3581.836
 225  2854.747
 226  2828.003
 227  3451.77
 228  3803.45
 229  4075.254
 230  3950.844
 231  3684.657
 232  3546.982
 233  3053.319
 234  2743.198
 235  3168.201
 236  4101.736
 237  4311.548
 238  3670.893
 239  3679.033
 240  3655.403
 241  3120.459
 242  3180.934
 243  2999.976
 244  3730.779
 245  3812.193
 246  3829.765
 247  3838.143
 248  3769.642
 249  3797.727
 250  3325.938
 251  3249.434
 252  3295.336
 253  3393.745
 254  3444.547
 255  3638.326
 256  4029.018
 257  3688.584
 258  3305.859
 259  2998.104
 260  3043.961
 261  3721.703
 262  4105.49
 263  4128.106
 264  4464.157
 265  4080.717
 266  3546.396
 267  3331.954
 268  3515.97
 269  3593.409
 270  3741.199
 271  3778.934
 272  3936.764
 273  4165.049
 274  4022.053
 275  3459.393
 276  2962.565
 277  3433.983
 278  3803.085
 279  4069.236
 280  3998.851
 281  4267.675
 282  4358.656
 283  3640.615
 284  3548.789
 285  3615.104
 286  3828.448
 287  3373.125
 288  3860.984
 289  4538.774
 290  4076.109
 291  4202.139
 292  3494.835
 293  3984.805
 294  4446.603
 295  4662.378
 296  4994.505
 297  5717.328
 298  5984.565
 299  5602.947
 300  5377.193
 301  4427.635
 302  4271.628
 303  4526.084
 304  4097.081
 305  3847.471
 306  3789.3
 307  3834.158
 308  3245.844
 309  3226.292
 310  4092.819
 311  4674.207
 312  4534.954
 313  4365.192
 314  4391.267
 315  3806.808
 316  3454.589
 317  2836.764
 318  3641.925
 319  3864.28
 320  3726.195
 321  3939.81
 322  3722.518
 323  4264.786
 324  3302.135
 325  3004.488
 326  3229.439
 327  3734.077
 328  4065.585
 329  3658.523
 330  4417.678
 331  3880.114
 332  3126.969
 333  2871.663
 334  3422.023
 335  4326.809
 336  4016.858
 337  4193.322
 338  3848.746
 339  4160.208
 340  3662.141
 341  3124.953
 342  2789.516
 343  3408.375
 344  3889.14
 345  4166.565
 346  4286.578
 347  4197.97
 348  3654.097
 349  3213.902
 350  3216.973
 351  3311.115
 352  3640.904
 353  4126.44
 354  3924.294
 355  4096.157
 356  4213.209
 357  3803.432
 358  3647.552
 359  3182.308
 360  3316.379
 361  3256.862
 362  3487.016
 363  4019.174
 364  4018.757
 365  4100.195
 366  3329.798
 367  3605.854
 368  3680.546
 369  3792.524
 370  3721.589
 371  3900.234
 372  4392.973
 373  3580.367
 374  3662.995
 375  3430.682
 376  3744.901
 377  3759.663
 378  3540.099
 379  3743.575
 380  3953.691
 381  3903.06
 382  3707.512
 383  3508.146
 384  3779.452
 385  3524.284
 386  4025.599
 387  4316.143
 388  4072.391
 389  4222.153
 390  4000.585
 391  3671.025
 392  3659.263
 393  3511.214
 394  3701.295
 395  3950.575
 396  3873.163
 397  3927.344
 398  3521.099
 399  3713.269
 400  3307.918
 401  3500.664
 402  3928.247
 403  3329.289
 404  4323.962
 405  4250.275
 406  4153.976
 407  3842.246
 408  3402.789
 409  3818.825
 410  3847.245
 411  4005.218
 412  3803.853
 413  3638.197
 414  3952.63
 415  3265.129
 416  3118.853
 417  3613.705
 418  4132.461
 419  3894.431
 420  3620.906
 421  3875.762
 422  3504.109
 423  3607.842
 424  3152.062
 425  3158.72
 426  3339.74
 427  3736.346
 428  3593.399
 429  4119.174
 430  4048.175
 431  3380.553
 432  3463.344
 433  3316.21
 434  3543.633
 435  3581.465
 436  3999.384
 437  3906.906
 438  4238.179
 439  4129.015
 440  3148.94
 441  3167.188
 442  3354.35
 443  3312.784
 444  3484.996
 445  3755.227
 446  4056.168
 447  3537.119
 448  3109.784
 449  2938.878
 450  2768.007
 451  3814.886
 452  3929.385
 453  3651.201
 454  3963.09
 455  4030.177
 456  3746.731
 457  3381.104
 458  3405.741
 459  3098.312
 460  3154.774
 461  2907.749
 462  3583.458
 463  4160.312
 464  4157.842
 465  3397.189
 466  3333.945
 467  3248.453
 468  2863.909
 469  3146.136
 470  3555.422
 471  3542.3
 472  3172.814
 473  3677.78
 474  3031.803
 475  3918.046
 476  4138.947
 477  3688.019
 478  3733.257
 479  3456.075
 480  3547.049
 481  3298.376
 482  3336.965
 483  3319.598
 484  3959.941
 485  4087.045
 486  3637.982
 487  4036.548
 488  3844.776
 489  3103.96
 490  2945.649
 491  3491.092
 492  3866.988
 493  3765.538
 494  3715.773
 495  3959.123
 496  3844.63
 497  3514.24
 498  3225.439
 499  3713.326
 500  3803.481
 501  3814.434
 502  3875.013
 503  3880.766
 504  3679.992
 505  3383.291
 506  3335.175
 507  3147.66
 508  3151.411
 509  3812.887
 510  3917.232
 511  3890.9
