# Input file       =  1212633698.108952_cleaned.dat
# Candidate        =  PSR_0332+5434
# Telescope        =  AR
# Epoch_topo       =  58279.112466538798
# Epoch_bary       =  N/A
# T_sample         =  0.002
# Data Folded      =  7208960
# Data Avg         =  0.280264260046269
# Data StdDev      =  5.71458911516047 
# Profile Bins     =  512
# Profile Avg      =  3946.14940154952 
# Profile StdDev   =  678.088434403623 
# Reduced chi-sqr  =  0.513
# Prob(Noise)      <  1   (~0.0 sigma)
# P_topo (ms)      =  714.508130573414  +/- 7.12e-05
# P'_topo (s/s)    =  -0                +/- 3.83e-11
# P''_topo (s/s^2) =  0                 +/- 1.72e-14
# P_bary (ms)      =  N/A
# P'_bary (s/s)    =  N/A
# P''_bary (s/s^2) =  N/A
# P_orb (s)        =  N/A
# asin(i)/c (s)    =  N/A
# eccentricity     =  N/A
# w (rad)          =  N/A
# T_peri           =  N/A
######################################################
   0  4216.717
   1  4276.012
   2  3777.869
   3  3688.979
   4  3501.098
   5  3520.754
   6  3654.162
   7  4010.129
   8  3898.104
   9  3984.148
  10  3754.336
  11  3535.112
  12  4279.121
  13  4234.009
  14  4115.438
  15  3972.96
  16  4259.59
  17  4017.826
  18  4077.218
  19  4217.969
  20  3828.416
  21  3984.211
  22  4177.472
  23  4456.312
  24  4153.747
  25  3994.968
  26  3967.264
  27  3476.383
  28  3570.337
  29  3935.509
  30  4427.216
  31  4545.558
  32  4162.992
  33  4292.699
  34  4419.89
  35  4289.862
  36  3718.606
  37  3749.401
  38  3517.826
  39  3767.397
  40  3879.328
  41  3941.606
  42  4305.115
  43  3757.266
  44  3941.504
  45  3974.8
  46  3994.907
  47  4083.687
  48  3755.674
  49  4221.555
  50  4393.305
  51  4230.453
  52  3571.68
  53  3866.455
  54  3664.163
  55  4035.726
  56  3827.86
  57  3651.062
  58  3891.062
  59  3991.583
  60  4100.917
  61  3968.503
  62  3956.693
  63  4157.094
  64  3951.094
  65  3948.766
  66  4152.642
  67  4101.405
  68  4018.205
  69  3805.049
  70  3726.036
  71  3652.429
  72  3757.252
  73  3520.853
  74  4106.08
  75  3792.208
  76  3756.818
  77  3897.182
  78  4253.497
  79  4465.849
  80  3872.915
  81  4025.102
  82  3695.254
  83  4087.952
  84  3977.097
  85  4019.151
  86  4064.984
  87  3895.094
  88  3949.435
  89  3617.519
  90  4107.824
  91  3822.238
  92  3727.259
  93  3930.488
  94  3737.356
  95  4077.848
  96  4162.381
  97  4541.475
  98  4332.67
  99  4042.185
 100  3855.038
 101  3769.936
 102  3870.546
 103  3708.833
 104  4112.843
 105  3921.961
 106  3764.027
 107  3945.165
 108  4580.017
 109  4279.126
 110  3642.501
 111  4224.129
 112  3544.812
 113  3745.429
 114  4067.957
 115  4180.435
 116  4472.941
 117  4362.768
 118  4297.66
 119  3989.51
 120  4137.674
 121  3677.287
 122  3764.387
 123  3645.384
 124  3318.899
 125  4012.572
 126  3932.618
 127  4039.453
 128  4321.971
 129  4469.629
 130  4228.072
 131  4007.026
 132  4314.899
 133  4336.983
 134  4069.344
 135  3686.552
 136  3825.36
 137  3543.116
 138  3596.262
 139  3758.411
 140  3670.253
 141  4080.854
 142  4016.012
 143  4082.527
 144  4160.741
 145  4056.867
 146  3967.427
 147  3479.055
 148  3839.363
 149  4399.096
 150  4168.243
 151  3553.191
 152  3845.031
 153  3880.132
 154  3854.05
 155  3568.794
 156  3073.704
 157  3597.388
 158  3511.022
 159  3578.866
 160  3886.794
 161  4259.525
 162  5251.066
 163  4446.787
 164  4209.832
 165  3929.557
 166  4055.211
 167  3685.548
 168  3519.394
 169  3431.946
 170  3869.44
 171  4099.057
 172  3804.966
 173  4230.452
 174  3852.038
 175  3708.048
 176  3463.15
 177  3280.818
 178  4159.517
 179  4553.532
 180  4777.516
 181  4248.447
 182  4315.496
 183  4048.543
 184  3930.182
 185  4109.447
 186  3632.499
 187  3665.547
 188  3549.744
 189  3835.569
 190  3779.095
 191  4234.146
 192  4007.787
 193  3667.32
 194  4109.716
 195  3732.404
 196  4154.364
 197  3980.749
 198  4128.314
 199  4351.8
 200  4367.063
 201  3996.649
 202  3573.574
 203  3865.724
 204  3516.87
 205  3733.917
 206  4037.797
 207  3923.984
 208  3622.697
 209  3430.953
 210  3629.716
 211  4147.865
 212  4519.838
 213  4275.887
 214  4247.921
 215  4780.883
 216  4484.774
 217  3783.755
 218  3713.124
 219  3562.345
 220  3154.132
 221  3300.641
 222  3462.224
 223  3068.706
 224  3931.266
 225  4094.085
 226  4070.471
 227  4207.293
 228  3827.718
 229  3745.994
 230  3576.917
 231  3570.819
 232  3527.603
 233  3899.743
 234  3665.377
 235  4054.086
 236  4170.194
 237  4089.71
 238  3885.446
 239  3561.847
 240  3715.401
 241  3218.167
 242  3699.719
 243  3969.753
 244  3983.472
 245  4262.099
 246  4133.264
 247  4147.978
 248  4186.404
 249  3798.459
 250  3217.082
 251  3248.242
 252  3247.625
 253  3263.588
 254  4110.128
 255  3965.455
 256  3869.396
 257  4022.828
 258  4197.762
 259  3999.477
 260  3564.154
 261  4225.388
 262  4203.661
 263  4360.734
 264  4414.776
 265  4200.055
 266  4094.298
 267  3744.741
 268  3880.714
 269  3830.639
 270  4008.787
 271  3974.287
 272  4445.083
 273  4314.391
 274  3916.506
 275  3927.139
 276  3332.815
 277  3850.502
 278  3959.185
 279  4128.439
 280  4260.192
 281  3991.788
 282  3966.499
 283  3810.865
 284  3609.904
 285  3658.706
 286  4074.006
 287  3872.623
 288  4000.308
 289  4096.411
 290  4090.192
 291  4090.907
 292  3443.698
 293  3548.542
 294  3671.768
 295  4007.366
 296  4160.71
 297  3966.912
 298  4543.271
 299  4198.623
 300  3819.261
 301  3679.803
 302  3930.375
 303  3652.851
 304  3843.634
 305  3959.298
 306  3455.385
 307  4055.684
 308  3842.226
 309  3994.596
 310  3938.858
 311  4039.912
 312  3909.004
 313  3952.767
 314  3860.132
 315  3715.648
 316  3898.274
 317  3146.05
 318  3595.643
 319  4127.661
 320  4022.066
 321  3720.711
 322  3580.898
 323  4083.917
 324  3945.219
 325  4142.636
 326  4664.118
 327  4438.765
 328  5188.746
 329  5350.271
 330  5950.908
 331  5931.326
 332  5354.89
 333  4416.796
 334  3571.26
 335  3561.598
 336  3337.548
 337  3966.543
 338  3628.154
 339  3944.255
 340  3798.828
 341  3745.201
 342  4158.684
 343  4191.55
 344  4880.987
 345  4388.982
 346  4649.718
 347  4299.999
 348  4033.328
 349  3526.109
 350  3584.755
 351  3766.109
 352  3928.611
 353  4377.358
 354  4404.883
 355  4346.662
 356  3859.535
 357  3575.079
 358  3754.382
 359  3524.604
 360  4091.445
 361  4486.219
 362  4186.632
 363  4075.636
 364  3898.031
 365  4004.087
 366  3821.712
 367  3463.705
 368  3533.842
 369  3713.918
 370  3606.947
 371  3649.543
 372  4270.876
 373  4441.264
 374  4304.807
 375  3491.025
 376  3908.326
 377  3458.596
 378  3778.087
 379  4164.715
 380  4339.962
 381  4496.206
 382  4014.671
 383  3734.144
 384  3485.633
 385  3831.075
 386  3597.482
 387  3810.414
 388  3715.906
 389  3524.851
 390  3844.748
 391  3906.795
 392  3789.298
 393  4198.036
 394  4001.122
 395  4032.93
 396  4073.898
 397  3596.886
 398  3341.522
 399  3442.458
 400  3527.774
 401  3431.733
 402  3720.43
 403  3869.974
 404  4001.127
 405  3721.379
 406  3939.942
 407  3549.164
 408  3987.298
 409  3978.573
 410  3950.816
 411  4286.367
 412  3804.821
 413  4105.705
 414  4229.8
 415  4110.849
 416  3453.687
 417  3690.423
 418  4122.984
 419  3712.141
 420  4333.414
 421  3400.788
 422  3550.16
 423  3452.71
 424  3328.373
 425  3844.303
 426  4432.004
 427  4711.851
 428  4247.383
 429  4619.408
 430  4172.569
 431  3820.085
 432  3472.958
 433  3340.903
 434  3563.878
 435  3758.145
 436  4218.345
 437  3873.589
 438  4557.339
 439  4331.951
 440  3759.162
 441  3876.88
 442  3687.246
 443  4104.809
 444  3987.032
 445  3930.467
 446  3938.766
 447  4199.301
 448  4162.665
 449  3921.824
 450  3901.451
 451  3680.642
 452  4116.501
 453  3786.049
 454  3929.94
 455  4100.935
 456  3804.879
 457  4077.896
 458  4337.638
 459  4333.307
 460  4120.62
 461  3908.878
 462  4024.336
 463  4060.496
 464  3888.346
 465  3942.362
 466  3766.804
 467  3443.925
 468  3456.659
 469  3741.702
 470  4167.67
 471  3789.925
 472  3569.028
 473  4133.482
 474  3729.448
 475  3866.334
 476  4260.117
 477  3726.497
 478  4265.216
 479  4308.51
 480  4600.503
 481  4068.558
 482  3902.749
 483  3875.984
 484  3762.515
 485  3785.694
 486  3368.188
 487  3612.484
 488  3434.164
 489  3846.697
 490  3908.193
 491  4106.755
 492  4462.002
 493  3875.888
 494  4138.59
 495  4248.348
 496  4256.179
 497  4001.44
 498  3798.046
 499  3496.969
 500  3764.905
 501  3970.211
 502  3754.26
 503  3810.436
 504  3644.011
 505  3663.546
 506  3453.781
 507  3560.019
 508  3905.918
 509  4210.027
 510  4439.755
 511  4212.067
