# Input file       =  1212045231.112183_cleaned.dat
# Candidate        =  PSR_0332+5434
# Telescope        =  AR
# Epoch_topo       =  58272.301505928044
# Epoch_bary       =  N/A
# T_sample         =  0.002
# Data Folded      =  7340032
# Data Avg         =  -0.481006922878026
# Data StdDev      =  4.57515039360848 
# Profile Bins     =  256
# Profile Avg      =  -13791.557040455 
# Profile StdDev   =  774.701449741267 
# Reduced chi-sqr  =  1.052
# Prob(Noise)      <  0.272   (~0.6 sigma)
# P_topo (ms)      =  714.514704976397  +/- 0.00122
# P'_topo (s/s)    =  -0                +/- 6.44e-10
# P''_topo (s/s^2) =  0                 +/- 2.84e-13
# P_bary (ms)      =  N/A
# P'_bary (s/s)    =  N/A
# P''_bary (s/s^2) =  N/A
# P_orb (s)        =  N/A
# asin(i)/c (s)    =  N/A
# eccentricity     =  N/A
# w (rad)          =  N/A
# T_peri           =  N/A
######################################################
   0  -14631.03
   1  -13547.72
   2  -13819.57
   3  -14097.6
   4  -13667.09
   5  -14339.58
   6  -14092.58
   7  -13710.64
   8  -14239.28
   9  -13945.2
  10  -13846.81
  11  -14218.47
  12  -13790.57
  13  -13268.81
  14  -13529.57
  15  -13982.96
  16  -13793.1
  17  -14357.47
  18  -13830.21
  19  -14016.88
  20  -13675.09
  21  -13199.22
  22  -13009.35
  23  -12887.01
  24  -12819.73
  25  -13558.1
  26  -13482.47
  27  -13548.93
  28  -13398.57
  29  -12698.27
  30  -12824.56
  31  -13325.35
  32  -13387.97
  33  -13906.01
  34  -14167.43
  35  -13021.1
  36  -13195.31
  37  -13790.01
  38  -14366.37
  39  -14175.7
  40  -13780.19
  41  -13724.99
  42  -13720.45
  43  -13711.22
  44  -13145.97
  45  -13393.9
  46  -13539.62
  47  -13939.45
  48  -14218.65
  49  -14546.38
  50  -14041.38
  51  -15195.84
  52  -14395.21
  53  -14486.51
  54  -14850.75
  55  -14543.21
  56  -14448.04
  57  -13807
  58  -13905.16
  59  -14714.26
  60  -14187.84
  61  -13591.83
  62  -14226.12
  63  -14548.86
  64  -14542.66
  65  -14243.08
  66  -13657.46
  67  -14110.12
  68  -13978.45
  69  -13443.75
  70  -14556.26
  71  -14601.66
  72  -14904.53
  73  -14698.24
  74  -14905.55
  75  -14738.23
  76  -14706.06
  77  -13991.25
  78  -14036.61
  79  -14697.71
  80  -14585.62
  81  -14194.76
  82  -14134.61
  83  -14728.62
  84  -14427.76
  85  -14454.37
  86  -14130.74
  87  -14695.9
  88  -14450.51
  89  -14452.8
  90  -14265.08
  91  -13697.61
  92  -14360.67
  93  -14425.57
  94  -13452.16
  95  -14244.69
  96  -14147.08
  97  -14422.42
  98  -14218.43
  99  -14024.99
 100  -14130.18
 101  -14566.05
 102  -14556.62
 103  -14215.91
 104  -14056.09
 105  -14495.32
 106  -13542.73
 107  -13584.19
 108  -13113.29
 109  -13996.85
 110  -13551.06
 111  -13065.92
 112  -13164.1
 113  -13595.41
 114  -13434.33
 115  -12468.73
 116  -13112.3
 117  -13828.7
 118  -13723.08
 119  -13457.2
 120  -12734.33
 121  -12541.05
 122  -13133.33
 123  -13053.91
 124  -13280.14
 125  -13400.84
 126  -13617.71
 127  -12866.36
 128  -12803.12
 129  -13117.84
 130  -12914.43
 131  -12861.48
 132  -12995.78
 133  -12971.21
 134  -12748.59
 135  -12629.74
 136  -12889.75
 137  -13619.25
 138  -13360.45
 139  -13041.39
 140  -13210.91
 141  -13331.29
 142  -12880.98
 143  -13152.02
 144  -13098.11
 145  -13878.41
 146  -13542.61
 147  -12955.31
 148  -12351.11
 149  -11216.66
 150  -11370.57
 151  -13701.51
 152  -13588.39
 153  -13909.33
 154  -14189.04
 155  -13690.34
 156  -13066.22
 157  -13838.35
 158  -13772.54
 159  -13543.7
 160  -13473.7
 161  -13121.9
 162  -13987.03
 163  -13765.2
 164  -13503.8
 165  -13758.51
 166  -13492.25
 167  -13175.92
 168  -12978.07
 169  -13032.68
 170  -13125.67
 171  -12428.09
 172  -13075.63
 173  -13234.83
 174  -12779.84
 175  -13231.98
 176  -12593.44
 177  -12163.67
 178  -12507.1
 179  -11931.66
 180  -12659.64
 181  -12388.59
 182  -12361.48
 183  -12965.25
 184  -12664.08
 185  -13406.85
 186  -13085.1
 187  -13544.92
 188  -13633.29
 189  -13973.61
 190  -13550.23
 191  -14176.74
 192  -13464.38
 193  -14201.19
 194  -13632.32
 195  -13369.44
 196  -13634.05
 197  -13183.25
 198  -13900.2
 199  -14076.94
 200  -14644
 201  -13851.36
 202  -14081.16
 203  -14295.81
 204  -14570.76
 205  -14355
 206  -14325.49
 207  -14145.6
 208  -14245.5
 209  -14024.13
 210  -14239.31
 211  -14086.73
 212  -14595.52
 213  -14253.4
 214  -13683.63
 215  -13830.83
 216  -13344.63
 217  -13437.97
 218  -13519.46
 219  -13210.39
 220  -14381.98
 221  -13870.1
 222  -14235.44
 223  -14500.24
 224  -14373.28
 225  -14379.32
 226  -14245.15
 227  -14052.34
 228  -14425.64
 229  -14426.02
 230  -14473.03
 231  -14929.56
 232  -14397.06
 233  -15010.98
 234  -14750.98
 235  -14540.52
 236  -14827.54
 237  -15503.9
 238  -14456
 239  -14411.89
 240  -15114.5
 241  -15085.37
 242  -14630.43
 243  -14491.09
 244  -14615.61
 245  -14301.53
 246  -14507.32
 247  -14649.75
 248  -14222.98
 249  -14418.94
 250  -14477.46
 251  -14227.75
 252  -14004.43
 253  -14084.91
 254  -13786.23
 255  -14179.44
