# Input file       =  1212490957.114973-PSRB0329-2ms-sampling-dd.dat
# Candidate        =  PSR_0332+5434
# Telescope        =  AR
# Epoch_topo       =  58277.460371701076
# Epoch_bary       =  N/A
# T_sample         =  0.002
# Data Folded      =  7340032
# Data Avg         =  1.49248488268925e-10
# Data StdDev      =  5.09490661227737 
# Profile Bins     =  512
# Profile Avg      =  -0.202842206494407
# Profile StdDev   =  610.028638744032 
# Reduced chi-sqr  =  0.984
# Prob(Noise)      <  0.592   (~0.0 sigma)
# P_topo (ms)      =  714.510057084679  +/- 0.000157
# P'_topo (s/s)    =  -0                +/- 8.28e-11
# P''_topo (s/s^2) =  0                 +/- 3.66e-14
# P_bary (ms)      =  N/A
# P'_bary (s/s)    =  N/A
# P''_bary (s/s^2) =  N/A
# P_orb (s)        =  N/A
# asin(i)/c (s)    =  N/A
# eccentricity     =  N/A
# w (rad)          =  N/A
# T_peri           =  N/A
######################################################
   0  -281.6067
   1  -659.2463
   2  -465.3475
   3  285.5323
   4  339.2349
   5  -250.5933
   6  -482.196
   7  -502.0138
   8  -382.5696
   9  -339.5689
  10  -446.4468
  11  -563.2554
  12  -236.211
  13  -30.18544
  14  -321.8056
  15  -182.2034
  16  31.80081
  17  75.23724
  18  193.0475
  19  78.99201
  20  -34.03257
  21  -134.6301
  22  116.757
  23  -15.22198
  24  -395.9967
  25  -296.9283
  26  -379.8236
  27  -418.1988
  28  -514.5775
  29  -491.426
  30  -96.55813
  31  -33.33343
  32  190.2755
  33  -249.2283
  34  -416.3324
  35  -242.2777
  36  36.34247
  37  20.41433
  38  -223.6935
  39  -242.3411
  40  -164.2722
  41  129.5435
  42  -15.88144
  43  153.0652
  44  -90.72512
  45  118.5875
  46  437.6824
  47  208.2122
  48  499.6786
  49  814.1724
  50  602.4698
  51  143.3073
  52  34.27635
  53  174.4019
  54  -46.19494
  55  118.2791
  56  256.0294
  57  659.9818
  58  382.4596
  59  439.8569
  60  102.2847
  61  -27.88856
  62  -46.76402
  63  112.4927
  64  242.3932
  65  -97.16988
  66  -179.6321
  67  140.0678
  68  -218.9473
  69  12.15033
  70  735.3762
  71  648.6252
  72  191.2243
  73  423.7643
  74  507.6789
  75  496.3181
  76  186.7826
  77  486.4895
  78  685.7676
  79  492.1334
  80  709.9535
  81  460.668
  82  343.7111
  83  171.8282
  84  59.15936
  85  455.5771
  86  463.4875
  87  542.343
  88  598.0833
  89  623.5775
  90  618.8383
  91  349.0283
  92  335.3004
  93  -174.8505
  94  41.76851
  95  76.68642
  96  177.9416
  97  133.0008
  98  290.9326
  99  77.04832
 100  -77.47198
 101  -38.66148
 102  187.0193
 103  551.6457
 104  357.9908
 105  62.95602
 106  595.5161
 107  1180.058
 108  1199.931
 109  1128.798
 110  143.2046
 111  -161.7903
 112  86.72022
 113  81.04713
 114  267.6932
 115  543.0773
 116  311.0517
 117  -76.79111
 118  -310.0197
 119  229.4095
 120  196.5095
 121  -189.1825
 122  249.4407
 123  305.122
 124  524.8311
 125  -6.432373
 126  -141.5048
 127  -186.508
 128  -279.6261
 129  -74.58195
 130  -133.0533
 131  46.60961
 132  62.70996
 133  127.0204
 134  -130.2266
 135  100.9036
 136  13.63008
 137  44.25101
 138  619.2088
 139  810.7314
 140  588.9751
 141  457.6229
 142  169.6358
 143  515.9391
 144  142.2475
 145  -124.0869
 146  -49.03939
 147  181.9669
 148  -15.82265
 149  -63.38273
 150  494.1278
 151  610.751
 152  737.2754
 153  850.4594
 154  938.3069
 155  562.1952
 156  35.57577
 157  831.2059
 158  1390.156
 159  1387.367
 160  1078.422
 161  932.5648
 162  302.9586
 163  -34.66378
 164  332.3249
 165  346.7226
 166  236.7991
 167  241.0558
 168  254.242
 169  -137.7189
 170  -165
 171  354.8289
 172  514.4135
 173  80.39536
 174  166.0182
 175  149.8146
 176  107.7751
 177  32.21267
 178  90.291
 179  187.133
 180  134.6209
 181  -129.1929
 182  -35.44845
 183  -162.3595
 184  -242.0906
 185  138.0697
 186  109.3612
 187  97.90288
 188  -181.7952
 189  -165.4825
 190  -363.5532
 191  -80.15653
 192  203.8672
 193  -123.1144
 194  -616.8606
 195  -717.3588
 196  -189.5362
 197  -77.87774
 198  131.2873
 199  -43.83325
 200  -382.6168
 201  -152.2661
 202  -274.4941
 203  -668.9102
 204  -364.8825
 205  -184.7446
 206  374.6977
 207  349.665
 208  -17.29734
 209  -81.23599
 210  -353.4638
 211  -407.9939
 212  -45.00692
 213  134.2428
 214  287.9145
 215  136.3132
 216  124.0258
 217  296.6133
 218  -69.66966
 219  -333.4961
 220  -400.3367
 221  -410.5058
 222  146.0625
 223  511.7426
 224  219.586
 225  72.98319
 226  -292.9835
 227  -121.7555
 228  -68.58913
 229  -495.5901
 230  -701.4644
 231  -323.1237
 232  -50.57635
 233  -53.25645
 234  -109.4381
 235  -417.1079
 236  -391.0415
 237  -177.49
 238  173.4569
 239  330.6084
 240  616.4961
 241  309.2932
 242  357.2514
 243  202.513
 244  299.496
 245  182.2068
 246  51.86694
 247  32.52253
 248  90.81419
 249  314.5328
 250  148.5031
 251  -114.2356
 252  10.10322
 253  158.026
 254  294.0313
 255  83.03634
 256  811.8963
 257  1292.754
 258  1697.358
 259  1938.908
 260  1850.635
 261  1060.79
 262  323.576
 263  -2.006523
 264  6.193561
 265  174.019
 266  184.357
 267  83.79491
 268  19.89762
 269  -389.0653
 270  -350.4184
 271  -70.79181
 272  162.4234
 273  -248.606
 274  286.7025
 275  180.1612
 276  -465.7809
 277  -717.5967
 278  -738.0662
 279  -345.7494
 280  -519.7796
 281  -311.2605
 282  71.18559
 283  -15.94228
 284  -100.4008
 285  -212.583
 286  -320.8169
 287  -616.4121
 288  -362.8415
 289  25.58591
 290  75.36136
 291  62.57637
 292  115.8561
 293  122.9733
 294  -528.3984
 295  -391.6288
 296  67.95467
 297  -36.89996
 298  28.98247
 299  127.9706
 300  76.64532
 301  -529.476
 302  -671.7277
 303  -573.3788
 304  -633.4922
 305  -349.7693
 306  -238.0339
 307  31.47948
 308  -212.0308
 309  114.8055
 310  -294.2524
 311  -315.8328
 312  -466.6741
 313  -287.9659
 314  179.9099
 315  -192.7529
 316  242.6098
 317  50.39774
 318  -303.2633
 319  -18.11815
 320  -313.5598
 321  -360.6635
 322  -191.0188
 323  157.1504
 324  137.564
 325  -318.2874
 326  -402.2635
 327  -565.4376
 328  -614.3259
 329  -376.2381
 330  -77.10885
 331  -249.0446
 332  -362.1289
 333  -382.0346
 334  -282.038
 335  -467.6979
 336  -546.7791
 337  -655.0522
 338  -748.7774
 339  -450.5444
 340  -112.8954
 341  -55.93549
 342  -337.2357
 343  -750.7695
 344  -741.3203
 345  -534.1253
 346  -419.7972
 347  -526.3024
 348  -725.3572
 349  -686.6805
 350  -566.2601
 351  108.0707
 352  83.69167
 353  128.7829
 354  930.5511
 355  -410.9074
 356  -290.9763
 357  -123.2799
 358  1419.975
 359  1057.335
 360  1272.128
 361  1449.21
 362  -151.0195
 363  -348.5522
 364  -549.6069
 365  -529.7847
 366  -647.4146
 367  -360.2502
 368  -221.9091
 369  -808.8956
 370  -572.6241
 371  -520.9751
 372  -648.8477
 373  -513.7988
 374  -350.3688
 375  -549.4661
 376  -443.2048
 377  -43.98357
 378  65.2522
 379  47.67059
 380  -20.48236
 381  49.20732
 382  -225.1904
 383  103.4258
 384  -366.3545
 385  -575.7396
 386  -619.8586
 387  -704.2916
 388  -537.6828
 389  208.9035
 390  644.5479
 391  768.0546
 392  793.4022
 393  171.2197
 394  -263.1817
 395  -95.92416
 396  -184.4104
 397  505.5393
 398  522.0724
 399  686.7858
 400  636.1684
 401  -340.4763
 402  -293.3334
 403  -454.4912
 404  -867.4121
 405  -607.8422
 406  -387.4649
 407  -384.5594
 408  -308.1889
 409  -271.3484
 410  -585.4377
 411  -694.5361
 412  -522.4004
 413  -612.4194
 414  -555.8625
 415  -175.7276
 416  136.6584
 417  725.4952
 418  488.0186
 419  -265.3193
 420  -406.7109
 421  168.375
 422  134.7278
 423  340.6786
 424  903.2289
 425  851.4189
 426  -667.8746
 427  -497.1245
 428  -235.7918
 429  -697.1283
 430  -542.4501
 431  -189.9013
 432  31.14814
 433  -327.9519
 434  -265.2607
 435  -378.8586
 436  -275.0331
 437  24.48606
 438  -373.6218
 439  -583.3649
 440  -686.4681
 441  23.07342
 442  99.76324
 443  -311.3731
 444  -31.90358
 445  79.57084
 446  -73.6937
 447  -70.53143
 448  482.2321
 449  471.2981
 450  204.5438
 451  414.2151
 452  -83.67916
 453  61.43463
 454  203.1804
 455  439.1641
 456  983.3892
 457  1124.512
 458  407.6837
 459  -174.4545
 460  -530.5894
 461  -82.24511
 462  109.9808
 463  -17.82835
 464  397.9211
 465  99.34924
 466  -161.0732
 467  -668.1816
 468  -652.5057
 469  -414.0858
 470  -432.118
 471  8.1256
 472  82.91058
 473  -220.0742
 474  -201.2958
 475  -206.8448
 476  -184.052
 477  -252.1154
 478  -23.21546
 479  -193.5202
 480  -71.29991
 481  103.1421
 482  249.1568
 483  30.5765
 484  -61.8858
 485  -216.677
 486  -127.7751
 487  -418.9894
 488  -636.4525
 489  -593.0486
 490  -488.9884
 491  -79.5019
 492  -17.8565
 493  153.1443
 494  93.81996
 495  -172.0256
 496  -407.889
 497  -538.3616
 498  -340.5855
 499  -463.8495
 500  -148.7816
 501  202.9198
 502  -87.84164
 503  180.9667
 504  -42.64777
 505  -434.1305
 506  -78.48778
 507  70.05639
 508  72.80608
 509  -499.2761
 510  -704.1467
 511  -377.5137
