# Input file       =  1212146313.112695_cleaned.dat
# Candidate        =  PSR_0332+5434
# Telescope        =  AR
# Epoch_topo       =  58273.471436489526
# Epoch_bary       =  N/A
# T_sample         =  0.002
# Data Folded      =  7340032
# Data Avg         =  0.0289118932736788
# Data StdDev      =  2.60101019314618 
# Profile Bins     =  512
# Profile Avg      =  414.460347568472 
# Profile StdDev   =  311.426848072311 
# Reduced chi-sqr  =  1.525
# Prob(Noise)      <  1.7e-13   (~7.3 sigma)
# P_topo (ms)      =  714.513904806228  +/- 0.000489
# P'_topo (s/s)    =  -0                +/- 2.58e-10
# P''_topo (s/s^2) =  0                 +/- 1.14e-13
# P_bary (ms)      =  N/A
# P'_bary (s/s)    =  N/A
# P''_bary (s/s^2) =  N/A
# P_orb (s)        =  N/A
# asin(i)/c (s)    =  N/A
# eccentricity     =  N/A
# w (rad)          =  N/A
# T_peri           =  N/A
######################################################
   0  720.7257
   1  562.162
   2  452.1523
   3  117.2834
   4  32.94184
   5  451.7458
   6  543.8893
   7  608.7409
   8  389.6876
   9  448.9204
  10  506.1029
  11  148.5905
  12  285.1666
  13  642.0548
  14  479.0302
  15  379.7071
  16  382.6777
  17  400.7019
  18  281.5345
  19  105.9593
  20  -110.547
  21  -40.44637
  22  310.4612
  23  206.4941
  24  639.382
  25  661.5875
  26  365.1505
  27  331.5181
  28  231.2992
  29  329.6614
  30  325.4186
  31  9.670443
  32  386.7066
  33  216.9897
  34  358.075
  35  559.6387
  36  269.3482
  37  193.2195
  38  -120.4096
  39  201.8295
  40  2.700494
  41  144.394
  42  291.8021
  43  387.2733
  44  262.7282
  45  277.3353
  46  180.156
  47  64.55237
  48  194.9543
  49  -14.03328
  50  1.344946
  51  90.31203
  52  6.657565
  53  97.47029
  54  150.786
  55  70.80132
  56  262.3036
  57  404.7377
  58  378.1319
  59  166.9049
  60  273.9817
  61  70.73046
  62  263.8814
  63  572.1398
  64  329.2926
  65  309.7933
  66  416.8792
  67  80.87922
  68  86.84007
  69  -157.4694
  70  -340.4691
  71  -244.5277
  72  70.2097
  73  193.7558
  74  216.6269
  75  186.4272
  76  56.24007
  77  8.823709
  78  458.7797
  79  532.0354
  80  422.918
  81  409.6125
  82  90.42516
  83  -211.3773
  84  -86.30143
  85  265.7583
  86  -82.46722
  87  77.02033
  88  271.3334
  89  -38.44552
  90  -46.59509
  91  -213.7947
  92  119.8186
  93  -124.6759
  94  -302.9303
  95  -9.533952
  96  334.1328
  97  460.7083
  98  -61.8326
  99  -40.98674
 100  295.0969
 101  -55.66671
 102  312.8549
 103  633.8353
 104  565.5102
 105  188.1332
 106  522.4997
 107  775.0397
 108  347.1176
 109  391.3709
 110  324.6388
 111  295.7196
 112  284.0526
 113  581.0338
 114  530.5682
 115  210.1322
 116  544.2146
 117  363.152
 118  220.1218
 119  240.6342
 120  378.4356
 121  238.1133
 122  195.2037
 123  48.12411
 124  289.7664
 125  445.6179
 126  470.0914
 127  551.5693
 128  763.1747
 129  469.417
 130  496.0746
 131  381.4394
 132  124.2805
 133  492.2839
 134  694.4003
 135  858.4733
 136  564.7236
 137  607.1157
 138  379.0399
 139  332.1048
 140  261.8875
 141  388.5691
 142  503.7025
 143  443.4941
 144  102.9875
 145  280.6577
 146  116.4826
 147  169.6481
 148  450.1768
 149  336.9543
 150  277.8808
 151  444.4638
 152  202.9834
 153  589.9598
 154  445.5625
 155  460.1982
 156  616.762
 157  642.4543
 158  793.9427
 159  682.6786
 160  407.0511
 161  184.9266
 162  519.6475
 163  1139.599
 164  890.7098
 165  841.4311
 166  938.5427
 167  1170.116
 168  767.8737
 169  961.8668
 170  1235.47
 171  1534.965
 172  1783.898
 173  1586.079
 174  1324.817
 175  1160.166
 176  760.6359
 177  365.2848
 178  165.5415
 179  254.682
 180  254.4558
 181  187.5116
 182  241.1037
 183  683.7588
 184  278.0831
 185  165.455
 186  237.8112
 187  548.3926
 188  844.6598
 189  867.538
 190  762.3109
 191  787.0153
 192  713.6687
 193  982.3821
 194  792.9326
 195  660.0845
 196  615.4391
 197  589.258
 198  891.2137
 199  848.6749
 200  775.5718
 201  573.2795
 202  629.1741
 203  883.4622
 204  731.8043
 205  800.9271
 206  573.595
 207  662.5396
 208  689.0325
 209  704.0338
 210  727.9689
 211  578.3738
 212  492.8085
 213  407.6881
 214  455.4725
 215  396.583
 216  421.6491
 217  567.7561
 218  937.7991
 219  915.1305
 220  761.6339
 221  457.1644
 222  694.4766
 223  753.5818
 224  651.6785
 225  494.9135
 226  556.9844
 227  1050.047
 228  1157.906
 229  968.2849
 230  956.1442
 231  983.3776
 232  897.0733
 233  545.5638
 234  615.341
 235  784.2354
 236  1013.329
 237  825.446
 238  1013.823
 239  950.7354
 240  585.7477
 241  657.2714
 242  452.017
 243  805.5269
 244  1001.504
 245  729.4133
 246  481.9914
 247  472.1045
 248  524.6713
 249  660.3887
 250  616.1678
 251  577.1187
 252  755.0875
 253  258.9153
 254  238.4917
 255  524.9296
 256  664.3923
 257  88.89967
 258  31.45337
 259  362.4816
 260  496.7862
 261  387.5135
 262  334.1017
 263  15.44559
 264  -72.81778
 265  254.5554
 266  376.5517
 267  490.6055
 268  367.8224
 269  139.1529
 270  210.6082
 271  185.0267
 272  294.2823
 273  622.9135
 274  600.499
 275  177.7429
 276  361.7459
 277  773.155
 278  477.958
 279  811.1603
 280  764.6439
 281  385.9253
 282  532.7476
 283  1006.212
 284  815.5573
 285  547.1195
 286  442.081
 287  765.1332
 288  510.0625
 289  320.9363
 290  208.6012
 291  468.6539
 292  592.815
 293  568.9701
 294  692.7462
 295  653.2629
 296  482.8538
 297  578.1544
 298  717.2032
 299  317.6855
 300  49.03509
 301  89.36774
 302  325.1868
 303  146.3389
 304  359.9426
 305  546.4088
 306  145.5305
 307  393.1798
 308  528.8815
 309  70.1503
 310  212.0619
 311  195.2053
 312  33.70718
 313  -56.92011
 314  110.5424
 315  294.4896
 316  172.6769
 317  621.1006
 318  533.4609
 319  150.7708
 320  111.9305
 321  316.2894
 322  482.9734
 323  307.1366
 324  362.5504
 325  196.8624
 326  649.8018
 327  434.5638
 328  284.9171
 329  461.03
 330  596.9692
 331  339.1502
 332  309.8434
 333  408.9702
 334  636.1007
 335  707.7661
 336  317.6472
 337  392.6916
 338  418.871
 339  123.5468
 340  -96.41721
 341  192.9158
 342  485.5966
 343  376.8198
 344  180.0432
 345  186.7484
 346  283.6757
 347  94.17009
 348  271.5503
 349  632.0049
 350  451.2034
 351  361.7843
 352  591.0225
 353  458.9157
 354  421.1211
 355  733.0024
 356  458.1048
 357  406.1344
 358  501.8127
 359  605.2787
 360  362.2748
 361  273.7401
 362  523.2219
 363  355.7037
 364  374.2292
 365  819.6154
 366  556.4048
 367  749.4919
 368  699.6284
 369  547.5912
 370  239.705
 371  424.4343
 372  674.7215
 373  510.5897
 374  565.9291
 375  691.269
 376  340.4409
 377  702.3431
 378  473.9562
 379  391.867
 380  427.2447
 381  333.7081
 382  275.0229
 383  153.8589
 384  444.7846
 385  769.4423
 386  679.539
 387  476.3946
 388  523.2891
 389  539.9507
 390  407.7346
 391  487.0744
 392  524.5042
 393  478.2047
 394  504.8849
 395  428.805
 396  303.8147
 397  163.3608
 398  431.4761
 399  238.5489
 400  -21.48985
 401  544.3741
 402  213.9684
 403  277.0002
 404  337.1665
 405  403.4127
 406  412.5423
 407  433.8942
 408  377.7138
 409  457.7715
 410  622.1257
 411  362.0824
 412  436.3065
 413  669.1415
 414  677.5807
 415  352.4882
 416  140.8211
 417  472.6285
 418  231.8078
 419  300.6774
 420  694.3019
 421  535.094
 422  355.1679
 423  184.4502
 424  -206.9959
 425  366.0726
 426  599.7608
 427  394.8888
 428  228.6084
 429  313.9411
 430  473.2649
 431  364.4356
 432  679.6946
 433  805.0827
 434  421.7481
 435  255.0957
 436  514.0953
 437  287.986
 438  157.3142
 439  144.1506
 440  379.411
 441  423.7812
 442  119.2625
 443  391.7609
 444  499.7344
 445  232.8003
 446  180.6857
 447  182.5661
 448  303.074
 449  221.1965
 450  139.6374
 451  199.4464
 452  39.25391
 453  129.5726
 454  218.4337
 455  108.7183
 456  103.5078
 457  453.9438
 458  455.1313
 459  111.1722
 460  142.7347
 461  367.1727
 462  312.805
 463  143.8298
 464  502.1572
 465  318.7127
 466  174.551
 467  173.0854
 468  118.2684
 469  106.7794
 470  193.6939
 471  417.6808
 472  365.4009
 473  456.8204
 474  243.2243
 475  251.4515
 476  258.2438
 477  287.8061
 478  109.0509
 479  9.95786
 480  70.88644
 481  31.42357
 482  413.6364
 483  600.0522
 484  365.7486
 485  224.308
 486  735.4545
 487  604.4391
 488  359.2127
 489  320.7924
 490  267.5375
 491  362.2253
 492  421.7031
 493  397.8947
 494  368.4946
 495  191.9581
 496  371.3036
 497  451.395
 498  417.657
 499  611.2072
 500  695.2234
 501  225.9483
 502  290.1712
 503  552.179
 504  668.1097
 505  759.7177
 506  548.4779
 507  208.1319
 508  442.2018
 509  685.7502
 510  591.6189
 511  556.2153
