# Input file       =  1212289145.117255-PSRB0329-2ms-sampling-dd.dat
# Candidate        =  PSR_0332+5434
# Telescope        =  AR
# Epoch_topo       =  58275.124584690449
# Epoch_bary       =  N/A
# T_sample         =  0.002
# Data Folded      =  7143424
# Data Avg         =  -1.62853628155646e-11
# Data StdDev      =  7.69076330501308 
# Profile Bins     =  512
# Profile Avg      =  0.0599726621886676
# Profile StdDev   =  908.422075173232 
# Reduced chi-sqr  =  0.719
# Prob(Noise)      <  1   (~0.0 sigma)
# P_topo (ms)      =  714.511960154581  +/- 6.13e-05
# P'_topo (s/s)    =  -0                +/- 3.32e-11
# P''_topo (s/s^2) =  0                 +/- 1.51e-14
# P_bary (ms)      =  N/A
# P'_bary (s/s)    =  N/A
# P''_bary (s/s^2) =  N/A
# P_orb (s)        =  N/A
# asin(i)/c (s)    =  N/A
# eccentricity     =  N/A
# w (rad)          =  N/A
# T_peri           =  N/A
######################################################
   0  -114.6867
   1  774.6425
   2  208.0254
   3  212.9877
   4  24.86072
   5  269.2491
   6  -421.6436
   7  -998.3395
   8  -750.6706
   9  -475.7345
  10  192.005
  11  -129.6868
  12  -281.8159
  13  -482.2798
  14  -489.7436
  15  -172.3543
  16  128.6696
  17  1145.561
  18  1546.867
  19  862.2798
  20  103.8972
  21  -765.7508
  22  -43.22317
  23  31.44638
  24  103.474
  25  642.6368
  26  613.249
  27  194.0072
  28  -581.4297
  29  -177.8637
  30  215.9148
  31  -442.3755
  32  184.355
  33  219.3032
  34  665.3694
  35  763.3185
  36  5.01716
  37  -305.0489
  38  -386.0533
  39  -339.2469
  40  -222.5069
  41  -127.3396
  42  201.002
  43  -131.3389
  44  398.3987
  45  453.8683
  46  431.9274
  47  376.6958
  48  114.6268
  49  -173.7428
  50  378.7223
  51  640.3784
  52  223.9792
  53  174.5006
  54  593.4341
  55  321.1248
  56  6.131697
  57  209.0046
  58  476.0985
  59  591.6945
  60  290.8455
  61  -123.7725
  62  -139.923
  63  -227.9487
  64  -149.1582
  65  640.7446
  66  1195.705
  67  1357.927
  68  773.3782
  69  593.058
  70  145.5806
  71  -279.1828
  72  -309.2872
  73  -672.0833
  74  130.2971
  75  537.907
  76  729.5229
  77  244.8143
  78  103.4068
  79  587.615
  80  607.2076
  81  412.9175
  82  316.0475
  83  689.519
  84  1129.143
  85  534.746
  86  880.7508
  87  1288.02
  88  1226.482
  89  1077.049
  90  797.9792
  91  1211.905
  92  991.6581
  93  438.7057
  94  73.57175
  95  -169.1747
  96  -377.1554
  97  -147.8065
  98  160.8646
  99  630.3008
 100  1136.753
 101  1043.618
 102  441.6
 103  -53.24215
 104  12.75843
 105  183.687
 106  274.5274
 107  373.3381
 108  360.0945
 109  368.2466
 110  -198.8593
 111  360.6401
 112  583.5214
 113  833.9259
 114  838.0558
 115  479.1079
 116  308.438
 117  -1.098499
 118  600.1258
 119  96.30534
 120  619.036
 121  1008.206
 122  278.523
 123  161.4685
 124  401.4043
 125  724.188
 126  30.89428
 127  9.533877
 128  231.4187
 129  471.7609
 130  432.3587
 131  491.6346
 132  1149.64
 133  1543.015
 134  862.7972
 135  302.0611
 136  675.5801
 137  759.5161
 138  139.3537
 139  416.8396
 140  1385.883
 141  1536.504
 142  1222.381
 143  783.3041
 144  404.3658
 145  257.2332
 146  266.0131
 147  993.7221
 148  1601.762
 149  1223.837
 150  1308.219
 151  988.5967
 152  214.8786
 153  129.0938
 154  417.5062
 155  547.6339
 156  332.5981
 157  629.7839
 158  1034.419
 159  654.0154
 160  238.989
 161  424.3485
 162  464.4544
 163  180.4831
 164  105.1377
 165  678.4792
 166  719.0688
 167  425.3983
 168  141.7253
 169  -42.75554
 170  -71.48991
 171  -1108.821
 172  -926.2448
 173  -476.5655
 174  -180.4341
 175  347.4706
 176  231.7282
 177  -69.99358
 178  169.6071
 179  220.1438
 180  257.7057
 181  196.4828
 182  301.0803
 183  486.5428
 184  -9.131928
 185  63.91771
 186  158.8844
 187  287.648
 188  -49.37383
 189  -464.5199
 190  -358.8896
 191  -102.565
 192  -364.1294
 193  -671.0995
 194  2.082566
 195  78.47664
 196  60.1071
 197  -106.8175
 198  183.7389
 199  461.289
 200  136.3788
 201  -198.8479
 202  102.4702
 203  543.5495
 204  42.46381
 205  -690.4628
 206  -355.3322
 207  338.0681
 208  -71.49129
 209  -18.17746
 210  -66.67715
 211  -214.4404
 212  84.45834
 213  -20.08093
 214  133.011
 215  518.7008
 216  597.9904
 217  74.57912
 218  -710.0074
 219  -576.2681
 220  -453.4914
 221  -690.8553
 222  -711.7764
 223  -284.7651
 224  100.9968
 225  -511.6532
 226  -982.7379
 227  -988.1475
 228  -914.3775
 229  -1002.367
 230  -919.5154
 231  14.54513
 232  897.3315
 233  266.2508
 234  -406.3664
 235  -288.0255
 236  -608.004
 237  -742.5797
 238  -762.3176
 239  -176.1022
 240  -209.6234
 241  -373.7524
 242  -151.1985
 243  104.8847
 244  -12.76297
 245  -609.1458
 246  -688.1199
 247  -245.5392
 248  -148.2123
 249  310.4901
 250  192.3845
 251  -552.0141
 252  -900.8482
 253  -921.8633
 254  -1094.172
 255  -1088.964
 256  -670.7316
 257  -229.7262
 258  -263.3681
 259  -307.0806
 260  -610.3363
 261  71.94434
 262  -681.072
 263  -568.3924
 264  -291.5785
 265  128.4871
 266  241.894
 267  -196.1239
 268  -47.24109
 269  -62.18783
 270  -685.9436
 271  -1533.136
 272  -943.9348
 273  -756.2109
 274  -508.1464
 275  -837.3558
 276  -514.7136
 277  -11.20451
 278  -379.0893
 279  -293.6523
 280  239.0583
 281  13.53158
 282  295.7039
 283  452.6378
 284  -16.55396
 285  -218.1247
 286  -506.6092
 287  -561.9604
 288  -784.1299
 289  -146.5708
 290  483.7279
 291  124.5836
 292  -723.566
 293  -130.0685
 294  202.2615
 295  510.3542
 296  -174.4915
 297  -494.3515
 298  529.3856
 299  353.0132
 300  25.60423
 301  -120.7511
 302  374.287
 303  -273.5836
 304  -777.0551
 305  -749.0107
 306  -209.3907
 307  -16.34602
 308  -505.8268
 309  -70.79487
 310  -293.7081
 311  -530.3563
 312  -1198.107
 313  -849.2691
 314  83.65526
 315  234.2629
 316  97.31481
 317  -434.6299
 318  -674.2187
 319  -1259.406
 320  -1108.408
 321  -872.2296
 322  -596.9092
 323  -589.0927
 324  -672.4634
 325  -507.9531
 326  -445.3265
 327  -492.7365
 328  -939.9986
 329  -677.2312
 330  -454.3306
 331  -308.7591
 332  178.5782
 333  -346.5905
 334  -868.5472
 335  -779.3871
 336  -1291.762
 337  -1510.099
 338  -980.6231
 339  -333.4483
 340  134.3586
 341  -244.9798
 342  -347.0688
 343  -324.5266
 344  -441.349
 345  -1104.151
 346  -863.6974
 347  -386.2412
 348  167.213
 349  101.4448
 350  -59.90155
 351  92.8196
 352  -351.6966
 353  -1154.566
 354  -1229.095
 355  -867.1295
 356  -271.5991
 357  -383.484
 358  -336.2322
 359  -304.7203
 360  -119.0155
 361  -97.50818
 362  -508.67
 363  -742.874
 364  -251.5246
 365  464.8044
 366  -153.0493
 367  -248.7842
 368  -248.4045
 369  -418.1255
 370  -1147.285
 371  -580.9081
 372  -55.17003
 373  -201.2158
 374  -484.4774
 375  -903.4398
 376  -256.4551
 377  -196.8929
 378  143.1605
 379  -335.2013
 380  -250.3041
 381  305.8422
 382  85.66524
 383  -99.3213
 384  -479.4364
 385  -305.7417
 386  -731.8417
 387  -557.1169
 388  -211.106
 389  -9.747953
 390  662.687
 391  477.261
 392  234.3577
 393  -69.65993
 394  10.98386
 395  -293.5913
 396  -75.32257
 397  867.357
 398  700.8189
 399  224.023
 400  94.51366
 401  241.5361
 402  -400.2981
 403  -581.956
 404  -434.0585
 405  48.0013
 406  383.996
 407  360.555
 408  184.3576
 409  -64.39607
 410  -689.7868
 411  -349.068
 412  81.83196
 413  190.6637
 414  865.8403
 415  714.8843
 416  132.7237
 417  -724.6348
 418  -663.5159
 419  -482.193
 420  -775.6713
 421  -300.0417
 422  -0.05482317
 423  578.2719
 424  601.8296
 425  13.67134
 426  -234.0019
 427  -452.4317
 428  -497.5264
 429  -235.2952
 430  472.4854
 431  1505.277
 432  945.696
 433  492.6916
 434  532.5974
 435  -79.37897
 436  -1347.301
 437  -1071.866
 438  -211.9117
 439  358.0361
 440  -178.2376
 441  250.6863
 442  332.2255
 443  204.3774
 444  -246.1492
 445  -30.69045
 446  460.2781
 447  327.5062
 448  435.1267
 449  -189.6311
 450  149.6206
 451  -144.0209
 452  -719.7139
 453  -1230.645
 454  -629.9631
 455  133.8178
 456  -200.5479
 457  -337.9187
 458  -709.535
 459  -477.6672
 460  -338.1032
 461  262.143
 462  120.2611
 463  1282.977
 464  1650.487
 465  845.5379
 466  -269.7201
 467  -260.5743
 468  -358.4057
 469  -790.8918
 470  -128.3763
 471  471.9855
 472  720.0911
 473  252.2121
 474  -2.477931
 475  517.7037
 476  417.5742
 477  97.20044
 478  -365.2287
 479  -133.1388
 480  564.8281
 481  267.8426
 482  288.0497
 483  455.0635
 484  -29.53259
 485  -419.4606
 486  -413.0662
 487  -265.1154
 488  62.16447
 489  202.1363
 490  476.4113
 491  486.4437
 492  -120.2741
 493  -450.8871
 494  -373.3076
 495  -60.75695
 496  491.6422
 497  966.0021
 498  468.8819
 499  -162.9187
 500  90.71847
 501  -202.0013
 502  -562.7472
 503  -483.1819
 504  -296.2674
 505  336.052
 506  -96.57617
 507  -199.6738
 508  76.33833
 509  39.80186
 510  -218.2745
 511  -556.5067
