# Input file       =  1212318657.113172-PSRB0329-2ms-sampling-dd.dat
# Candidate        =  PSR_0332+5434
# Telescope        =  AR
# Epoch_topo       =  58275.466158717267
# Epoch_bary       =  N/A
# T_sample         =  0.002
# Data Folded      =  7340032
# Data Avg         =  -2.10581518018055e-10
# Data StdDev      =  4.02390981361074 
# Profile Bins     =  512
# Profile Avg      =  -0.275477836295967
# Profile StdDev   =  481.794940089881 
# Reduced chi-sqr  =  0.781
# Prob(Noise)      <  1   (~0.0 sigma)
# P_topo (ms)      =  714.511977066287  +/- 0.000149
# P'_topo (s/s)    =  -0                +/- 7.87e-11
# P''_topo (s/s^2) =  0                 +/- 3.47e-14
# P_bary (ms)      =  N/A
# P'_bary (s/s)    =  N/A
# P''_bary (s/s^2) =  N/A
# P_orb (s)        =  N/A
# asin(i)/c (s)    =  N/A
# eccentricity     =  N/A
# w (rad)          =  N/A
# T_peri           =  N/A
######################################################
   0  -190.8911
   1  -168.0428
   2  -100.8205
   3  -13.45366
   4  -76.283
   5  1.969436
   6  -35.84499
   7  -298.3995
   8  42.11854
   9  -6.884618
  10  161.2964
  11  -130.6546
  12  -285.4418
  13  -183.4782
  14  -62.01668
  15  53.95576
  16  -30.26098
  17  -26.05713
  18  -81.83863
  19  -209.6929
  20  80.62868
  21  -158.8727
  22  -248.0657
  23  -43.68347
  24  -71.73139
  25  -163.3555
  26  -40.24302
  27  -414.5152
  28  -607.2925
  29  -380.6403
  30  -435.4946
  31  -298.9116
  32  -104.0511
  33  -178.3342
  34  -10.56869
  35  -368.7814
  36  -721.4304
  37  -150.4142
  38  103.9591
  39  115.2892
  40  292.5877
  41  381.3178
  42  -93.43785
  43  -299.9647
  44  -258.8698
  45  -102.0784
  46  -147.5573
  47  61.28947
  48  98.86816
  49  337.0542
  50  427.7393
  51  -78.77811
  52  -144.2232
  53  121.6483
  54  149.8998
  55  352.3506
  56  458.5298
  57  544.2781
  58  125.3206
  59  73.67339
  60  -268.0797
  61  -380.0268
  62  -386.1738
  63  137.8772
  64  62.41977
  65  62.14613
  66  -20.3029
  67  283.8636
  68  162.9827
  69  -304.4785
  70  -37.19053
  71  505.9308
  72  657.3892
  73  96.04542
  74  33.77116
  75  122.7704
  76  -332.0715
  77  -353.4111
  78  -182.4709
  79  75.72504
  80  -185.7778
  81  -61.00356
  82  170.3857
  83  177.72
  84  356.8358
  85  253.6735
  86  -49.03658
  87  -254.7338
  88  -261.055
  89  273.2447
  90  391.0988
  91  486.1172
  92  197.7965
  93  -99.41451
  94  129.5987
  95  64.67386
  96  11.229
  97  124.3363
  98  203.7396
  99  -84.57979
 100  24.08568
 101  -211.3451
 102  -286.9116
 103  -418.2639
 104  -195.1661
 105  -130.969
 106  -255.0189
 107  60.0738
 108  68.76153
 109  114.0034
 110  -142.6099
 111  -78.49664
 112  148.1945
 113  396.3126
 114  307.951
 115  295.4005
 116  443.5149
 117  258.03
 118  -277.3876
 119  -6.466311
 120  -335.356
 121  -335.8852
 122  -134.2243
 123  84.96423
 124  -44.38103
 125  -130.1559
 126  -91.76556
 127  -426.4742
 128  -469.6485
 129  -223.0461
 130  -495.9965
 131  -265.7741
 132  -55.47731
 133  -362.7015
 134  -586.3859
 135  -512.0354
 136  -375.8846
 137  -343.5909
 138  -140.5931
 139  -303.4788
 140  -220.6743
 141  -55.00045
 142  -126.2574
 143  -509.9926
 144  120.568
 145  336.6317
 146  190.5414
 147  -96.33183
 148  271.3624
 149  -155.4667
 150  -514.3399
 151  -287.9424
 152  -160.7537
 153  3.671632
 154  -16.94445
 155  -57.97149
 156  118.7731
 157  -351.6985
 158  -712.3984
 159  -320.0518
 160  142.4724
 161  -17.5802
 162  -605.9431
 163  -399.987
 164  -192.0334
 165  -27.60452
 166  -258.6087
 167  -52.09295
 168  -344.7662
 169  -521.0383
 170  -688.3816
 171  -644.6301
 172  -586.8932
 173  -214.0638
 174  147.1236
 175  -88.48064
 176  -264.6479
 177  -554.2844
 178  -376.5013
 179  -67.4603
 180  45.77771
 181  -135.1051
 182  55.15903
 183  -151.7925
 184  -32.80525
 185  -246.4855
 186  -412.7728
 187  -536.015
 188  -273.0329
 189  -132.4869
 190  -211.7234
 191  -219.5868
 192  -25.17027
 193  -229.5858
 194  -249.4436
 195  -362.7438
 196  -260.0067
 197  -177.4513
 198  -445.0157
 199  -356.4488
 200  -337.3135
 201  -258.0191
 202  -226.0145
 203  -387.5014
 204  -313.6706
 205  45.08839
 206  -120.0281
 207  -195.6931
 208  -258.1538
 209  -504.6939
 210  -137.0143
 211  -185.7289
 212  -381.006
 213  -295.2168
 214  4.767773
 215  -66.55197
 216  -120.8871
 217  -1.901517
 218  -155.8123
 219  -83.01066
 220  20.0522
 221  -28.77781
 222  264.3443
 223  156.2654
 224  474.2613
 225  336.1848
 226  304.455
 227  501.1231
 228  457.4488
 229  363.456
 230  286.8651
 231  894.5513
 232  1053.927
 233  1507.008
 234  1570.334
 235  1503.671
 236  944.468
 237  529.6398
 238  357.919
 239  -6.460139
 240  402.2652
 241  761.3051
 242  510.2749
 243  306.6513
 244  576.2867
 245  3.156175
 246  128.2084
 247  355.6553
 248  234.9399
 249  236.8664
 250  304.184
 251  441.3615
 252  265.7358
 253  -76.44646
 254  76.24789
 255  95.93476
 256  -15.86554
 257  -96.3644
 258  -8.382965
 259  451.1087
 260  579.007
 261  633.5617
 262  169.2467
 263  295.2363
 264  80.20337
 265  -35.2029
 266  -150.3465
 267  416.8839
 268  350.5634
 269  -123.3543
 270  144.1214
 271  -32.98306
 272  -123.0537
 273  -475.2353
 274  -193.9888
 275  587.9277
 276  428.3804
 277  283.0887
 278  123.857
 279  366.2319
 280  319.2755
 281  155.1528
 282  406.9002
 283  160.0519
 284  148.4617
 285  -78.43264
 286  41.59205
 287  -165.755
 288  111.6691
 289  37.1647
 290  81.34463
 291  381.38
 292  118.2974
 293  -67.18157
 294  -197.1319
 295  19.29094
 296  -13.13476
 297  -115.4989
 298  -78.3241
 299  -174.7068
 300  221.9202
 301  248.4208
 302  -167.8485
 303  -6.868272
 304  44.89428
 305  -230.7618
 306  -388.6954
 307  364.5987
 308  329.4835
 309  303.3986
 310  273.6487
 311  27.84335
 312  -96.96076
 313  -61.05194
 314  -148.1152
 315  -376.8323
 316  -122.2478
 317  113.5789
 318  -69.3461
 319  -401.3358
 320  -491.0477
 321  -441.0442
 322  -402.9708
 323  84.67074
 324  -9.359362
 325  -120.0261
 326  -35.12444
 327  -21.65671
 328  -217.8901
 329  -85.41233
 330  182.656
 331  -201.3394
 332  57.28967
 333  -599.2456
 334  -147.414
 335  -16.32444
 336  74.65138
 337  -285.032
 338  -539.7103
 339  -341.7999
 340  -170.1128
 341  30.64195
 342  263.3888
 343  -96.13645
 344  -32.35412
 345  -74.04797
 346  -260.2501
 347  -121.3881
 348  -105.0672
 349  170.3294
 350  485.2943
 351  500.328
 352  114.1089
 353  110.7314
 354  -56.59447
 355  90.21512
 356  -126.5707
 357  -299.3594
 358  167.9954
 359  159.8898
 360  115.4564
 361  -194.0318
 362  -325.5597
 363  -185.6456
 364  -344.2965
 365  -82.36491
 366  257.061
 367  483.3932
 368  62.50495
 369  -7.704143
 370  -210.8612
 371  -519.7583
 372  -52.85938
 373  158.105
 374  535.7021
 375  -62.70309
 376  178.0815
 377  74.79051
 378  -286.8141
 379  159.566
 380  -64.0574
 381  200.6586
 382  294.1108
 383  -94.17548
 384  -513.4271
 385  -478.2179
 386  -539.8914
 387  -373.0467
 388  186.939
 389  165.6944
 390  31.69794
 391  0.8391259
 392  -34.27112
 393  -82.70932
 394  -149.7862
 395  63.53109
 396  93.55056
 397  247.057
 398  265.2275
 399  296.9424
 400  238.2705
 401  -21.1443
 402  100.8395
 403  207.1163
 404  -9.144114
 405  -112.3797
 406  71.40948
 407  159.8217
 408  -21.97918
 409  -240.2575
 410  -87.63096
 411  9.141479
 412  -98.77724
 413  -133.5769
 414  184.9171
 415  453.0955
 416  490.5986
 417  550.313
 418  736.8812
 419  560.5833
 420  -49.87655
 421  44.1306
 422  445.4308
 423  416.7769
 424  243.7534
 425  241.9879
 426  652.7622
 427  477.1273
 428  -125.7076
 429  81.22153
 430  213.5973
 431  433.3293
 432  406.1973
 433  583.6182
 434  552.9501
 435  153.808
 436  406.8499
 437  191.4277
 438  97.96309
 439  536.5255
 440  471.9536
 441  202.4773
 442  93.47
 443  13.79395
 444  43.97025
 445  245.9111
 446  346.3912
 447  304.1025
 448  554.3767
 449  580.2142
 450  261.4886
 451  16.82653
 452  43.43749
 453  187.7183
 454  -167.7094
 455  64.69524
 456  -35.21124
 457  299.3662
 458  345.8398
 459  204.581
 460  263.1382
 461  111.7804
 462  -13.14386
 463  189.9651
 464  93.29596
 465  -29.17469
 466  0.5392538
 467  303.9738
 468  -90.72068
 469  -109.2279
 470  133.5599
 471  105.5285
 472  -144.0831
 473  -289.8327
 474  140.6204
 475  38.16475
 476  -337.913
 477  -160.9762
 478  -151.4975
 479  -610.2368
 480  -465.4748
 481  -424.6125
 482  -389.623
 483  -352.6497
 484  -86.99016
 485  -11.99741
 486  -453.2488
 487  -29.3038
 488  -100.4135
 489  -181.1066
 490  157.4468
 491  -296.9676
 492  -215.7314
 493  -79.82149
 494  -185.2207
 495  40.10468
 496  7.179945
 497  -64.54821
 498  -233.1368
 499  -84.58253
 500  -242.8085
 501  -275.8576
 502  -486.3919
 503  -491.438
 504  -242.0084
 505  -56.87413
 506  -112.1616
 507  -397.6738
 508  -298.492
 509  -100.0015
 510  -101.888
 511  -42.96706
