# Input file       =  1212734494.117161_cleaned.dat
# Candidate        =  PSR_0332+5434
# Telescope        =  AR
# Epoch_topo       =  58280.279087004179
# Epoch_bary       =  N/A
# T_sample         =  0.002
# Data Folded      =  7340032
# Data Avg         =  0.0357483278363578
# Data StdDev      =  1.00003969180383 
# Profile Bins     =  512
# Profile Avg      =  512.459916145083 
# Profile StdDev   =  119.737788796958 
# Reduced chi-sqr  =  1.189
# Prob(Noise)      <  0.00204   (~2.9 sigma)
# P_topo (ms)      =  714.507027747936  +/- 0.000495
# P'_topo (s/s)    =  -0                +/- 2.61e-10
# P''_topo (s/s^2) =  0                 +/- 1.15e-13
# P_bary (ms)      =  N/A
# P'_bary (s/s)    =  N/A
# P''_bary (s/s^2) =  N/A
# P_orb (s)        =  N/A
# asin(i)/c (s)    =  N/A
# eccentricity     =  N/A
# w (rad)          =  N/A
# T_peri           =  N/A
######################################################
   0  1072.279
   1  1094.962
   2  769.0399
   3  582.0076
   4  563.788
   5  590.1124
   6  543.4633
   7  444.6555
   8  541.6635
   9  584.9199
  10  579.5322
  11  671.4578
  12  736.6356
  13  629.4747
  14  627.8113
  15  667.7534
  16  583.4141
  17  463.2836
  18  404.96
  19  511.8613
  20  493.9508
  21  547.7323
  22  525.7618
  23  546.2061
  24  595.2162
  25  400.4185
  26  444.6587
  27  500.1817
  28  482.5571
  29  459.6556
  30  544.2479
  31  574.4722
  32  552.7466
  33  415.6912
  34  499.4323
  35  682.7628
  36  700.4438
  37  592.702
  38  568.6267
  39  663.285
  40  562.1182
  41  593.3353
  42  572.1994
  43  570.7014
  44  596.5009
  45  541.0964
  46  510.0121
  47  536.9928
  48  580.7065
  49  492.097
  50  489.6607
  51  538.1166
  52  468.8949
  53  450.8911
  54  575.9478
  55  496.4478
  56  543.2151
  57  567.2044
  58  577.122
  59  558.1578
  60  504.8152
  61  500.715
  62  422.5362
  63  467.6547
  64  529.205
  65  458.8434
  66  411.5755
  67  384.7712
  68  463.56
  69  542.6735
  70  552.3903
  71  556.4255
  72  594.02
  73  495.769
  74  503.7549
  75  569.6622
  76  536.1488
  77  568.6777
  78  524.8228
  79  492.3613
  80  593.1371
  81  534.6815
  82  471.7755
  83  359.8982
  84  489.0159
  85  648.7557
  86  565.032
  87  404.7538
  88  591.3987
  89  560.052
  90  528.2939
  91  528.814
  92  606.6376
  93  537.8424
  94  603.1718
  95  659.7078
  96  549.0532
  97  460.0481
  98  537.2225
  99  541.7433
 100  559.1368
 101  580.2818
 102  593.2733
 103  463.7718
 104  417.9397
 105  402.3913
 106  480.8159
 107  578.3837
 108  551.7756
 109  562.7009
 110  509.5112
 111  453.5731
 112  431.7784
 113  353.4844
 114  525.5418
 115  456.0735
 116  408.0617
 117  349.4026
 118  488.6782
 119  620.4874
 120  551.5527
 121  513.8817
 122  476.8416
 123  414.8459
 124  385.3109
 125  533.4967
 126  433.8432
 127  436.2963
 128  414.2855
 129  395.1448
 130  479.6739
 131  496.6214
 132  453.8042
 133  504.9571
 134  449.0953
 135  413.309
 136  424.5829
 137  506.5809
 138  451.0316
 139  444.2764
 140  468.5236
 141  467.0755
 142  453.1907
 143  456.4033
 144  528.7612
 145  620.1644
 146  432.2525
 147  338.0759
 148  360.7312
 149  428.7896
 150  482.0064
 151  395.2997
 152  299.9094
 153  390.1755
 154  380.3819
 155  401.8439
 156  281.7101
 157  379.8426
 158  471.3653
 159  442.0143
 160  424.8573
 161  399.8983
 162  445.1402
 163  482.0658
 164  393.2408
 165  355.9447
 166  452.5225
 167  512.6729
 168  539.6971
 169  583.0684
 170  507.8839
 171  446.9167
 172  472.9597
 173  472.4353
 174  497.7918
 175  424.5849
 176  397.3427
 177  461.0962
 178  511.3504
 179  553.7786
 180  544.8696
 181  512.1408
 182  388.9004
 183  503.8457
 184  451.1819
 185  437.5136
 186  478.7899
 187  492.0766
 188  495.7089
 189  522.3353
 190  508.0496
 191  433.4517
 192  396.181
 193  407.5152
 194  493.0248
 195  399.4827
 196  472.7161
 197  433.3232
 198  433.6515
 199  465.4943
 200  445.3348
 201  429.837
 202  524.7794
 203  552.4554
 204  574.896
 205  562.6185
 206  504.5464
 207  461.2471
 208  542.1219
 209  560.769
 210  414.095
 211  498.487
 212  522.5737
 213  473.8156
 214  441.7247
 215  435.3425
 216  478.5251
 217  435.6249
 218  528.5482
 219  528.112
 220  505.9828
 221  489.4734
 222  397.5628
 223  431.7395
 224  388.9409
 225  379.5149
 226  415.8675
 227  402.7107
 228  317.9914
 229  392.6461
 230  483.4167
 231  465.3337
 232  342.5012
 233  360.6359
 234  433.3391
 235  564.7745
 236  443.856
 237  346.7433
 238  489.9541
 239  530.154
 240  448.0905
 241  349.9356
 242  318.2738
 243  457.1295
 244  418.8806
 245  509.3101
 246  594.3315
 247  551.5317
 248  498.1603
 249  488.843
 250  387.2471
 251  417.5731
 252  443.9818
 253  506.989
 254  468.3107
 255  464.2667
 256  516.4263
 257  539.5403
 258  599.4844
 259  495.0393
 260  452.9117
 261  511.9991
 262  548.387
 263  567.9795
 264  500.7261
 265  376.8764
 266  390.8668
 267  410.3333
 268  508.8841
 269  552.7659
 270  510.6347
 271  527.8549
 272  493.501
 273  476.6865
 274  445.5406
 275  412.0825
 276  428.9347
 277  369.3473
 278  370.4174
 279  474.4188
 280  568.7901
 281  498.0571
 282  381.1938
 283  372.4025
 284  346.2462
 285  411.5841
 286  452.3418
 287  501.0567
 288  552.8647
 289  659.2506
 290  523.9813
 291  415.1389
 292  487.7689
 293  552.9073
 294  595.046
 295  570.8214
 296  500.4935
 297  455.965
 298  448.6872
 299  521.3051
 300  515.3692
 301  550.0488
 302  509.4337
 303  522.5732
 304  534.5706
 305  596.6324
 306  603.7386
 307  602.8091
 308  545.3007
 309  481.9027
 310  516.6525
 311  559.0365
 312  599.1673
 313  596.9728
 314  601.7049
 315  584.7656
 316  615.0275
 317  582.7787
 318  588.8732
 319  641.4974
 320  536.2263
 321  543.3751
 322  654.2173
 323  614.9882
 324  539.4537
 325  648.0988
 326  564.9661
 327  488.4666
 328  450.9224
 329  551.8106
 330  706.212
 331  673.5817
 332  654.2313
 333  598.8643
 334  509.125
 335  458.1592
 336  549.9022
 337  567.1352
 338  565.5969
 339  523.1363
 340  482.106
 341  457.8738
 342  490.3242
 343  556.6815
 344  660.8008
 345  537.3585
 346  616.6844
 347  630.9149
 348  513.301
 349  549.8516
 350  705.5701
 351  571.8403
 352  420.6288
 353  533.687
 354  617.2269
 355  619.2096
 356  501.8936
 357  369.6714
 358  360.1341
 359  393.9518
 360  405.1723
 361  489.731
 362  579.2551
 363  629.1569
 364  480.3831
 365  508.7993
 366  588.2863
 367  434.4523
 368  332.3378
 369  454.9143
 370  533.6138
 371  512.0845
 372  515.4213
 373  504.4243
 374  414.48
 375  518.559
 376  527.2916
 377  506.8469
 378  503.0966
 379  626.2044
 380  667.618
 381  451.0593
 382  491.3745
 383  529.742
 384  579.3076
 385  489.1072
 386  555.4115
 387  536.8216
 388  624.2872
 389  593.3798
 390  621.3329
 391  527.3298
 392  403.2706
 393  403.8267
 394  572.92
 395  565.916
 396  635.8636
 397  510.9977
 398  432.9562
 399  564.0531
 400  749.928
 401  596.2683
 402  509.6444
 403  561.7809
 404  561.0856
 405  542.9367
 406  513.5983
 407  381.7237
 408  419.409
 409  497.1649
 410  586.7071
 411  613.3846
 412  472.392
 413  433.1551
 414  522.3016
 415  519.8282
 416  555.2614
 417  522.8188
 418  557.9234
 419  620.4468
 420  566.8232
 421  551.6872
 422  524.4324
 423  518.0132
 424  448.3947
 425  471.5529
 426  536.2551
 427  520.326
 428  378.8933
 429  474.6929
 430  590.9229
 431  519.1074
 432  444.0876
 433  479.5986
 434  437.9604
 435  466.9113
 436  393.706
 437  408.9099
 438  462.7654
 439  406.7081
 440  466.6523
 441  418.1521
 442  485.96
 443  476.6808
 444  478.2672
 445  471.4714
 446  381.5565
 447  534.7682
 448  449.336
 449  336.1212
 450  358.0247
 451  495.2938
 452  489.5066
 453  400.7774
 454  512.9668
 455  563.8438
 456  454.2665
 457  528.8245
 458  465.0306
 459  476.8889
 460  457.1012
 461  419.6395
 462  550.7634
 463  547.6844
 464  536.6265
 465  553.313
 466  516.8114
 467  598.1469
 468  544.335
 469  491.209
 470  481.4714
 471  503.6148
 472  456.6907
 473  622.8448
 474  571.9905
 475  552.424
 476  495.2087
 477  407.7108
 478  462.8864
 479  537.4985
 480  585.5546
 481  518.5949
 482  505.6825
 483  555.5472
 484  585.7341
 485  507.4967
 486  536.2321
 487  589.3194
 488  580.3711
 489  607.5793
 490  585.2688
 491  597.0891
 492  653.1537
 493  603.8611
 494  578.1317
 495  549.1849
 496  592.5045
 497  541.0271
 498  551.6428
 499  591.4136
 500  553.0089
 501  501.1504
 502  575.9499
 503  627.8295
 504  619.2506
 505  661.8481
 506  665.4855
 507  723.4025
 508  757.4624
 509  953.405
 510  957.5991
 511  1021.546
