# Input file       =  1212648328.110973_cleaned.dat
# Candidate        =  PSR_0332+5434
# Telescope        =  AR
# Epoch_topo       =  58279.281795265888
# Epoch_bary       =  N/A
# T_sample         =  0.002
# Data Folded      =  7340032
# Data Avg         =  -0.075089584867654
# Data StdDev      =  4.82528922764833 
# Profile Bins     =  256
# Profile Avg      =  -2153.18231943819
# Profile StdDev   =  817.05697922025  
# Reduced chi-sqr  =  1.001
# Prob(Noise)      <  0.486   (~0.0 sigma)
# P_topo (ms)      =  714.507978964807  +/- 0.000432
# P'_topo (s/s)    =  -0                +/- 2.28e-10
# P''_topo (s/s^2) =  0                 +/- 1.01e-13
# P_bary (ms)      =  N/A
# P'_bary (s/s)    =  N/A
# P''_bary (s/s^2) =  N/A
# P_orb (s)        =  N/A
# asin(i)/c (s)    =  N/A
# eccentricity     =  N/A
# w (rad)          =  N/A
# T_peri           =  N/A
######################################################
   0  -2363.3
   1  -1878.339
   2  -2016.094
   3  -1920.776
   4  -2261.102
   5  -3129.367
   6  -2370.978
   7  -2682.232
   8  -3736.783
   9  -2716.203
  10  -2363.122
  11  -1349.018
  12  -1899.39
  13  -1246.115
  14  -1989.94
  15  -1769.905
  16  -1478.092
  17  -2129.915
  18  -3061.349
  19  -1696.722
  20  -1532.48
  21  -2521.978
  22  -929.5491
  23  -1349.501
  24  -2235.575
  25  -1828.84
  26  -1712.645
  27  -1804.898
  28  -1295.437
  29  -1556.054
  30  -2109.004
  31  -1994.685
  32  -1740.969
  33  -1960.341
  34  -1019.126
  35  -2012.314
  36  -2597.857
  37  -2199.695
  38  -2371.571
  39  -2942.564
  40  -2521.385
  41  -1299.862
  42  -1504.445
  43  -1351.544
  44  -1755.27
  45  -1353.795
  46  -1934.298
  47  -1811.605
  48  -2393.359
  49  -1951.756
  50  -2865.838
  51  -1894.531
  52  -1543.079
  53  -2366.774
  54  -1901.751
  55  -2544.42
  56  -3039.973
  57  -1821.631
  58  -2642.681
  59  -2236.366
  60  -2152.595
  61  -2014.242
  62  -1825.599
  63  -1300.432
  64  -1491.391
  65  -1535.866
  66  -2281.741
  67  -2455.001
  68  -1665.821
  69  -1746.77
  70  -1367.402
  71  -2292.112
  72  -25.1414
  73  -1675.861
  74  -2068.25
  75  -2468.886
  76  -1246.538
  77  -2622.946
  78  -2133.444
  79  -2225.608
  80  -2554.212
  81  -2628.043
  82  -1035.978
  83  -2635.977
  84  -2540.491
  85  -2544.034
  86  -1922.693
  87  -2002.005
  88  -2260.072
  89  -1924.998
  90  -1558.596
  91  -1813.373
  92  -2970.706
  93  -1782.943
  94  -1979.316
  95  -1572.942
  96  -2447.035
  97  -1568.651
  98  -1442.979
  99  -2353.863
 100  -1879.089
 101  -2302.572
 102  -1699.655
 103  -2052.474
 104  -2558.713
 105  -918.3412
 106  -812.7479
 107  -806.1356
 108  -1733.007
 109  -1987.053
 110  -2771.534
 111  -2278.898
 112  -3319.999
 113  -2943.08
 114  -3025.212
 115  -3156.007
 116  -3240.177
 117  -2950.145
 118  -2866.332
 119  -3111.468
 120  -2116.681
 121  -3352.912
 122  -3295.945
 123  -2558.631
 124  -2962.39
 125  -2708.981
 126  -2640.149
 127  -1631.769
 128  -2024.785
 129  -2452.838
 130  -2543.662
 131  -2090.894
 132  -2197.265
 133  -2540.528
 134  -2312.17
 135  -1710.575
 136  -1649.163
 137  -1652.498
 138  -1833.83
 139  -2261.782
 140  -2097.597
 141  -1983.221
 142  -2751.015
 143  -1912.6
 144  -1877.08
 145  -2077.105
 146  -1013.5
 147  -299.3277
 148  1159.064
 149  1786.397
 150  463.1416
 151  -1500.563
 152  -2236.835
 153  -3016.719
 154  -1820.054
 155  -1588.535
 156  -1388.662
 157  -2053.011
 158  -2425.135
 159  -2583.606
 160  -2575.446
 161  -2313.306
 162  -3169.116
 163  -3854.219
 164  -2997.521
 165  -2111.472
 166  -2150.302
 167  -3171.424
 168  -2232.65
 169  -2305.779
 170  -2667.15
 171  -2920.86
 172  -2316.05
 173  -2775.006
 174  -1966.194
 175  -2569.336
 176  -2557.913
 177  -2385.304
 178  -2463.902
 179  -3286.798
 180  -2536.406
 181  -2626.501
 182  -3390.414
 183  -2982.521
 184  -1939.491
 185  -2851.149
 186  -3039.239
 187  -1369.69
 188  -1646.378
 189  -2129.713
 190  -2327.766
 191  -2135.756
 192  -2788.559
 193  -2022.152
 194  -2616.455
 195  -2845.812
 196  -2084.875
 197  -1814.072
 198  -2340.778
 199  -1912.134
 200  -2033.661
 201  -2402.049
 202  -1515.428
 203  -1907.441
 204  -2010.694
 205  -1278.004
 206  -835.2466
 207  -1161.569
 208  -1372.166
 209  -2010.184
 210  -1940.122
 211  -1695.852
 212  -2221.938
 213  -2581.811
 214  -1521.404
 215  -1737.411
 216  -2433.134
 217  -1988.286
 218  -2413.44
 219  -2849.212
 220  -3014.958
 221  -2684.94
 222  -1825.424
 223  -2400.837
 224  -2853.667
 225  -2969.207
 226  -2857.751
 227  -2523.601
 228  -2092.225
 229  -3417.063
 230  -3104.434
 231  -2726.544
 232  -2095.165
 233  -3060.974
 234  -2486.715
 235  -1462.426
 236  -1785.81
 237  -1723.516
 238  -1407.389
 239  -2438.79
 240  -2071.776
 241  -2130.969
 242  -3296.152
 243  -3140.168
 244  -2194.02
 245  -2610.201
 246  -3340.439
 247  -2422.068
 248  -2558.661
 249  -2828.319
 250  -2007.111
 251  -2681.614
 252  -2696.802
 253  -2357.286
 254  -2805.296
 255  -2234.91
