# Input file       =  1212030580.120176_cleaned.dat
# Candidate        =  PSR_0332+5434
# Telescope        =  AR
# Epoch_topo       =  58272.131934261299
# Epoch_bary       =  N/A
# T_sample         =  0.002
# Data Folded      =  7208960
# Data Avg         =  1.52737126975765 
# Data StdDev      =  15.9382474467922 
# Profile Bins     =  256
# Profile Avg      =  43010.9859661821 
# Profile StdDev   =  2674.58799144335 
# Reduced chi-sqr  =  1.139
# Prob(Noise)      <  0.063   (~1.5 sigma)
# P_topo (ms)      =  714.514858342311  +/- 3.46e-05
# P'_topo (s/s)    =  -0                +/- 1.86e-11
# P''_topo (s/s^2) =  0                 +/- 8.35e-15
# P_bary (ms)      =  N/A
# P'_bary (s/s)    =  N/A
# P''_bary (s/s^2) =  N/A
# P_orb (s)        =  N/A
# asin(i)/c (s)    =  N/A
# eccentricity     =  N/A
# w (rad)          =  N/A
# T_peri           =  N/A
######################################################
   0  42416.36
   1  41509.37
   2  45134.48
   3  44019.45
   4  36285.2
   5  41020.72
   6  44488.04
   7  41897.2
   8  42784.13
   9  45466.19
  10  43332.94
  11  38767.81
  12  44005.8
  13  47098.48
  14  40825.89
  15  39092.39
  16  42554.16
  17  43380.28
  18  39965.43
  19  42859.21
  20  41917.66
  21  41423.26
  22  47461.77
  23  51629.08
  24  46635.8
  25  42689.03
  26  45788.71
  27  45648.65
  28  38912.89
  29  42578.55
  30  47683.99
  31  43495.5
  32  42938.18
  33  45249.61
  34  46159.09
  35  42791.91
  36  42915.97
  37  44579.66
  38  40278.71
  39  44559.87
  40  45201.14
  41  41433.72
  42  40551.4
  43  45707.07
  44  42916.78
  45  41319.88
  46  42511.63
  47  44246.98
  48  44060.18
  49  44657.61
  50  43061.09
  51  41905.91
  52  41165.51
  53  43838.48
  54  44839.98
  55  40179.51
  56  42049.19
  57  43140.41
  58  45120.71
  59  43799.9
  60  44876.9
  61  45737.04
  62  43703.57
  63  39846.05
  64  43216.22
  65  41843.57
  66  38899.87
  67  45606.93
  68  44334.45
  69  39935.89
  70  44227.67
  71  43330.23
  72  41672.69
  73  42869.47
  74  42914.24
  75  42554.15
  76  41629.01
  77  38336.11
  78  40778.98
  79  38324.94
  80  41203.54
  81  44656.99
  82  41067.67
  83  42315.82
  84  47790.33
  85  45112.14
  86  41027.59
  87  43564.72
  88  43397.35
  89  45622.52
  90  41404.03
  91  43554.8
  92  45626.59
  93  42422.84
  94  42336.82
  95  46071.85
  96  42814.64
  97  46463.14
  98  45936.85
  99  42019.53
 100  40545.41
 101  42159.32
 102  40803.35
 103  36789.98
 104  36226.18
 105  43060.45
 106  42545.47
 107  39181.41
 108  41686.54
 109  45446.37
 110  39909.84
 111  40956.98
 112  46408.18
 113  44863.4
 114  40965.44
 115  37683.27
 116  38556.5
 117  38876.71
 118  41506.69
 119  43187.79
 120  40027.72
 121  42615.27
 122  44865.95
 123  44301.16
 124  43629.37
 125  47869.98
 126  46637.91
 127  42901.75
 128  45440.02
 129  42846.64
 130  43542.5
 131  42788.34
 132  43992.77
 133  44456.64
 134  39598.2
 135  42580.87
 136  45883.03
 137  40051.65
 138  43780.9
 139  49353.99
 140  45382.27
 141  42426.91
 142  43768.49
 143  43173.04
 144  38678.54
 145  41918.95
 146  42729.29
 147  43772.93
 148  42522.74
 149  48313.54
 150  47027.9
 151  43472.81
 152  44114.77
 153  41638.15
 154  40854.78
 155  45412.44
 156  44355.02
 157  41769.43
 158  42399.54
 159  43807.59
 160  41919.55
 161  38245.29
 162  44080.29
 163  44718.45
 164  41678.49
 165  41446.24
 166  41575.47
 167  43669.8
 168  42241.95
 169  44561.45
 170  43487.5
 171  43145.22
 172  40762.66
 173  42781.11
 174  42660.82
 175  39936.9
 176  43870.49
 177  43848.7
 178  42462.49
 179  43240.95
 180  45207.99
 181  42645.28
 182  38327.09
 183  43407.84
 184  41797.73
 185  39150.11
 186  41217.97
 187  45371.8
 188  42717.11
 189  41443.77
 190  47054.16
 191  43874.7
 192  41878.08
 193  43913.43
 194  42801.23
 195  40978.89
 196  45340.87
 197  45907.04
 198  43857.68
 199  45616.69
 200  47988.2
 201  46007.06
 202  43365.04
 203  46200.52
 204  47795.88
 205  43112.13
 206  39749.83
 207  41618.75
 208  40386.28
 209  38353.77
 210  40996.58
 211  42794.33
 212  41801.6
 213  41162.05
 214  44767.24
 215  46447.01
 216  42088.32
 217  43121.01
 218  45429.09
 219  41148.21
 220  43200.65
 221  43357.68
 222  39900.72
 223  39300.6
 224  45266.21
 225  44587.11
 226  41129.03
 227  44005.47
 228  46532.75
 229  42917.2
 230  45042.52
 231  46348.86
 232  47088.5
 233  41543.84
 234  41923.46
 235  44540.48
 236  37319.59
 237  40718.38
 238  43371.46
 239  40635.75
 240  42025.23
 241  43627.5
 242  44598.55
 243  37730.09
 244  42502.17
 245  46845.72
 246  44956.34
 247  44643.79
 248  48477.77
 249  46609.78
 250  40955.33
 251  42827.94
 252  42778.55
 253  39299.43
 254  42143.08
 255  45825.39
