# Input file       =  1212734494.117161_cleaned.dat
# Candidate        =  PSR_0332+5434
# Telescope        =  AR
# Epoch_topo       =  58280.279087004179
# Epoch_bary       =  N/A
# T_sample         =  0.002
# Data Folded      =  7340032
# Data Avg         =  0.0357483278363578
# Data StdDev      =  1.00003969180383 
# Profile Bins     =  512
# Profile Avg      =  512.459936402741 
# Profile StdDev   =  119.737788796958 
# Reduced chi-sqr  =  1.189
# Prob(Noise)      <  0.00205   (~2.9 sigma)
# P_topo (ms)      =  714.507028445226  +/- 0.000495
# P'_topo (s/s)    =  -0                +/- 2.61e-10
# P''_topo (s/s^2) =  0                 +/- 1.15e-13
# P_bary (ms)      =  N/A
# P'_bary (s/s)    =  N/A
# P''_bary (s/s^2) =  N/A
# P_orb (s)        =  N/A
# asin(i)/c (s)    =  N/A
# eccentricity     =  N/A
# w (rad)          =  N/A
# T_peri           =  N/A
######################################################
   0  479.5816
   1  453.2336
   2  425.6515
   3  557.5928
   4  540.9633
   5  542.3096
   6  549.8979
   7  517.1387
   8  604.1223
   9  534.7021
  10  492.929
  11  480.3046
  12  503.0488
  13  460.0949
  14  629.4628
  15  564.9567
  16  551.8275
  17  489.5394
  18  404.5294
  19  468.0823
  20  544.6165
  21  581.9398
  22  517.3447
  23  505.0027
  24  562.1638
  25  579.233
  26  505.0034
  27  542.9269
  28  591.9838
  29  579.7112
  30  609.6868
  31  580.4875
  32  603.4171
  33  651.495
  34  601.5223
  35  577.4604
  36  547.9968
  37  594.1934
  38  534.7978
  39  554.5286
  40  591.6017
  41  551.4341
  42  504.2215
  43  579.1537
  44  630.3123
  45  615.9406
  46  665.1168
  47  664.8864
  48  728.1821
  49  764.9695
  50  959.8924
  51  958.8587
  52  1021.994
  53  1078.536
  54  1084.998
  55  747.0599
  56  583.4796
  57  563.9667
  58  589.6448
  59  538.0909
  60  442.7914
  61  550.8762
  62  582.5604
  63  583.4584
  64  674.1005
  65  735.9904
  66  622.3859
  67  633.4733
  68  666.5927
  69  576.91
  70  453.1684
  71  412.2775
  72  515.5233
  73  492.7879
  74  548.4492
  75  526.1884
  76  548.2651
  77  591.246
  78  394.0661
  79  452.3716
  80  497.9585
  81  482.1545
  82  460.2669
  83  548.2776
  84  577.4607
  85  542.9207
  86  415.1266
  87  509.0581
  88  689.8051
  89  697.3026
  90  582.0502
  91  578.0709
  92  662.5908
  93  560.2885
  94  591.5479
  95  572.1192
  96  573.9784
  97  593.5049
  98  538.2679
  99  508.1187
 100  541.1804
 101  580.1084
 102  487.4522
 103  493.1862
 104  539.4196
 105  462.9645
 106  457.5258
 107  574.3057
 108  496.6924
 109  543.4786
 110  567.9287
 111  576.8993
 112  555.2045
 113  502.9268
 114  499.613
 115  419.9771
 116  474.7895
 117  527.7156
 118  453.16
 119  410.9792
 120  382.9674
 121  472.936
 122  543.3729
 123  552.8498
 124  556.6622
 125  592.3694
 126  492.4235
 127  504.8993
 128  574.5332
 129  535.1549
 130  569.2974
 131  519.9421
 132  494.9486
 133  595.5663
 134  530.3858
 135  467.5363
 136  358.9851
 137  500.6297
 138  653.9599
 139  549.4259
 140  410.9193
 141  595.6586
 142  554.3184
 143  526.6207
 144  531.9316
 145  607.8093
 146  538.3177
 147  609.2755
 148  658.7897
 149  536.4476
 150  464.0883
 151  535.613
 152  544.1423
 153  559.4238
 154  583.5874
 155  592.577
 156  457.0858
 157  416.5258
 158  401.9913
 159  487.2747
 160  578.6101
 161  549.8787
 162  565.3719
 163  504.3474
 164  454.6043
 165  423.9446
 166  360.8711
 167  529.3856
 168  451.9576
 169  403.8912
 170  349.8639
 171  499.7771
 172  618.5713
 173  550.4621
 174  512.4294
 175  474.2088
 176  412.0536
 177  387.356
 178  539.6704
 179  424.5753
 180  436.5688
 181  414.4079
 182  397.2836
 183  485.5938
 184  493.5077
 185  452.9453
 186  506.8477
 187  444.9601
 188  409.1599
 189  430.0505
 190  511.3899
 191  444.0315
 192  447.0939
 193  466.7112
 194  468.5786
 195  452.0849
 196  456.6545
 197  537.0234
 198  618.5021
 199  420.1957
 200  338.176
 201  362.1767
 202  435.2086
 203  480.0747
 204  387.0698
 205  301.6595
 206  392.7305
 207  382.205
 208  395.5008
 209  278.0167
 210  391.3714
 211  472.6157
 212  437.5172
 213  426.3501
 214  399.2947
 215  448.6573
 216  478.3578
 217  387.6959
 218  360.7135
 219  460.1057
 220  512.3683
 221  540.5182
 222  585.0632
 223  499.4698
 224  449.8482
 225  469.898
 226  474.7236
 227  495.7251
 228  423.593
 229  402.7725
 230  461.724
 231  513.2482
 232  554.0068
 233  546.8207
 234  503.8
 235  389.5168
 236  508.4071
 237  447.0728
 238  438.5109
 239  481.1018
 240  490.7227
 241  496.092
 242  523.6533
 243  503.9915
 244  430.7914
 245  394.6207
 246  414.8097
 247  487.8308
 248  398.2402
 249  474.9872
 250  430.8383
 251  440.793
 252  461.5075
 253  443.2657
 254  431.9011
 255  530.2589
 256  552.6979
 257  577.3565
 258  557.6477
 259  502.6308
 260  460.0215
 261  552.8377
 262  552.3196
 263  410.5379
 264  504.7441
 265  519.8745
 266  472.6507
 267  439.7538
 268  440.6443
 269  474.4502
 270  437.7531
 271  531.4206
 272  527.3239
 273  504.3203
 274  485.6579
 275  396.5949
 276  431.1142
 277  388.2774
 278  382.3691
 279  416.1058
 280  395.9473
 281  316.3978
 282  399.5645
 283  487.8099
 284  458.8763
 285  340.0253
 286  361.9243
 287  441.4749
 288  566.9103
 289  429.62
 290  356.3561
 291  495.7157
 292  525.3657
 293  447.9179
 294  338.2258
 295  327.1326
 296  457.8892
 297  416.3886
 298  519.3574
 299  593.2556
 300  548.8818
 301  498.2447
 302  485.1329
 303  384.3484
 304  421.5235
 305  446.1924
 306  507.7089
 307  464.59
 308  466.6522
 309  519.1578
 310  541.9721
 311  598.504
 312  485.9067
 313  458.2602
 314  513.1377
 315  550.7371
 316  570.2831
 317  487.4731
 318  377.7716
 319  389.4518
 320  416.2
 321  516.3284
 322  552.5157
 323  507.3202
 324  526.1076
 325  488.3112
 326  481.9551
 327  440.0639
 328  413.8837
 329  430.3884
 330  362.2431
 331  379.0083
 332  475.8586
 333  573.1764
 334  486.6248
 335  380.3371
 336  371.3498
 337  346.4386
 338  414.5136
 339  455.4295
 340  505.519
 341  558.6812
 342  657.8289
 343  514.2632
 344  412.0991
 345  493.0849
 346  559.4478
 347  594.7281
 348  566.8293
 349  498.5701
 350  453.2105
 351  455.2622
 352  517.92
 353  518.6569
 354  547.1473
 355  509.4514
 356  523.6272
 357  536.2179
 358  601.39
 359  602.0263
 360  603.9568
 361  536.2965
 362  482.3842
 363  519.7638
 364  561.7184
 365  601.0365
 366  595.5201
 367  598.977
 368  587.6917
 369  617.5683
 370  578.1042
 371  593.8909
 372  636.2981
 373  534.4805
 374  545.1783
 375  660.7893
 376  606.0277
 377  546.2645
 378  648.9384
 379  558.2283
 380  486.9065
 381  448.1144
 382  564.8932
 383  708.1843
 384  670.8645
 385  651.8694
 386  597.7438
 387  499.5249
 388  462.9638
 389  551.4743
 390  567.5185
 391  560.2969
 392  525.6925
 393  477.1264
 394  461.7596
 395  489.3725
 396  568.1531
 397  655.4938
 398  536.5624
 399  623.3248
 400  622.9624
 401  509.5341
 402  560.7637
 403  706.2914
 404  558.8065
 405  419.9862
 406  545.226
 407  617.6714
 408  614.8754
 409  493.2346
 410  364.8265
 411  364.0431
 412  391.7238
 413  408.9557
 414  494.5074
 415  584.0359
 416  627.9747
 417  471.7814
 418  519.4818
 419  579.9019
 420  425.9667
 421  334.487
 422  463.3968
 423  532.7176
 424  511.9735
 425  518.3063
 426  499.3555
 427  416.4864
 428  521.8607
 429  524.4282
 430  504.4831
 431  510.4402
 432  632.5171
 433  659.8003
 434  443.5519
 435  496.23
 436  535.152
 437  574.1523
 438  487.8066
 439  556.9798
 440  540.5119
 441  624.5734
 442  596.0256
 443  619.7127
 444  519.7672
 445  396.2987
 446  413.425
 447  574.5023
 448  570.3558
 449  633.7849
 450  503.0766
 451  432.1906
 452  581.1182
 453  747.6052
 454  586.0822
 455  511.3263
 456  565.1182
 457  558.7753
 458  542.8562
 459  506.1222
 460  376.0811
 461  428.6021
 462  497.4636
 463  595.9593
 464  606.094
 465  466.0992
 466  437.0681
 467  523.6931
 468  521.5867
 469  554.7896
 470  523.0131
 471  561.3826
 472  621.0435
 473  564.3085
 474  550.2531
 475  524.8337
 476  515.8266
 477  445.8621
 478  475.2691
 479  538.1392
 480  513.4457
 481  376.18
 482  481.7103
 483  596.8063
 484  505.8873
 485  448.2057
 486  479.3586
 487  435.2859
 488  469.1401
 489  386.9097
 490  419.1367
 491  457.6696
 492  406.1173
 493  469.6574
 494  415.0994
 495  493.0999
 496  467.9586
 497  484.926
 498  464.3643
 499  387.4073
 500  539.0297
 501  437.5588
 502  334.2889
 503  363.7418
 504  500.8927
 505  483.3402
 506  403.6345
 507  521.5156
 508  560.5707
 509  452.6443
 510  528.8738
 511  459.2652
