# Input file       =  1212318657.113172_cleaned.dat
# Candidate        =  PSR_0332+5434
# Telescope        =  AR
# Epoch_topo       =  58275.466158717267
# Epoch_bary       =  N/A
# T_sample         =  0.002
# Data Folded      =  7340032
# Data Avg         =  0.0294822445399145
# Data StdDev      =  2.46613994682524 
# Profile Bins     =  256
# Profile Avg      =  844.953798416393 
# Profile StdDev   =  417.586751845225 
# Reduced chi-sqr  =  1.443
# Prob(Noise)      <  4.52e-06   (~4.4 sigma)
# P_topo (ms)      =  714.511977034157  +/- 0.000216
# P'_topo (s/s)    =  -0                +/- 1.14e-10
# P''_topo (s/s^2) =  0                 +/- 5.03e-14
# P_bary (ms)      =  N/A
# P'_bary (s/s)    =  N/A
# P''_bary (s/s^2) =  N/A
# P_orb (s)        =  N/A
# asin(i)/c (s)    =  N/A
# eccentricity     =  N/A
# w (rad)          =  N/A
# T_peri           =  N/A
######################################################
   0  1481.41
   1  1137.564
   2  1276.238
   3  768.5282
   4  714.4694
   5  1113.755
   6  1193.459
   7  705.7959
   8  762.599
   9  229.6559
  10  724.9411
  11  952.623
  12  588.4958
  13  645.6037
  14  393.8571
  15  535.4686
  16  121.1537
  17  324.0663
  18  779.218
  19  352.8247
  20  594.8537
  21  1071.071
  22  650.4797
  23  911.6413
  24  746.3663
  25  561.7353
  26  584.0696
  27  459.1645
  28  560.8124
  29  642.4884
  30  365.8947
  31  810.3214
  32  724.2441
  33  684.9944
  34  964.9392
  35  993.0061
  36  866.3715
  37  792.1956
  38  104.9776
  39  564.9541
  40  711.2579
  41  698.4977
  42  846.9213
  43  984.0045
  44  813.9305
  45  756.6706
  46  352.4507
  47  928.241
  48  996.564
  49  783.2682
  50  138.4633
  51  1430.625
  52  1246.378
  53  795.1874
  54  852.6978
  55  767.0756
  56  640.7859
  57  802.2032
  58  305.8007
  59  860.4633
  60  1268.767
  61  773.4953
  62  197.7359
  63  231.3719
  64  618.4636
  65  297.8759
  66  837.3513
  67  853.4364
  68  1476.778
  69  246.8414
  70  239.7482
  71  871.544
  72  1215.019
  73  866.1262
  74  1345.773
  75  881.5615
  76  597.6022
  77  985.3539
  78  1005.978
  79  1056.917
  80  993.0652
  81  1189.687
  82  832.5436
  83  797.153
  84  989.9768
  85  599.8176
  86  785.8727
  87  1006.249
  88  1428.845
  89  1470.445
  90  1213.572
  91  837.534
  92  1033.759
  93  962.6799
  94  772.7272
  95  874.0701
  96  580.9341
  97  763.7139
  98  612.7184
  99  -77.99129
 100  723.9604
 101  714.0038
 102  427.9358
 103  841.4178
 104  1213.826
 105  1075.463
 106  652.515
 107  239.2106
 108  685.4214
 109  982.069
 110  724.9429
 111  75.0814
 112  1171.226
 113  565.3783
 114  588.1769
 115  732.1271
 116  639.7693
 117  7.249195
 118  213.7934
 119  1029.385
 120  553.0032
 121  187.7365
 122  850.4789
 123  865.2688
 124  1020.962
 125  293.0328
 126  491.7649
 127  441.4099
 128  798.3197
 129  486.795
 130  677.8188
 131  297.6097
 132  33.23578
 133  917.5283
 134  957.4377
 135  1165.186
 136  639.4152
 137  581.3107
 138  627.2839
 139  823.5422
 140  660.7738
 141  620.1335
 142  705.187
 143  917.3351
 144  1313.284
 145  1080.025
 146  1660.222
 147  1646.328
 148  3015.464
 149  3767.374
 150  2662.374
 151  894.7135
 152  905.1415
 153  1484.428
 154  936.6105
 155  268.8509
 156  1181.455
 157  1198.815
 158  1241.814
 159  760.7614
 160  536.5532
 161  568.0989
 162  1351.302
 163  1285.74
 164  967.1646
 165  415.462
 166  888.9084
 167  698.7939
 168  520.5865
 169  32.40509
 170  1179.159
 171  1150.483
 172  1168.804
 173  754.4769
 174  821.8061
 175  1002.756
 176  982.6209
 177  1063.638
 178  1197.67
 179  877.627
 180  791.0936
 181  613.3062
 182  1036.137
 183  709.9905
 184  1170.5
 185  392.1883
 186  1526.923
 187  1403.178
 188  989.9657
 189  738.5207
 190  778.5529
 191  931.5769
 192  587.2385
 193  436.4222
 194  878.9852
 195  633.226
 196  723.2074
 197  1364.814
 198  994.0565
 199  325.4339
 200  1288.225
 201  467.124
 202  477.4995
 203  906.878
 204  879.5768
 205  929.6282
 206  751.0922
 207  1279.577
 208  1087.393
 209  1321.244
 210  947.9872
 211  484.9297
 212  689.0997
 213  394.4967
 214  592.3682
 215  1053.967
 216  891.8702
 217  673.6735
 218  925.3069
 219  1307.836
 220  876.7466
 221  685.8988
 222  1037.652
 223  1070.572
 224  67.80492
 225  416.1238
 226  746.4404
 227  668.7454
 228  340.8793
 229  357.6396
 230  900.2162
 231  1116.118
 232  587.2904
 233  569.0734
 234  519.8537
 235  835.4942
 236  733.4279
 237  201.5631
 238  679.3117
 239  1028.831
 240  1201.978
 241  1303.055
 242  994.9406
 243  1615.062
 244  823.8357
 245  1056.996
 246  1519.368
 247  1504.59
 248  1387.443
 249  1410.925
 250  1316.054
 251  1403.604
 252  1634.291
 253  724.0941
 254  927.8218
 255  1569.2
