# Input file       =  1212131393.119983_cleaned.dat
# Candidate        =  PSR_0332+5434
# Telescope        =  AR
# Epoch_topo       =  58273.298751388691
# Epoch_bary       =  N/A
# T_sample         =  0.002
# Data Folded      =  7340032
# Data Avg         =  0.154242216467017
# Data StdDev      =  3.02409463188332 
# Profile Bins     =  256
# Profile Avg      =  4421.91273492269 
# Profile StdDev   =  512.064149573676 
# Reduced chi-sqr  =  1.039
# Prob(Noise)      <  0.32   (~0.5 sigma)
# P_topo (ms)      =  714.513737991084  +/- 0.000446
# P'_topo (s/s)    =  -0                +/- 2.36e-10
# P''_topo (s/s^2) =  0                 +/- 1.04e-13
# P_bary (ms)      =  N/A
# P'_bary (s/s)    =  N/A
# P''_bary (s/s^2) =  N/A
# P_orb (s)        =  N/A
# asin(i)/c (s)    =  N/A
# eccentricity     =  N/A
# w (rad)          =  N/A
# T_peri           =  N/A
######################################################
   0  4379.247
   1  4568.573
   2  4973.107
   3  4558.107
   4  5282.412
   5  5347.69
   6  4831.154
   7  4894.223
   8  5079.838
   9  4378.483
  10  5086.35
  11  5104.566
  12  4925.249
  13  5328.1
  14  5117.653
  15  4753.237
  16  4311.48
  17  4778.306
  18  4434.454
  19  4828.021
  20  4486.357
  21  4867.396
  22  4459.709
  23  4624.515
  24  4634.313
  25  4158.585
  26  4713.2
  27  4564.737
  28  4207.006
  29  4136.713
  30  4468.192
  31  4356.215
  32  4588.156
  33  4593.214
  34  4406.504
  35  4050.663
  36  4590.082
  37  4592.332
  38  4629.138
  39  4154.909
  40  4534.521
  41  4656.009
  42  4606.982
  43  4451.099
  44  4258.739
  45  4532.801
  46  4867.155
  47  4478.972
  48  4897.863
  49  5069.483
  50  4854.485
  51  4562.409
  52  4410.483
  53  3998.864
  54  4492.555
  55  4365.884
  56  3850.168
  57  4259.042
  58  4773.408
  59  4273.455
  60  4553.633
  61  4926.922
  62  4238.559
  63  4708.364
  64  4330.215
  65  4113.192
  66  3994.717
  67  3963.771
  68  4458.66
  69  5050.854
  70  4618.173
  71  4391.396
  72  4676.23
  73  4575.519
  74  4896.978
  75  4147.217
  76  4301.744
  77  4020.788
  78  4700.9
  79  4469.278
  80  3998.615
  81  4199.594
  82  4264.628
  83  4008.365
  84  4194.308
  85  3743.302
  86  4044.324
  87  4034.766
  88  3880.251
  89  3749.265
  90  4442.866
  91  3617.753
  92  3309.788
  93  4573.546
  94  4265.237
  95  4093.691
  96  4129.716
  97  3831.173
  98  4946.79
  99  4896.515
 100  4574.116
 101  4734.941
 102  4906.281
 103  4737.668
 104  4782.728
 105  4802.657
 106  4884.306
 107  4805.958
 108  4428.371
 109  4886.886
 110  5113.798
 111  4703.694
 112  4764.645
 113  4541.177
 114  4158.828
 115  5140.057
 116  4951.005
 117  4244.175
 118  3974.358
 119  4710.09
 120  4495.951
 121  3727.276
 122  4259.5
 123  4545.429
 124  4287.906
 125  4318.583
 126  4085.609
 127  3997.266
 128  4505.479
 129  3774.082
 130  3576.843
 131  4654.778
 132  4752.547
 133  4523.18
 134  4322.746
 135  3926.713
 136  3890.973
 137  4355.927
 138  4275.419
 139  4057.989
 140  4499.018
 141  4370.32
 142  3647.702
 143  4002.555
 144  4377.466
 145  4407.064
 146  4407.766
 147  4357.334
 148  5504.639
 149  6927.607
 150  5912.689
 151  4919.82
 152  3910.917
 153  3971.596
 154  3944.236
 155  3664.817
 156  3485.313
 157  4592.898
 158  4035.814
 159  4265.917
 160  3674.977
 161  3752.317
 162  3638.68
 163  3798.893
 164  4332.394
 165  4099.221
 166  3857.778
 167  4394.202
 168  4581.432
 169  4929.554
 170  4761.471
 171  4701.449
 172  3902.73
 173  4297.14
 174  4794.718
 175  4637.657
 176  4344.472
 177  4478.552
 178  4463.567
 179  4840.468
 180  4917.321
 181  5072.841
 182  5194.663
 183  5463.538
 184  4898.349
 185  4361.018
 186  4245.803
 187  4153.511
 188  4412.101
 189  3985.353
 190  3810.926
 191  4279.455
 192  4873.433
 193  5011.763
 194  4676.326
 195  5081.726
 196  4368.83
 197  4978.15
 198  4957.4
 199  4713.206
 200  4796.174
 201  4159.915
 202  4216.09
 203  4126.575
 204  4632.292
 205  4352.167
 206  3884.742
 207  3997.073
 208  4108.583
 209  4162.003
 210  4162.298
 211  4538.273
 212  3894.854
 213  4326.785
 214  5191.688
 215  4401.068
 216  4849.533
 217  4542.273
 218  4118.493
 219  4118.491
 220  4196.138
 221  3912.971
 222  4400.3
 223  3974.327
 224  3946.46
 225  4561.271
 226  4863.146
 227  4074.357
 228  4460.856
 229  4415.899
 230  4554.497
 231  4000.207
 232  4464.305
 233  3641.593
 234  3701.104
 235  4285.368
 236  3812.165
 237  3637.785
 238  3740.125
 239  3679.526
 240  4033.76
 241  3814.707
 242  3778.102
 243  3976.45
 244  3551.765
 245  4204.057
 246  4699.146
 247  4165.77
 248  4734.508
 249  4546.384
 250  4479.007
 251  4170.028
 252  4477.072
 253  4843.546
 254  4182.836
 255  4529.783
