# Input file       =  1212202951.119541_cleaned.dat
# Candidate        =  PSR_0332+5434
# Telescope        =  AR
# Epoch_topo       =  58274.126968976168
# Epoch_bary       =  N/A
# T_sample         =  0.002
# Data Folded      =  7208960
# Data Avg         =  0.297321679172191
# Data StdDev      =  6.07720551365003 
# Profile Bins     =  512
# Profile Avg      =  4186.28309857809 
# Profile StdDev   =  721.116197377612 
# Reduced chi-sqr  =  1.863
# Prob(Noise)      <  5.25e-29   (~11.1 sigma)
# P_topo (ms)      =  714.512924528079  +/- 3.52e-05
# P'_topo (s/s)    =  -0                +/- 1.89e-11
# P''_topo (s/s^2) =  0                 +/- 8.49e-15
# P_bary (ms)      =  N/A
# P'_bary (s/s)    =  N/A
# P''_bary (s/s^2) =  N/A
# P_orb (s)        =  N/A
# asin(i)/c (s)    =  N/A
# eccentricity     =  N/A
# w (rad)          =  N/A
# T_peri           =  N/A
######################################################
   0  4177.8
   1  3701.716
   2  3569.102
   3  3754.39
   4  3797.309
   5  3669.097
   6  3247.808
   7  3259.093
   8  3044.833
   9  3044.825
  10  2806.572
  11  2812.888
  12  3173.413
  13  3652.668
  14  4130.441
  15  4526.355
  16  4655.132
  17  4224.111
  18  3637.768
  19  3378.886
  20  4088.832
  21  4205.524
  22  3789.761
  23  4271.161
  24  4379.958
  25  3486.11
  26  2296.122
  27  2043.709
  28  2622.971
  29  3510.008
  30  4094.651
  31  4563.479
  32  5237.077
  33  4842.119
  34  3719.755
  35  3618.57
  36  3510.922
  37  3667.357
  38  3809.833
  39  3804.559
  40  3980.695
  41  3996.607
  42  3259.17
  43  2740.803
  44  2593.935
  45  3315.11
  46  3918.31
  47  4124.886
  48  4618.891
  49  5225.775
  50  5115.978
  51  4570.722
  52  4224.388
  53  4197.044
  54  3779.887
  55  3578.842
  56  4446.241
  57  4492.077
  58  3899.051
  59  3063.059
  60  2928.087
  61  3299.915
  62  3105.598
  63  3507.668
  64  4385.275
  65  5378.255
  66  5064.601
  67  4883.821
  68  4237.578
  69  3736.612
  70  3801.183
  71  3725.742
  72  3453.563
  73  3889.947
  74  4000.491
  75  3448.118
  76  3784.956
  77  3645.546
  78  3189.849
  79  3132.998
  80  3848.754
  81  4490.179
  82  4752.892
  83  4838.109
  84  4391.885
  85  3822.887
  86  4157.212
  87  3856.045
  88  3653.326
  89  3881.852
  90  4274.808
  91  4180.149
  92  3626.885
  93  3001.19
  94  3253.624
  95  3656.204
  96  3684.256
  97  4417.374
  98  5074.698
  99  4838.607
 100  4451.677
 101  3843.61
 102  3947.747
 103  4072.283
 104  4132.062
 105  4048.095
 106  4641.382
 107  4318.339
 108  3709.905
 109  2940.495
 110  2462.989
 111  3009.663
 112  3880.952
 113  4288.315
 114  4878.886
 115  5108.997
 116  4663.321
 117  4053.104
 118  3798.736
 119  4088.84
 120  3786.612
 121  3609.941
 122  4177.599
 123  4493.183
 124  4047.546
 125  3080.608
 126  2965.188
 127  3166.443
 128  3163.041
 129  3753.184
 130  4168.404
 131  4846.6
 132  5002.575
 133  4780.811
 134  4130.639
 135  3675.997
 136  3756.111
 137  3619.117
 138  3763.191
 139  4506.605
 140  4377.533
 141  3971.93
 142  3438.672
 143  3374.978
 144  3421.937
 145  3535.744
 146  3840.794
 147  4802.172
 148  5540.078
 149  5226.38
 150  4467.136
 151  4354.601
 152  4217.227
 153  3886.141
 154  3389.829
 155  4026.539
 156  4559.258
 157  4074.391
 158  3607.218
 159  3145.529
 160  3381.24
 161  3353.492
 162  3695.05
 163  4267.664
 164  5165.355
 165  4959.398
 166  4357.994
 167  4276.909
 168  4174.097
 169  3924.334
 170  3770.71
 171  4101.634
 172  4107.027
 173  4370.615
 174  3830.834
 175  3173.801
 176  3129.875
 177  3546.019
 178  4103.635
 179  4610.015
 180  5181.708
 181  5095.548
 182  5163.986
 183  4655.899
 184  3973.768
 185  4113.508
 186  4355.566
 187  4068.737
 188  4702.103
 189  5105.135
 190  4582.088
 191  3855.509
 192  3277.052
 193  3657.444
 194  3991.714
 195  4542.043
 196  4957.42
 197  5458.403
 198  5522.438
 199  4957.654
 200  4887.023
 201  4614.252
 202  4474.969
 203  4402.191
 204  4561.95
 205  4909.188
 206  4384.723
 207  3703.769
 208  3530.517
 209  3408.609
 210  3918.236
 211  4096.992
 212  4784.146
 213  5188.235
 214  5574.427
 215  5875.674
 216  4870.424
 217  4352.52
 218  4660.822
 219  4527.388
 220  4580.172
 221  4361.702
 222  4819.084
 223  4402.544
 224  3608.698
 225  3146.393
 226  3489.808
 227  4044.593
 228  4071.658
 229  4286.104
 230  5127.461
 231  5264.811
 232  5029.611
 233  4481.074
 234  4838.133
 235  4624.206
 236  4426.993
 237  3856.071
 238  4404.177
 239  4385.054
 240  3427.653
 241  3494.945
 242  3826.924
 243  3343.525
 244  3646.252
 245  4264.011
 246  4797.318
 247  5737.191
 248  5190.921
 249  4257.348
 250  3682.05
 251  4067.639
 252  4377.203
 253  4169.859
 254  4213.56
 255  4547.328
 256  4399.759
 257  3877.076
 258  3517.59
 259  3521.556
 260  3584.211
 261  4025.465
 262  4584.227
 263  5309.696
 264  5168.483
 265  4791.732
 266  4622.652
 267  4369.625
 268  4459.835
 269  4121.314
 270  4188.061
 271  4377.542
 272  4648.49
 273  4251.426
 274  3920.142
 275  3810.24
 276  3872.575
 277  4537.325
 278  4512.638
 279  5364.586
 280  5857.387
 281  5386.591
 282  5265.977
 283  4840.073
 284  4434.854
 285  4382.43
 286  4349.236
 287  4525.754
 288  5188.99
 289  4847.211
 290  3570.925
 291  3144.359
 292  3621.791
 293  3831.577
 294  4614.581
 295  5497.223
 296  6547.813
 297  7003.168
 298  6555.439
 299  6319.688
 300  5653.931
 301  5137.453
 302  4499.249
 303  4480.819
 304  5135.494
 305  4754.068
 306  4268.778
 307  3852.339
 308  3638.93
 309  3486.652
 310  4258.161
 311  4510.528
 312  5469.028
 313  5927.278
 314  5835.285
 315  4828.063
 316  4535.671
 317  4520.074
 318  4510.478
 319  4489.833
 320  4451.874
 321  4788.449
 322  4205.333
 323  3783.423
 324  3400.971
 325  3809.249
 326  3866.705
 327  3444.554
 328  4181.171
 329  5213.133
 330  5609.486
 331  5114.673
 332  4494.833
 333  4600.154
 334  4357.729
 335  4400.773
 336  4170.454
 337  4069.21
 338  4244.898
 339  3896.288
 340  4071.265
 341  4098.059
 342  3766.457
 343  3991.748
 344  4889.315
 345  5509.17
 346  5220.803
 347  4900.24
 348  4938.543
 349  4535.991
 350  4301.571
 351  4981.728
 352  4651.725
 353  4279.184
 354  4671.384
 355  4796.522
 356  4118.782
 357  3856.23
 358  3685.947
 359  4028.369
 360  4806.766
 361  5472.533
 362  5782.558
 363  5498.24
 364  4889.052
 365  4480.833
 366  4410.083
 367  4794.366
 368  4536.709
 369  4514.955
 370  5061.236
 371  5100.642
 372  4301.132
 373  3991.945
 374  3370.203
 375  3571.507
 376  4215.28
 377  5087.1
 378  5677.496
 379  6345.457
 380  6281.083
 381  5199.762
 382  4692.246
 383  4641.694
 384  4647.692
 385  4617.241
 386  4551.845
 387  4776.915
 388  4640.403
 389  3881.671
 390  3523.026
 391  3587.789
 392  4075.926
 393  3920.59
 394  4084.234
 395  4837.18
 396  5336.417
 397  5546.166
 398  4498.904
 399  4071.443
 400  4368.362
 401  4098.153
 402  3713.758
 403  4396.973
 404  4564.615
 405  4190.021
 406  3483.024
 407  3390.634
 408  3195.779
 409  3668.052
 410  4190.198
 411  4556.32
 412  4759.531
 413  4248.741
 414  4367.753
 415  4000.062
 416  3814.121
 417  4066.473
 418  3873.018
 419  3779.601
 420  3631.816
 421  3540.291
 422  3148.734
 423  2745.455
 424  3175.028
 425  3646.396
 426  3487.279
 427  3722.763
 428  4400.965
 429  4677.076
 430  4057.642
 431  3699.809
 432  4345.696
 433  4582.3
 434  4200.279
 435  3989.882
 436  3806.926
 437  3849.659
 438  3830.409
 439  3882.762
 440  3362.686
 441  3631.412
 442  3599.515
 443  4193.048
 444  4836.893
 445  5228.364
 446  4772.557
 447  4665.436
 448  4586.884
 449  4171.958
 450  4253.472
 451  4285.161
 452  4492.92
 453  4380.047
 454  4324.462
 455  3795.334
 456  3503.895
 457  3511.514
 458  3939.136
 459  4373.275
 460  4383.372
 461  5090.767
 462  5208.257
 463  4925.87
 464  4803.915
 465  4146.811
 466  3815.831
 467  3617.855
 468  3928.96
 469  4213.477
 470  4456.639
 471  4178.528
 472  3166.422
 473  3291.742
 474  3319.625
 475  3816.518
 476  4434.563
 477  4745.282
 478  4903.493
 479  5303.82
 480  4477.525
 481  4005.479
 482  3658.557
 483  3901.716
 484  3770.856
 485  3953.349
 486  4456.996
 487  3746.803
 488  3314.446
 489  2746.037
 490  2932.897
 491  3205.39
 492  3678.613
 493  3979.052
 494  4303.358
 495  4580.625
 496  4073.797
 497  4085.481
 498  3994.164
 499  3727.685
 500  3306.741
 501  3453.188
 502  3515.504
 503  3639.684
 504  2749.906
 505  2563.205
 506  2726.452
 507  2860.622
 508  2845.02
 509  2738.676
 510  3541.887
 511  4011.703
