# Input file       =  1212663248.110032_cleaned.dat
# Candidate        =  PSR_0332+5434
# Telescope        =  AR
# Epoch_topo       =  58279.454480440188
# Epoch_bary       =  N/A
# T_sample         =  0.002
# Data Folded      =  7340032
# Data Avg         =  0.0201134898755407
# Data StdDev      =  1.00016303549804 
# Profile Bins     =  512
# Profile Avg      =  288.28361749869  
# Profile StdDev   =  119.752557111984 
# Reduced chi-sqr  =  1.436
# Prob(Noise)      <  3.23e-10   (~6.2 sigma)
# P_topo (ms)      =  714.508146704279  +/- 0.000205
# P'_topo (s/s)    =  -0                +/- 1.08e-10
# P''_topo (s/s^2) =  0                 +/- 4.77e-14
# P_bary (ms)      =  N/A
# P'_bary (s/s)    =  N/A
# P''_bary (s/s^2) =  N/A
# P_orb (s)        =  N/A
# asin(i)/c (s)    =  N/A
# eccentricity     =  N/A
# w (rad)          =  N/A
# T_peri           =  N/A
######################################################
   0  931.7733
   1  852.1147
   2  624.9632
   3  414.3552
   4  364.3838
   5  357.5255
   6  390.2637
   7  491.6487
   8  492.63
   9  338.3643
  10  382.7962
  11  395.3883
  12  385.3955
  13  342.1715
  14  357.448
  15  376.1929
  16  266.193
  17  316.0105
  18  253.4138
  19  233.8955
  20  281.6939
  21  413.7786
  22  245.5813
  23  358.253
  24  289.0268
  25  260.0182
  26  262.3897
  27  268.1104
  28  279.9194
  29  290.9702
  30  265.5829
  31  210.5445
  32  276.3787
  33  337.6041
  34  338.0043
  35  363.9013
  36  272.9792
  37  342.9285
  38  362.3216
  39  424.5088
  40  313.0205
  41  265.9196
  42  197.2172
  43  186.782
  44  195.7483
  45  308.7537
  46  408.0204
  47  420.6574
  48  377.5741
  49  512.4683
  50  363.6716
  51  222.6069
  52  350.3658
  53  446.1822
  54  350.93
  55  264.165
  56  399.3899
  57  373.1051
  58  303.3383
  59  213.2493
  60  287.8772
  61  394.6057
  62  266.1594
  63  317.3676
  64  220.0442
  65  263.5999
  66  291.6893
  67  214.9107
  68  280.6809
  69  380.9174
  70  406.6902
  71  422.1506
  72  329.0194
  73  377.4126
  74  326.4135
  75  262.2717
  76  242.2336
  77  140.0503
  78  120.9597
  79  335.4254
  80  461.5684
  81  449.6498
  82  291.2827
  83  131.47
  84  124.3964
  85  319.3083
  86  259.7649
  87  209.6338
  88  140.4788
  89  204.3272
  90  272.2025
  91  291.3318
  92  306.2673
  93  317.2516
  94  221.718
  95  207.6734
  96  346.1276
  97  320.4344
  98  184.7572
  99  199.274
 100  286.1731
 101  177.1909
 102  180.6009
 103  178.4901
 104  179.8501
 105  206.1539
 106  329.0054
 107  303.1554
 108  274.4489
 109  367.9317
 110  324.0878
 111  284.2242
 112  275.5334
 113  232.5014
 114  299.5134
 115  310.1575
 116  287.5915
 117  302.5648
 118  329.4706
 119  312.1328
 120  303.12
 121  178.1978
 122  314.6608
 123  344.8218
 124  260.3782
 125  338.5966
 126  324.5603
 127  328.7253
 128  343.9412
 129  312.0222
 130  164.4887
 131  169.26
 132  273.0768
 133  278.9466
 134  231.8179
 135  310.8481
 136  288.363
 137  299.2282
 138  370.4854
 139  420.803
 140  498.8289
 141  586.2989
 142  447.997
 143  315.4628
 144  242.8128
 145  351.5606
 146  428.6673
 147  437.622
 148  339.1563
 149  197.9181
 150  368.7193
 151  484.0164
 152  371.6877
 153  443.7631
 154  494.9936
 155  529.7341
 156  470.2712
 157  366.8427
 158  387.1798
 159  298.7469
 160  357.8846
 161  351.8355
 162  479.1922
 163  413.2906
 164  339.7694
 165  140.3591
 166  262.0326
 167  357.1474
 168  392.611
 169  307.7276
 170  359.9921
 171  569.4936
 172  531.0547
 173  370.7922
 174  251.3427
 175  248.7924
 176  233.3759
 177  215.3528
 178  257.9323
 179  252.7334
 180  338.9062
 181  258.3414
 182  244.925
 183  240.055
 184  360.9443
 185  299.0378
 186  208.2318
 187  306.3457
 188  381.6327
 189  280.9166
 190  270.7452
 191  252.7367
 192  199.1694
 193  322.0497
 194  437.9922
 195  499.8479
 196  278.2809
 197  274.2505
 198  305.5834
 199  150.752
 200  159.6506
 201  148.0292
 202  275.6751
 203  348.0479
 204  368.8438
 205  282.9409
 206  348.8493
 207  287.9875
 208  297.5278
 209  256.9351
 210  221.7063
 211  410.9427
 212  342.9377
 213  330.7931
 214  374.172
 215  352.406
 216  405.6498
 217  313.9391
 218  287.7091
 219  278.7784
 220  111.3927
 221  73.75236
 222  225.2696
 223  251.1149
 224  381.1577
 225  289.3098
 226  269.6416
 227  373.5322
 228  292.8301
 229  155.9772
 230  347.5171
 231  308.9597
 232  276.7942
 233  213.0135
 234  280.8355
 235  291.7119
 236  156.8978
 237  224.9698
 238  383.2103
 239  419.4109
 240  238.4201
 241  213.9481
 242  217.7818
 243  323.8152
 244  180.0448
 245  300.016
 246  278.1153
 247  241.7653
 248  135.0295
 249  170.6925
 250  227.4352
 251  172.8352
 252  237.9174
 253  297.6913
 254  182.4976
 255  281.3363
 256  403.6992
 257  281.7846
 258  311.772
 259  365.7162
 260  333.9478
 261  290.1898
 262  210.547
 263  326.5241
 264  311.3717
 265  204.9575
 266  243.1126
 267  230.5327
 268  292.1782
 269  198.627
 270  212.4322
 271  162.7628
 272  225.9402
 273  332.3848
 274  257.157
 275  153.0888
 276  264.1465
 277  289.3942
 278  363.1963
 279  331.7696
 280  417.834
 281  282.9763
 282  177.055
 283  215.3907
 284  224.7433
 285  319.9848
 286  294.6783
 287  212.2193
 288  273.6421
 289  281.7558
 290  327.006
 291  367.7831
 292  310.1185
 293  236.6488
 294  324.9202
 295  309.5742
 296  368.1151
 297  380.887
 298  313.2713
 299  273.5489
 300  199.3407
 301  282.2091
 302  359.3533
 303  306.5923
 304  200.1424
 305  102.5614
 306  142.9143
 307  212.7866
 308  261.1828
 309  399.923
 310  369.4085
 311  321.4768
 312  381.0911
 313  250.6453
 314  269.9185
 315  287.4196
 316  242.4311
 317  229.4619
 318  265.6246
 319  304.2225
 320  329.5871
 321  250.3663
 322  211.5743
 323  210.9622
 324  173.7594
 325  211.498
 326  244.5665
 327  284.1833
 328  168.5917
 329  277.7411
 330  286.1287
 331  240.6983
 332  202.7016
 333  292.6525
 334  273.2446
 335  132.8443
 336  244.7322
 337  293.7639
 338  211.019
 339  94.29271
 340  220.3982
 341  265.8901
 342  243.4361
 343  204.7578
 344  130.1259
 345  233.3986
 346  446.3144
 347  471.5849
 348  200.0826
 349  50.49954
 350  238.0367
 351  245.9216
 352  253.3304
 353  198.4212
 354  252.3972
 355  248.9212
 356  166.475
 357  187.7656
 358  297.1253
 359  318.1189
 360  267.9708
 361  235.2665
 362  178.4673
 363  195.0005
 364  210.0733
 365  156.5872
 366  222.7473
 367  256.8354
 368  136.7858
 369  192.1075
 370  278.2653
 371  269.2974
 372  301.218
 373  312.1951
 374  340.8959
 375  380.5737
 376  319.9035
 377  327.0473
 378  201.3709
 379  290.5359
 380  394.2915
 381  441.8201
 382  393.4278
 383  286.6249
 384  245.6917
 385  178.0197
 386  248.0879
 387  177.59
 388  167.2086
 389  268.088
 390  140.6932
 391  37.02206
 392  150.981
 393  269.2332
 394  311.1774
 395  404.4428
 396  448.3083
 397  333.7719
 398  353.9427
 399  339.4121
 400  144.3916
 401  151.1868
 402  279.3183
 403  291.219
 404  196.3497
 405  212.9562
 406  168.2627
 407  327.1123
 408  154.1002
 409  216.4586
 410  246.3235
 411  208.7765
 412  200.6457
 413  254.0999
 414  206.1198
 415  168.6699
 416  263.0151
 417  357.0103
 418  316.868
 419  189.8408
 420  303.0162
 421  287.369
 422  250.6562
 423  212.9902
 424  228.7163
 425  77.44363
 426  144.5189
 427  207.8484
 428  170.8212
 429  283.7415
 430  369.3549
 431  344.838
 432  275.6219
 433  223.9164
 434  351.974
 435  328.6459
 436  363.4753
 437  362.6962
 438  167.6634
 439  235.3865
 440  176.9591
 441  157.2882
 442  199.5342
 443  275.3366
 444  313.8313
 445  319.9373
 446  204.3355
 447  268.7131
 448  245.2545
 449  179.5514
 450  186.1471
 451  230.119
 452  168.2652
 453  300.6588
 454  221.6155
 455  159.637
 456  117.525
 457  130.4266
 458  93.31908
 459  98.56865
 460  187.227
 461  242.1009
 462  254.2332
 463  194.4953
 464  166.0875
 465  137.7413
 466  260.2641
 467  258.0112
 468  325.4838
 469  292.3474
 470  305.7571
 471  268.3111
 472  193.195
 473  146.7592
 474  379.6359
 475  256.364
 476  145.19
 477  155.3029
 478  168.6777
 479  402.5874
 480  328.0583
 481  345.4725
 482  339.3069
 483  170.7959
 484  195.1947
 485  265.9677
 486  328.7003
 487  293.4864
 488  336.1092
 489  354.5737
 490  309.9244
 491  309.3507
 492  325.2669
 493  257.115
 494  314.3075
 495  378.9026
 496  380.8685
 497  234.7188
 498  132.7847
 499  269.9163
 500  277.1211
 501  326.1772
 502  311.949
 503  387.0302
 504  366.2436
 505  336.4901
 506  368.569
 507  415.7911
 508  643.7403
 509  654.4512
 510  764.2648
 511  872.366
