# Input file       =  1212289145.117255_cleaned.dat
# Candidate        =  PSR_0332+5434
# Telescope        =  AR
# Epoch_topo       =  58275.124584690449
# Epoch_bary       =  N/A
# T_sample         =  0.002
# Data Folded      =  7143424
# Data Avg         =  0.276088662755275
# Data StdDev      =  6.1103901061074  
# Profile Bins     =  512
# Profile Avg      =  3852.04431076683 
# Profile StdDev   =  721.750629965413 
# Reduced chi-sqr  =  1.204
# Prob(Noise)      <  0.00102   (~3.1 sigma)
# P_topo (ms)      =  714.511960155267  +/- 4.65e-05
# P'_topo (s/s)    =  -0                +/- 2.52e-11
# P''_topo (s/s^2) =  0                 +/- 1.14e-14
# P_bary (ms)      =  N/A
# P'_bary (s/s)    =  N/A
# P''_bary (s/s^2) =  N/A
# P_orb (s)        =  N/A
# asin(i)/c (s)    =  N/A
# eccentricity     =  N/A
# w (rad)          =  N/A
# T_peri           =  N/A
######################################################
   0  3996.208
   1  4547.238
   2  4063.089
   3  4136.997
   4  4095.709
   5  4280.794
   6  3659.01
   7  3216.933
   8  3153.75
   9  3642.734
  10  4419.774
  11  4089.312
  12  3882.093
  13  3669.138
  14  3599.201
  15  3479.098
  16  3691.917
  17  4581.68
  18  4885.273
  19  4393.106
  20  3697.979
  21  3649.349
  22  3864.737
  23  3484.228
  24  3157.374
  25  4083.97
  26  4340.094
  27  4170.253
  28  3856.544
  29  4166.143
  30  4211.092
  31  3400.163
  32  4124.509
  33  4312.858
  34  4870
  35  4962.943
  36  4445.29
  37  3947.257
  38  3784.697
  39  3939.704
  40  3765.628
  41  3843.271
  42  4273.237
  43  4216.065
  44  4652.943
  45  4476.324
  46  4517.629
  47  4369.62
  48  4090.329
  49  4041.616
  50  4769.038
  51  5214.954
  52  4490.007
  53  4470.979
  54  4732.667
  55  4277.871
  56  3916.338
  57  4127.09
  58  4387
  59  4814.415
  60  4365.483
  61  4053.105
  62  4198.705
  63  4117.373
  64  3995
  65  4510.818
  66  5114.911
  67  5405.305
  68  5029.855
  69  4764.907
  70  4524.57
  71  3863.441
  72  3812.281
  73  3243.377
  74  4099.505
  75  4748.463
  76  5027.115
  77  4396.618
  78  4214.592
  79  4688.566
  80  4548.544
  81  4473.181
  82  4254.91
  83  4807.582
  84  5250.059
  85  4742.709
  86  5131.878
  87  5521.118
  88  5383.487
  89  5295.566
  90  5008.339
  91  5200.42
  92  5131.328
  93  4537.454
  94  4202.578
  95  4092.595
  96  3937.493
  97  3959.24
  98  3977.326
  99  4191.312
 100  4850.798
 101  4981.915
 102  4620.868
 103  4107.594
 104  4110.031
 105  4120.042
 106  4049.361
 107  4146.888
 108  4167.776
 109  4397.505
 110  3971.819
 111  4355.25
 112  4480.915
 113  4466.327
 114  4369.485
 115  4046.487
 116  4431.574
 117  4292.065
 118  4727.801
 119  4100.348
 120  4402.002
 121  4460.403
 122  3697.412
 123  3676.58
 124  3940.289
 125  4583.845
 126  4053.065
 127  4143.557
 128  4044.38
 129  4092.239
 130  4142.278
 131  4248.163
 132  4854.929
 133  5225.422
 134  4673.052
 135  3974.718
 136  4087.926
 137  4331.238
 138  3774.203
 139  3810.675
 140  4634.372
 141  4874.075
 142  4649.376
 143  4311.66
 144  3717.417
 145  3790.298
 146  3854.447
 147  4498.099
 148  5194.59
 149  4977.985
 150  5225.042
 151  4612.882
 152  3881.694
 153  3760.814
 154  3783.672
 155  3895.12
 156  3929.027
 157  4393.719
 158  4784.011
 159  4570.533
 160  3907.265
 161  4140.788
 162  4094.615
 163  3790.525
 164  3708.909
 165  4206.186
 166  4468.877
 167  4177.096
 168  4114.032
 169  3755.257
 170  3722.136
 171  2668.041
 172  2786.871
 173  3197.479
 174  3385.026
 175  4000.854
 176  3976.163
 177  3689.393
 178  3967.852
 179  3854.492
 180  3748.947
 181  3674.771
 182  3921.442
 183  4162.13
 184  3993.875
 185  3952.787
 186  4056.883
 187  3842.721
 188  3306.811
 189  2903.621
 190  3284.208
 191  3749.825
 192  3521.805
 193  3312.746
 194  3752.408
 195  3624.436
 196  3553.94
 197  3786.989
 198  4148.41
 199  4488.537
 200  4077.173
 201  3622.258
 202  3550.344
 203  3918.573
 204  3583.4
 205  2957.558
 206  3248.061
 207  4009.824
 208  3728.542
 209  3708.983
 210  3678.248
 211  3394.449
 212  3794.617
 213  3557.425
 214  3645.506
 215  4235.345
 216  4577.072
 217  4319.689
 218  3498.892
 219  3504.538
 220  3491.282
 221  3302.272
 222  3123.108
 223  3676.945
 224  3990.993
 225  3505.453
 226  3047.767
 227  2954.066
 228  3102.812
 229  3025.234
 230  3310.699
 231  4163.977
 232  4984.452
 233  4321.937
 234  3580.236
 235  3453.581
 236  3037.648
 237  2944.881
 238  3122.153
 239  3765.276
 240  3643.596
 241  3364.554
 242  3556.862
 243  3400.573
 244  3426.886
 245  2927.869
 246  2888.36
 247  3513.234
 248  3623.595
 249  4245.069
 250  3997.767
 251  3306.721
 252  3122.712
 253  3120.158
 254  2721.949
 255  2612.298
 256  3023.97
 257  3479.655
 258  3514.618
 259  3412.197
 260  3249.28
 261  3754.698
 262  2987.459
 263  3010.469
 264  3440.06
 265  3684.348
 266  3917.13
 267  3617.832
 268  3673.876
 269  3526.239
 270  2873.585
 271  2207.798
 272  2881.258
 273  3107.558
 274  3476.109
 275  3102.225
 276  3210.879
 277  3472.252
 278  3031.702
 279  3232.334
 280  3817.447
 281  3862.885
 282  4271.136
 283  4314.781
 284  3732.297
 285  3467.642
 286  3337.453
 287  3122.341
 288  3201.682
 289  3677.519
 290  4299.527
 291  3881.961
 292  3142.626
 293  3586.054
 294  3866.746
 295  4222.852
 296  3652.893
 297  3238.676
 298  4077.447
 299  4012.531
 300  3670.018
 301  3585.815
 302  3854.255
 303  3565.602
 304  3290.909
 305  3286.848
 306  3522.823
 307  3594.37
 308  3275.645
 309  3423.356
 310  3328.057
 311  3214.86
 312  2941.397
 313  3263.242
 314  4236.564
 315  4231.229
 316  3810.462
 317  3202.969
 318  2806.13
 319  2508.625
 320  2767.475
 321  3145.595
 322  3512.35
 323  3475.003
 324  3067.488
 325  2969.032
 326  3115.502
 327  3385.583
 328  2884.019
 329  3053.604
 330  3546.427
 331  3526.784
 332  3805.551
 333  3343.272
 334  2891.123
 335  2942.47
 336  2526.598
 337  2474.94
 338  3020.027
 339  3393.257
 340  3843.119
 341  3388.776
 342  3090.711
 343  3145.117
 344  2989.285
 345  2623.93
 346  2853.988
 347  3516.693
 348  4042.08
 349  3778.158
 350  3414.789
 351  3616.877
 352  3189.029
 353  2438.2
 354  2388.185
 355  2869.204
 356  3382.05
 357  3457.495
 358  3388.959
 359  3443.013
 360  3493.781
 361  3309.032
 362  3123.294
 363  2983.864
 364  3584.768
 365  4091.905
 366  3630.449
 367  3551.28
 368  3569.031
 369  3505.989
 370  2991.682
 371  3494.478
 372  3817.007
 373  3613.641
 374  3499.06
 375  3225.784
 376  3458.87
 377  3718.604
 378  4037.388
 379  3742.21
 380  3567.348
 381  3940.251
 382  3857.006
 383  3542.016
 384  3167.054
 385  3444.367
 386  3335.251
 387  3479.145
 388  3629.928
 389  3717.259
 390  4165.415
 391  3986.351
 392  3676.105
 393  3576.419
 394  3527.059
 395  3349.45
 396  3640.215
 397  4412.213
 398  4144.751
 399  3815.031
 400  3687.344
 401  3811.838
 402  3324.526
 403  3346.544
 404  3541.497
 405  3937.745
 406  4170.25
 407  3897.118
 408  3770.74
 409  3713.026
 410  3451.856
 411  3862.74
 412  4138.089
 413  4032.989
 414  4606.964
 415  4418.416
 416  3888.684
 417  3184.009
 418  3226.293
 419  3350.254
 420  2833.53
 421  3596.101
 422  3852.588
 423  4386.541
 424  4299.731
 425  3740.265
 426  3471.212
 427  3278.247
 428  3407.302
 429  3796.289
 430  4293.222
 431  5172.005
 432  4575.098
 433  4055.274
 434  3997.922
 435  3722.148
 436  2963.443
 437  3201.628
 438  4022.718
 439  4495.487
 440  3969.173
 441  4146.797
 442  4306.711
 443  4095.598
 444  3788.461
 445  4201.568
 446  4486.034
 447  4341.103
 448  4515.423
 449  3992.433
 450  4203.776
 451  4070.723
 452  3389.652
 453  2879.443
 454  3335.982
 455  4332.012
 456  3893.097
 457  3658.514
 458  3330.882
 459  3523.834
 460  3294.363
 461  3904.658
 462  3989.165
 463  4931.106
 464  5373.488
 465  4679.137
 466  3883.832
 467  3983.381
 468  3709.451
 469  3300.212
 470  3872.711
 471  4570.524
 472  4939.124
 473  4369.638
 474  4040.511
 475  4415.78
 476  4184.223
 477  4057.146
 478  3798.184
 479  4089.671
 480  4707.253
 481  4235.773
 482  4195.128
 483  4227.881
 484  3953.242
 485  3592.162
 486  3563.114
 487  3588.332
 488  4134.718
 489  4246.605
 490  4213.014
 491  4251.186
 492  3905.084
 493  3559.203
 494  3511.9
 495  3995.75
 496  4506.566
 497  4735.507
 498  4345.711
 499  3776.076
 500  3960.301
 501  3674.996
 502  3541.75
 503  3688.738
 504  3892.35
 505  4383.685
 506  3854.933
 507  3791.307
 508  4119.479
 509  4020.922
 510  3857.187
 511  3482.879
