# Input file       =  1212045231.112183-PSRB0329-2ms-sampling-dd.dat
# Candidate        =  PSR_0332+5434
# Telescope        =  AR
# Epoch_topo       =  58272.301505928044
# Epoch_bary       =  N/A
# T_sample         =  0.002
# Data Folded      =  7340032
# Data Avg         =  -1.07681746992969e-10
# Data StdDev      =  4.99816964196269 
# Profile Bins     =  512
# Profile Avg      =  0.225534717913571
# Profile StdDev   =  598.446027558367 
# Reduced chi-sqr  =  0.753
# Prob(Noise)      <  1   (~0.0 sigma)
# P_topo (ms)      =  714.5147050992    +/- 0.00153
# P'_topo (s/s)    =  -0                +/- 8.1e-10
# P''_topo (s/s^2) =  0                 +/- 3.58e-13
# P_bary (ms)      =  N/A
# P'_bary (s/s)    =  N/A
# P''_bary (s/s^2) =  N/A
# P_orb (s)        =  N/A
# asin(i)/c (s)    =  N/A
# eccentricity     =  N/A
# w (rad)          =  N/A
# T_peri           =  N/A
######################################################
   0  36.41173
   1  -179.768
   2  -425.4995
   3  -105.1828
   4  125.1963
   5  25.43143
   6  -228.9198
   7  -419.9502
   8  -207.4624
   9  189.1605
  10  56.69054
  11  50.71455
  12  93.57932
  13  61.05895
  14  269.6249
  15  158.7353
  16  -94.8243
  17  -243.1363
  18  16.56375
  19  -554.2562
  20  -465.0936
  21  -148.6392
  22  -63.13224
  23  53.82967
  24  -66.88382
  25  -117.44
  26  -382.4188
  27  -184.3247
  28  -481.7639
  29  -364.2746
  30  -23.44034
  31  22.36864
  32  69.58194
  33  -204.9276
  34  -118.6396
  35  -102.1828
  36  -187.0661
  37  -315.6249
  38  -90.34653
  39  82.39429
  40  -146.2814
  41  -229.2948
  42  -87.75068
  43  -275.5544
  44  -490.3237
  45  -284.3141
  46  -353.235
  47  108.9515
  48  71.05281
  49  -335.3586
  50  -272.7593
  51  39.47842
  52  192.7012
  53  126.1544
  54  167.4343
  55  152.6283
  56  52.24565
  57  242.231
  58  239.22
  59  87.28975
  60  -355.8256
  61  -291.6514
  62  95.96998
  63  -96.57027
  64  -237.7329
  65  -396.2494
  66  -227.4465
  67  -493.9033
  68  -293.1514
  69  -49.04514
  70  -50.55615
  71  -214.8865
  72  -38.29132
  73  46.82037
  74  -58.61753
  75  211.7807
  76  -279.6595
  77  -300.7801
  78  -161.2155
  79  -32.26387
  80  -148.6664
  81  -237.8748
  82  -455.7412
  83  -464.9968
  84  -146.0913
  85  -426.8915
  86  -429.6147
  87  -704.3562
  88  -531.3052
  89  -456.0448
  90  -428.2629
  91  -391.149
  92  -611.8624
  93  -964.0729
  94  -995.0416
  95  -783.3122
  96  -388.7493
  97  -524.9932
  98  -488.5179
  99  -727.0962
 100  -981.0847
 101  -596.1935
 102  -685.1724
 103  -718.9555
 104  -468.1978
 105  -303.5378
 106  -463.9823
 107  -504.0485
 108  -570.8618
 109  -585.3551
 110  -355.7903
 111  -296.1513
 112  -444.171
 113  -327.9277
 114  -398.2466
 115  -524.2617
 116  -325.5203
 117  -92.94236
 118  -483.6927
 119  -353.0053
 120  -446.5541
 121  -259.5697
 122  -140.5835
 123  -206.1532
 124  -48.81237
 125  -100.7811
 126  -282.4278
 127  -236.9539
 128  -21.53902
 129  -218.9223
 130  -336.2111
 131  -403.9419
 132  -653.3747
 133  -521.9462
 134  30.70603
 135  -38.45999
 136  -104.8266
 137  -5.288112
 138  -213.0662
 139  -173.951
 140  56.47559
 141  -139.7133
 142  -483.9616
 143  -373.2842
 144  -193.9159
 145  -229.8288
 146  -7.431421
 147  -70.39413
 148  -124.1657
 149  -99.10191
 150  -135.1162
 151  -96.22317
 152  -17.38656
 153  -113.5364
 154  -226.687
 155  -203.7412
 156  101.6115
 157  89.30845
 158  222.1625
 159  197.3981
 160  84.60972
 161  125.107
 162  22.26186
 163  262.9778
 164  148.845
 165  3.742738
 166  -377.5117
 167  -272.6317
 168  -50.63507
 169  24.90955
 170  -72.96547
 171  25.39043
 172  -0.9970105
 173  17.4612
 174  176.5434
 175  138.8045
 176  239.7904
 177  451.9836
 178  289.3803
 179  506.4627
 180  514.5662
 181  82.5377
 182  -22.30151
 183  3.851712
 184  -52.64467
 185  250.5488
 186  -10.03609
 187  25.41171
 188  158.0369
 189  489.1938
 190  491.137
 191  603.7302
 192  482.504
 193  303.5423
 194  252.634
 195  254.5312
 196  371.2366
 197  217.6814
 198  65.50332
 199  -222.4444
 200  -210.5521
 201  425.6232
 202  498.7777
 203  498.4832
 204  463.5821
 205  362.5938
 206  269.9059
 207  -290.6028
 208  -359.7549
 209  -45.52703
 210  -170.1295
 211  -196.2203
 212  39.78914
 213  205.2734
 214  83.82365
 215  159.3493
 216  153.3343
 217  4.98514
 218  -86.89908
 219  209.4118
 220  390.6629
 221  155.3995
 222  181.8437
 223  71.93949
 224  39.71323
 225  -107.9888
 226  -226.1129
 227  -375.4617
 228  -376.9825
 229  -433.7806
 230  -483.5669
 231  -335.2249
 232  -17.25937
 233  -217.4873
 234  -564.7332
 235  -574.0052
 236  -125.7923
 237  -192.1643
 238  -163.3763
 239  -211.8634
 240  -374.8914
 241  -393.3954
 242  -270.4142
 243  -363.6617
 244  -421.398
 245  -129.0689
 246  107.4037
 247  239.5539
 248  213.1878
 249  -46.6218
 250  -336.5796
 251  -339.9303
 252  -231.3528
 253  206.2543
 254  248.4986
 255  154.3372
 256  131.9484
 257  -436.5233
 258  -346.1942
 259  -357.0515
 260  -355.0495
 261  -662.6958
 262  -384.3777
 263  173.4841
 264  -101.841
 265  -193.9715
 266  -350.2649
 267  -240.0937
 268  -165.3091
 269  -343.2422
 270  118.5222
 271  -253.6809
 272  -567.4736
 273  -492.9598
 274  -698.5941
 275  -402.2906
 276  -568.8022
 277  -648.8025
 278  -531.8372
 279  -524.9136
 280  -492.5146
 281  -551.7733
 282  -460.6591
 283  -509.2689
 284  -520.2706
 285  -373.1774
 286  -137.4482
 287  -13.60452
 288  -76.91212
 289  -276.2609
 290  -494.7662
 291  -452.137
 292  -448.2509
 293  -328.6475
 294  -316.0359
 295  -148.7995
 296  -172.6684
 297  -476.6809
 298  -535.4042
 299  -114.0592
 300  -151.9347
 301  -368.3763
 302  -394.3967
 303  -309.812
 304  -185.0954
 305  -494.702
 306  -601.6389
 307  -407.5097
 308  -514.4039
 309  -661.795
 310  -505.2736
 311  -780.3275
 312  -549.1266
 313  -70.24462
 314  -122.4744
 315  -400.845
 316  -458.1406
 317  -373.9067
 318  -515.3655
 319  -191.2654
 320  126.4207
 321  224.3158
 322  -275.0682
 323  -222.8923
 324  -109.5198
 325  -327.7745
 326  -330.5545
 327  -409.7618
 328  -216.3776
 329  99.38655
 330  -79.04807
 331  -168.9799
 332  2.851102
 333  -184.795
 334  -328.9912
 335  -282.251
 336  -240.4473
 337  -323.9673
 338  -23.78042
 339  12.79969
 340  -19.37511
 341  -309.7185
 342  -478.4889
 343  -118.3186
 344  -104.3849
 345  283.1348
 346  18.18925
 347  85.33016
 348  270.4474
 349  217.967
 350  -122.7618
 351  -466.1042
 352  27.79152
 353  209.325
 354  394.9724
 355  147.0577
 356  198.6196
 357  125.6372
 358  4.443726
 359  150.0753
 360  95.33707
 361  454.2149
 362  733.5767
 363  646.1069
 364  520.5268
 365  380.8918
 366  198.1762
 367  -22.32268
 368  84.30644
 369  354.7579
 370  335.2023
 371  220.6003
 372  600.1796
 373  801.6579
 374  656.0423
 375  871.5034
 376  423.8739
 377  165.8504
 378  393.0913
 379  501.6966
 380  338.5987
 381  309.0328
 382  396.31
 383  218.6377
 384  42.56251
 385  472.5941
 386  445.3503
 387  304.7409
 388  606.8353
 389  417.1401
 390  173.0222
 391  444.4902
 392  266.3103
 393  227.7158
 394  359.0141
 395  362.0415
 396  333.0636
 397  88.59224
 398  178.8441
 399  554.908
 400  389.3141
 401  204.3383
 402  524.8015
 403  750.4364
 404  548.1856
 405  284.5477
 406  104.7615
 407  179.132
 408  192.9099
 409  166.497
 410  414.2729
 411  258.8174
 412  324.1194
 413  117.3815
 414  309.2318
 415  354.6775
 416  611.2407
 417  382.555
 418  353.7374
 419  417.2302
 420  508.4575
 421  75.86744
 422  -168.8976
 423  184.9357
 424  23.58375
 425  378.9726
 426  433.7764
 427  450.9171
 428  797.6288
 429  1075.601
 430  1380.229
 431  1251.098
 432  1479.515
 433  987.3044
 434  188.1049
 435  144.9233
 436  442.5668
 437  171.8075
 438  -125.5649
 439  55.56097
 440  -167.3083
 441  33.45561
 442  304.8834
 443  431.4521
 444  717.2632
 445  424.9782
 446  251.8474
 447  238.9034
 448  110.0981
 449  67.15263
 450  104.4413
 451  122.7414
 452  137.8023
 453  385.7158
 454  571.8013
 455  253.9474
 456  61.58601
 457  -63.61869
 458  -1.077114
 459  188.3447
 460  326.6471
 461  -12.04054
 462  199.5234
 463  230.61
 464  235.6261
 465  320.8109
 466  373.4741
 467  390.955
 468  408.3484
 469  653.386
 470  439.7879
 471  178.7715
 472  204.791
 473  390.7537
 474  640.4192
 475  530.227
 476  226.1509
 477  202.5244
 478  114.7388
 479  159.4351
 480  334.3243
 481  330.8382
 482  267.0977
 483  -17.86867
 484  573.1439
 485  810.7407
 486  615.3477
 487  554.574
 488  543.0519
 489  686.8251
 490  922.8923
 491  939.4297
 492  570.9877
 493  504.9846
 494  771.9478
 495  733.6575
 496  736.64
 497  779.9888
 498  366.9355
 499  616.1987
 500  639.5182
 501  439.5246
 502  159.4835
 503  515.6414
 504  568.3254
 505  128.5873
 506  103.1433
 507  146.8802
 508  631.626
 509  818.6567
 510  -136.5487
 511  175.35
