# Input file       =  1212663248.110032-PSRB0329-2ms-sampling-dd.dat
# Candidate        =  PSR_0332+5434
# Telescope        =  AR
# Epoch_topo       =  58279.454480440188
# Epoch_bary       =  N/A
# T_sample         =  0.002
# Data Folded      =  7340032
# Data Avg         =  6.51736187489945e-10
# Data StdDev      =  5.06526253647927 
# Profile Bins     =  512
# Profile Avg      =  -0.215489788226428
# Profile StdDev   =  606.479263538143 
# Reduced chi-sqr  =  0.946
# Prob(Noise)      <  0.806   (~0.0 sigma)
# P_topo (ms)      =  714.508147396245  +/- 0.000263
# P'_topo (s/s)    =  -0                +/- 1.39e-10
# P''_topo (s/s^2) =  0                 +/- 6.12e-14
# P_bary (ms)      =  N/A
# P'_bary (s/s)    =  N/A
# P''_bary (s/s^2) =  N/A
# P_orb (s)        =  N/A
# asin(i)/c (s)    =  N/A
# eccentricity     =  N/A
# w (rad)          =  N/A
# T_peri           =  N/A
######################################################
   0  -631.2943
   1  -894.0434
   2  -540.0407
   3  -558.3926
   4  -580.4423
   5  -250.647
   6  -556.0893
   7  -287.556
   8  425.9306
   9  191.7828
  10  -124.5173
  11  112.8943
  12  54.56811
  13  60.72153
  14  -303.5325
  15  -187.5459
  16  -59.9913
  17  56.61152
  18  257.3844
  19  -96.46929
  20  -102.0479
  21  -468.0677
  22  -374.5791
  23  -590.398
  24  -215.5515
  25  -133.9839
  26  -332.716
  27  -681.894
  28  -442.8813
  29  -172.6355
  30  -2.7909
  31  -9.180073
  32  263.0195
  33  74.27217
  34  -655.8287
  35  -697.6847
  36  -736.4257
  37  -474.343
  38  -392.8258
  39  -772.5936
  40  -511.8071
  41  -662.97
  42  -133.2892
  43  -412.9663
  44  -186.1127
  45  -552.8923
  46  -476.8172
  47  -199.8071
  48  -204.5837
  49  240.9267
  50  28.79408
  51  93.48866
  52  -239.2127
  53  -469.3556
  54  -409.6505
  55  -429.739
  56  -501.1925
  57  -608.9531
  58  -527.9465
  59  -36.69545
  60  -250.905
  61  41.59187
  62  83.84512
  63  -261.217
  64  -47.09599
  65  -53.31328
  66  354.6437
  67  413.9057
  68  11.76284
  69  -313.5293
  70  -28.77314
  71  155.5133
  72  345.8799
  73  150.9037
  74  424.4095
  75  211.2289
  76  -380.9851
  77  -260.6743
  78  -226.8121
  79  -1.800208
  80  -404.9643
  81  -247.6896
  82  140.563
  83  100.1124
  84  -164.5587
  85  91.51697
  86  543.99
  87  23.90332
  88  143.3752
  89  167.4321
  90  38.38016
  91  -31.69721
  92  -50.10392
  93  215.7613
  94  229.5158
  95  -71.21612
  96  -340.0565
  97  -525.5799
  98  271.7152
  99  713.0366
 100  87.25491
 101  -689.1074
 102  -530.7032
 103  -246.1103
 104  -222.6389
 105  -351.726
 106  -112.2571
 107  127.3939
 108  -469.1865
 109  -809.4593
 110  -356.8582
 111  42.90295
 112  -146.6846
 113  -607.1616
 114  -450.6363
 115  -636.3339
 116  -453.4949
 117  -822.3627
 118  -97.92271
 119  368.2437
 120  -322.1581
 121  -346.4875
 122  -298.3862
 123  -65.03545
 124  -252.9652
 125  225.3065
 126  479.1248
 127  703.3301
 128  250.2852
 129  65.87522
 130  -350.4721
 131  -230.3394
 132  255.2595
 133  459.6162
 134  482.3797
 135  27.57054
 136  -259.0291
 137  -533.2632
 138  -397.5638
 139  -113.7756
 140  -238.6004
 141  51.66802
 142  66.73252
 143  -279.6351
 144  -572.0458
 145  -203.1644
 146  -169.9672
 147  208.6241
 148  433.5133
 149  380.9962
 150  166.9493
 151  117.7949
 152  -556.1225
 153  -401.307
 154  -309.3118
 155  -5.756853
 156  -304.4554
 157  -3.323128
 158  -245.8484
 159  -469.0132
 160  -516.676
 161  -746.2149
 162  -327.7224
 163  -493.5499
 164  -462.5117
 165  -414.533
 166  -649.711
 167  -865.7302
 168  -918.1682
 169  -139.1281
 170  -9.268004
 171  -169.9503
 172  136.6552
 173  222.75
 174  -13.97959
 175  -177.3795
 176  -221.4344
 177  -76.00018
 178  -294.0312
 179  -383.5278
 180  -291.5651
 181  -20.28222
 182  289.3415
 183  260.5757
 184  256.3893
 185  3.869151
 186  -125.0132
 187  -158.2393
 188  231.1271
 189  454.9563
 190  -146.9103
 191  -503.4593
 192  -196.1442
 193  -399.0577
 194  -169.4266
 195  -321.8278
 196  38.35144
 197  -30.82307
 198  -279.3933
 199  -110.3463
 200  -358.2579
 201  -441.9085
 202  -814.3462
 203  -692.9078
 204  -764.2294
 205  -271.364
 206  -132.7315
 207  -263.5843
 208  -331.9472
 209  -453.226
 210  -692.4315
 211  -826.7802
 212  -476.588
 213  -172.1517
 214  313.5327
 215  4.812896
 216  -37.07034
 217  -54.62116
 218  -46.27465
 219  -216.6317
 220  -228.2909
 221  38.19161
 222  352.9161
 223  183.7536
 224  102.5429
 225  -241.7335
 226  -47.21811
 227  -17.92134
 228  -597.1711
 229  -346.7022
 230  -599.7212
 231  -65.684
 232  126.2685
 233  -47.32343
 234  233.8092
 235  -331.2641
 236  -272.1895
 237  0.6286764
 238  48.0937
 239  179.6509
 240  586.5142
 241  553.6791
 242  100.7177
 243  36.91375
 244  652.7094
 245  622.2119
 246  369.677
 247  501.1151
 248  637.6995
 249  540.8484
 250  -103.5551
 251  530.6747
 252  730.2329
 253  819.8962
 254  724.9278
 255  557.6655
 256  676.6499
 257  628.8409
 258  497.2638
 259  616.9915
 260  1061.787
 261  1433.74
 262  1026.349
 263  1494.138
 264  1975.336
 265  2259.826
 266  2169.366
 267  1227.927
 268  775.3558
 269  211.691
 270  561.6792
 271  745.1329
 272  1196.134
 273  802.6199
 274  982.3203
 275  883.2874
 276  545.1256
 277  276.3513
 278  372.8359
 279  399.663
 280  -119.2976
 281  314.1085
 282  176.3872
 283  122.2181
 284  -107.1669
 285  555.4419
 286  401.2076
 287  55.78382
 288  321.2284
 289  77.90376
 290  266.923
 291  189.875
 292  167.3889
 293  118.9207
 294  -163.0446
 295  45.60828
 296  212.1974
 297  572.6444
 298  550.7094
 299  354.8966
 300  -21.21697
 301  73.52857
 302  214.2952
 303  523.9148
 304  469.3796
 305  114.8526
 306  33.52551
 307  -5.883967
 308  21.29714
 309  31.21343
 310  208.0971
 311  526.2489
 312  170.103
 313  414.8746
 314  270.0965
 315  159.4075
 316  393.1519
 317  532.9885
 318  379.12
 319  -41.40927
 320  327.12
 321  396.0741
 322  145.2162
 323  214.0207
 324  -22.70225
 325  227.9108
 326  -316.717
 327  75.16223
 328  291.0539
 329  80.46289
 330  462.1889
 331  121.2659
 332  143.8122
 333  83.09821
 334  363.6841
 335  832.058
 336  298.0528
 337  197.4235
 338  220.0513
 339  184.8318
 340  105.8913
 341  -463.5729
 342  -467.0167
 343  -457.4354
 344  78.81079
 345  295.4712
 346  262.0096
 347  -345.2603
 348  -659.2147
 349  -55.25646
 350  218.9352
 351  -205.351
 352  -479.7092
 353  -233.6464
 354  100.084
 355  269.3236
 356  324.7688
 357  704.1342
 358  364.025
 359  -376.7624
 360  -153.9453
 361  -4.20642
 362  -111.7098
 363  -316.8211
 364  316.5897
 365  295.7544
 366  -173.6499
 367  -331.4296
 368  -701.1861
 369  -430.2548
 370  -189.6499
 371  -95.28821
 372  19.48083
 373  528.1732
 374  336.4573
 375  -158.6763
 376  -387.9467
 377  -294.0131
 378  -180.3877
 379  91.48155
 380  91.41121
 381  34.66618
 382  50.64952
 383  81.66895
 384  14.40352
 385  -432.2318
 386  -699.9595
 387  102.2481
 388  -230.123
 389  -193.3342
 390  -234.0062
 391  -159.6086
 392  9.418664
 393  -86.48942
 394  -257.9592
 395  -559.4164
 396  -577.826
 397  -334.1969
 398  -317.5681
 399  137.731
 400  -115.9274
 401  -179.8596
 402  -116.8365
 403  -44.14914
 404  359.1469
 405  588.7403
 406  699.3776
 407  189.3849
 408  -34.98929
 409  126.1969
 410  276.4842
 411  304.2148
 412  45.0416
 413  -28.46553
 414  68.52624
 415  662.1392
 416  469.6947
 417  649.1771
 418  385.7733
 419  433.5378
 420  701.3908
 421  691.2186
 422  544.076
 423  376.7491
 424  403.2849
 425  30.26372
 426  417.4093
 427  548.941
 428  361.2648
 429  -205.5578
 430  -467.2255
 431  78.0716
 432  54.02369
 433  -216.0677
 434  -395.2685
 435  530.0565
 436  955.2839
 437  201.179
 438  -425.9487
 439  -588.4908
 440  -485.0958
 441  -400.4782
 442  -473.6005
 443  -161.7403
 444  -196.7914
 445  -107.8337
 446  -264.4959
 447  -110.5106
 448  198.7699
 449  -183.2781
 450  -150.0316
 451  83.3319
 452  382.9611
 453  325.3101
 454  123.6579
 455  230.6547
 456  47.73609
 457  272.9611
 458  834.6733
 459  885.4475
 460  539.8555
 461  -29.18689
 462  254.0354
 463  -103.4543
 464  -164.4352
 465  -394.0155
 466  -302.9105
 467  -132.0938
 468  189.5437
 469  -142.8217
 470  21.17945
 471  49.19909
 472  -49.51899
 473  85.88004
 474  -461.9879
 475  384.2799
 476  339.5471
 477  459.5902
 478  290.8918
 479  62.41738
 480  238.6134
 481  156.2987
 482  -62.5883
 483  -188.2203
 484  -574.0609
 485  -830.6016
 486  -357.1237
 487  201.7716
 488  415.3285
 489  283.1953
 490  -302.2332
 491  -151.2564
 492  -202.6948
 493  -672.7543
 494  -444.8923
 495  -110.4346
 496  -223.0708
 497  -412.3016
 498  -420.181
 499  -39.55783
 500  -526.5001
 501  -727.1105
 502  5.598508
 503  396.648
 504  260.0222
 505  -145.9007
 506  -497.938
 507  -307.4797
 508  -583.9386
 509  -355.1733
 510  -27.58743
 511  -305.6365
