# Input file       =  1212404813.114432-PSRB0329-2ms-sampling-dd.dat
# Candidate        =  PSR_0332+5434
# Telescope        =  AR
# Epoch_topo       =  58276.463334657776
# Epoch_bary       =  N/A
# T_sample         =  0.002
# Data Folded      =  7340032
# Data Avg         =  4.36359507300721e-10
# Data StdDev      =  3.80594212406602 
# Profile Bins     =  512
# Profile Avg      =  0.0368648833249135
# Profile StdDev   =  455.697006788664 
# Reduced chi-sqr  =  0.790
# Prob(Noise)      <  1   (~0.0 sigma)
# P_topo (ms)      =  714.511016018087  +/- 0.000122
# P'_topo (s/s)    =  -0                +/- 6.44e-11
# P''_topo (s/s^2) =  0                 +/- 2.84e-14
# P_bary (ms)      =  N/A
# P'_bary (s/s)    =  N/A
# P''_bary (s/s^2) =  N/A
# P_orb (s)        =  N/A
# asin(i)/c (s)    =  N/A
# eccentricity     =  N/A
# w (rad)          =  N/A
# T_peri           =  N/A
######################################################
   0  -427.575
   1  -154.1465
   2  -143.6326
   3  -186.3632
   4  -97.66197
   5  6.368617
   6  -31.54923
   7  5.017768
   8  23.77454
   9  -184.252
  10  -698.0583
  11  -542.2037
  12  -353.6706
  13  -192.1762
  14  59.91823
  15  -1.401341
  16  -348.431
  17  -300.7412
  18  -341.6579
  19  -243.8804
  20  50.23961
  21  206.7507
  22  -108.0379
  23  23.57833
  24  -334.2169
  25  -358.9981
  26  -314.2593
  27  -542.1324
  28  -188.5609
  29  90.14906
  30  -252.8286
  31  -256.9766
  32  -128.9582
  33  -39.89044
  34  170.9232
  35  -11.19253
  36  -95.14449
  37  -211.7278
  38  -278.7982
  39  -64.37461
  40  -103.8952
  41  -595.6977
  42  -545.9542
  43  -285.3929
  44  -265.8639
  45  -199.4498
  46  128.9202
  47  253.0986
  48  134.9516
  49  -326.5702
  50  -239.1732
  51  -399.302
  52  -546.0065
  53  103.4785
  54  -104.5249
  55  205.7498
  56  161.3669
  57  -320.9268
  58  -424.203
  59  -714.5155
  60  -355.0362
  61  276.5565
  62  115.1583
  63  548.8071
  64  514.8986
  65  44.33794
  66  -141.5552
  67  -250.0278
  68  -183.4191
  69  117.3154
  70  -116.3974
  71  28.28047
  72  -233.4428
  73  -416.2437
  74  -229.6453
  75  -227.7637
  76  -77.19592
  77  39.58249
  78  170.9391
  79  174.6578
  80  571.2605
  81  789.5516
  82  1053.369
  83  1795.5
  84  1822.965
  85  1727.838
  86  1405.56
  87  1222.72
  88  522.2395
  89  233.0593
  90  428.1283
  91  -133.173
  92  -116.9629
  93  -119.2275
  94  -198.0322
  95  -19.68888
  96  263.2282
  97  359.8034
  98  -181.6195
  99  -295.6103
 100  -86.2529
 101  -23.3154
 102  -67.25819
 103  -97.83493
 104  173.3208
 105  -22.74836
 106  -354.5133
 107  -586.5521
 108  -421.8466
 109  -141.8225
 110  -59.06372
 111  -124.7075
 112  -105.088
 113  34.24195
 114  235.6933
 115  -49.91705
 116  -191.3391
 117  90.7149
 118  -161.6413
 119  -357.369
 120  -63.94619
 121  33.86918
 122  -91.06035
 123  -183.2601
 124  -263.2531
 125  -112.954
 126  7.321572
 127  -94.11552
 128  -51.94631
 129  362.7275
 130  345.7502
 131  -27.54112
 132  -165.0718
 133  157.0044
 134  100.1585
 135  119.9784
 136  -17.21219
 137  -81.26515
 138  -183.0311
 139  -300.3087
 140  -625.0587
 141  -136.3102
 142  65.99619
 143  -19.44069
 144  43.32631
 145  301.8985
 146  292.1849
 147  62.63913
 148  106.031
 149  36.87631
 150  -381.6936
 151  -22.11935
 152  -38.29958
 153  -218.4062
 154  307.5215
 155  356.6091
 156  285.5677
 157  276.6577
 158  228.7996
 159  162.2513
 160  84.47386
 161  234.4953
 162  366.7514
 163  312.8002
 164  9.100186
 165  -255.3098
 166  41.46582
 167  314.9021
 168  80.93604
 169  66.23235
 170  -311.2491
 171  -298.3796
 172  -104.1474
 173  158.2628
 174  363.3719
 175  236.5592
 176  -62.04145
 177  269.1165
 178  189.8133
 179  151.7762
 180  98.62505
 181  -30.07512
 182  234.5458
 183  -20.23626
 184  -170.8888
 185  -146.6835
 186  -49.9671
 187  295.1516
 188  238.6947
 189  -597.42
 190  -482.9366
 191  -113.3532
 192  118.6005
 193  88.37303
 194  83.7426
 195  412.9957
 196  -310.7189
 197  -223.1785
 198  17.93221
 199  273.2524
 200  98.1482
 201  -212.6791
 202  69.7011
 203  19.7168
 204  370.4011
 205  113.2171
 206  -28.426
 207  381.2208
 208  165.1164
 209  92.85683
 210  -42.60342
 211  311.7374
 212  281.7671
 213  45.21738
 214  -239.168
 215  -97.83389
 216  128.0537
 217  186.8056
 218  347.6001
 219  296.7138
 220  159.1147
 221  -271.7616
 222  -622.0198
 223  -256.1344
 224  -228.2326
 225  -244.704
 226  82.56564
 227  420.7142
 228  253.8864
 229  -18.51468
 230  -170.3251
 231  -251.0993
 232  -96.78985
 233  -285.9094
 234  120.3516
 235  421.5275
 236  337.1716
 237  -47.5782
 238  -192.961
 239  -131.25
 240  155.0526
 241  277.4555
 242  91.28054
 243  -49.10881
 244  83.57119
 245  269.8655
 246  172.774
 247  17.8571
 248  57.74073
 249  76.32405
 250  132.6623
 251  223.455
 252  34.36098
 253  -262.087
 254  72.57191
 255  166.4715
 256  -161.7037
 257  -243.0276
 258  -16.49493
 259  141.8036
 260  128.32
 261  48.59914
 262  258.9841
 263  43.78393
 264  31.4391
 265  -122.8486
 266  -127.4115
 267  240.2312
 268  -74.67988
 269  6.105751
 270  64.23383
 271  160.994
 272  124.3033
 273  -61.93948
 274  -91.1544
 275  326.8705
 276  103.4303
 277  -107.0033
 278  261.278
 279  148.3147
 280  -101.5649
 281  -28.98276
 282  -57.24298
 283  303.5619
 284  400.8289
 285  341.2003
 286  -199.802
 287  -335.4117
 288  -205.008
 289  -69.80051
 290  241.7018
 291  86.23829
 292  332.0035
 293  356.9728
 294  587.2733
 295  125.5915
 296  -30.08289
 297  -140.5789
 298  182.4645
 299  574.8054
 300  350.934
 301  325.7653
 302  107.5773
 303  -9.821824
 304  -268.6056
 305  -91.7321
 306  -126.0173
 307  -24.07404
 308  84.91362
 309  317.239
 310  194.8284
 311  -158.5654
 312  -262.0065
 313  -233.5577
 314  -44.59087
 315  -179.5063
 316  -217.9085
 317  172.8649
 318  145.2279
 319  -173.0215
 320  -84.18196
 321  85.34797
 322  -29.34574
 323  -366.0463
 324  -264.6949
 325  -54.98204
 326  93.65285
 327  146.3045
 328  224.1124
 329  415.0583
 330  399.5016
 331  475.5718
 332  147.9558
 333  85.87608
 334  732.1241
 335  182.6923
 336  146.4433
 337  28.41515
 338  -114.2173
 339  -271.3365
 340  -114.7259
 341  343.8127
 342  120.4496
 343  -159.8185
 344  -268.8229
 345  121.5874
 346  -61.80554
 347  -39.53012
 348  -33.06614
 349  -346.1018
 350  -30.33237
 351  -89.5195
 352  -2.856793
 353  -94.32877
 354  3.043638
 355  108.5326
 356  256.002
 357  386.1945
 358  37.03685
 359  102.6195
 360  153.6398
 361  193.5311
 362  -53.96107
 363  -235.36
 364  275.2256
 365  618.1252
 366  428.3843
 367  -14.71694
 368  -5.064387
 369  170.1372
 370  133.1102
 371  96.67953
 372  36.61322
 373  -123.0951
 374  -137.8151
 375  534.0434
 376  416.3926
 377  338.0773
 378  -345.6142
 379  -525.4823
 380  -464.0963
 381  -453.3658
 382  115.1271
 383  297.8457
 384  -64.56015
 385  -2.567072
 386  -178.2433
 387  -359.2607
 388  -389.994
 389  -118.4451
 390  22.04047
 391  -167.7683
 392  -61.81998
 393  -158.8907
 394  -49.27413
 395  2.471749
 396  -100.8659
 397  -402.0939
 398  -121.1972
 399  -279.445
 400  -133.3091
 401  -153.085
 402  -335.9335
 403  -200.6929
 404  -142.8287
 405  7.160156
 406  -392.3031
 407  -427.0334
 408  -84.87983
 409  167.0621
 410  315.3003
 411  86.54455
 412  -317.0487
 413  -594.0645
 414  -620.4736
 415  -525.4393
 416  -126.6828
 417  -45.91169
 418  -297.5278
 419  -426.9589
 420  -323.1228
 421  -270.8027
 422  -157.9027
 423  213.7553
 424  311.602
 425  -114.5543
 426  -163.5875
 427  -79.13358
 428  152.0173
 429  -86.03858
 430  108.4065
 431  192.7635
 432  85.5252
 433  -238.1296
 434  35.71243
 435  156.7933
 436  458.5953
 437  261.4699
 438  109.543
 439  131.0729
 440  -296.0819
 441  -274.291
 442  -181.8362
 443  41.88753
 444  39.85106
 445  -2.590568
 446  -119.0636
 447  -119.1884
 448  -350.122
 449  -210.956
 450  -35.48916
 451  -5.29406
 452  -87.22127
 453  -247.7206
 454  -129.0804
 455  -58.95526
 456  1.190056
 457  306.7882
 458  462.204
 459  411.3408
 460  435.7916
 461  -102.0778
 462  -234.111
 463  -308.368
 464  -39.05256
 465  -256.1701
 466  -141.6579
 467  48.49253
 468  -63.82996
 469  -43.985
 470  -384.3655
 471  -129.5529
 472  53.96763
 473  126.3622
 474  -241.733
 475  -229.3101
 476  -44.10242
 477  -37.06629
 478  21.72752
 479  142.0901
 480  -227.1044
 481  -68.46011
 482  39.60003
 483  49.34903
 484  6.578495
 485  206.5429
 486  228.8714
 487  181.1765
 488  69.0679
 489  -252.0013
 490  -110.9396
 491  71.66341
 492  194.5606
 493  77.3254
 494  121.4064
 495  192.6072
 496  -90.84819
 497  -399.0923
 498  -231.0186
 499  -226.0768
 500  -255.267
 501  -23.41913
 502  -99.5882
 503  -188.0394
 504  -227.5378
 505  -211.902
 506  59.7705
 507  -40.45142
 508  -226.8794
 509  306.0978
 510  76.81052
 511  -490.6834
