# Input file       =  1212633698.108952_cleaned.dat
# Candidate        =  PSR_0332+5434
# Telescope        =  AR
# Epoch_topo       =  58279.112466538798
# Epoch_bary       =  N/A
# T_sample         =  0.002
# Data Folded      =  7208960
# Data Avg         =  0.280264260046269
# Data StdDev      =  5.71458911516047 
# Profile Bins     =  512
# Profile Avg      =  3946.1494015415  
# Profile StdDev   =  678.088434403623 
# Reduced chi-sqr  =  0.516
# Prob(Noise)      <  1   (~0.0 sigma)
# P_topo (ms)      =  714.508130580706  +/- 6.57e-05
# P'_topo (s/s)    =  -0                +/- 3.53e-11
# P''_topo (s/s^2) =  0                 +/- 1.59e-14
# P_bary (ms)      =  N/A
# P'_bary (s/s)    =  N/A
# P''_bary (s/s^2) =  N/A
# P_orb (s)        =  N/A
# asin(i)/c (s)    =  N/A
# eccentricity     =  N/A
# w (rad)          =  N/A
# T_peri           =  N/A
######################################################
   0  4166.492
   1  4313.375
   2  4341.474
   3  4431.009
   4  3741.47
   5  3780.809
   6  3546.13
   7  3641.729
   8  3978.235
   9  3807.999
  10  4358.335
  11  3817.581
  12  3835.63
  13  4029.698
  14  3962.638
  15  4123.118
  16  3797.071
  17  4111.402
  18  4368.909
  19  4322.894
  20  3609.008
  21  3826.04
  22  3671.618
  23  3994.695
  24  3950.284
  25  3602.161
  26  3876.125
  27  3925.681
  28  4101.086
  29  3975.323
  30  3948.15
  31  4201.33
  32  3924.151
  33  3954.373
  34  4131.411
  35  4116.459
  36  4091.543
  37  3749.819
  38  3816.88
  39  3592.662
  40  3816.227
  41  3453.78
  42  4059.146
  43  3909.393
  44  3689.312
  45  3897.426
  46  4112.171
  47  4540.461
  48  3920.445
  49  4055.423
  50  3729.354
  51  4011.201
  52  4000.5
  53  3958.472
  54  4123.009
  55  3876.02
  56  3988.93
  57  3621.926
  58  4064.746
  59  3912.81
  60  3677.201
  61  3912.829
  62  3774.549
  63  3963.949
  64  4112.512
  65  4488.717
  66  4430.562
  67  4092.075
  68  3910.212
  69  3741.179
  70  3912.749
  71  3660.044
  72  4059.39
  73  3997.611
  74  3796.873
  75  3846.047
  76  4444.143
  77  4503.827
  78  3589.439
  79  4224.307
  80  3644.724
  81  3699.101
  82  3966.887
  83  4200.776
  84  4374.922
  85  4438.16
  86  4339.3
  87  4035.985
  88  4093.167
  89  3787.517
  90  3708.394
  91  3727.02
  92  3277.665
  93  3891.672
  94  4006.111
  95  3956.476
  96  4337.93
  97  4389.007
  98  4333.674
  99  3964.485
 100  4267.379
 101  4374.17
 102  4139.888
 103  3736.52
 104  3811.631
 105  3624.841
 106  3494.585
 107  3807.475
 108  3622.445
 109  4026.176
 110  4033.908
 111  4072.412
 112  4185.623
 113  4016.886
 114  4096.752
 115  3494.755
 116  3750.49
 117  4229.372
 118  4348.933
 119  3581.402
 120  3759.845
 121  3943.667
 122  3784.794
 123  3790.687
 124  3065.983
 125  3502.318
 126  3520.635
 127  3520.203
 128  3855.801
 129  4115.287
 130  5153.461
 131  4693.018
 132  4181.639
 133  3946.527
 134  4019.625
 135  3808.82
 136  3546.472
 137  3398.143
 138  3759.61
 139  4167.201
 140  3801.502
 141  4155.436
 142  3943.202
 143  3713.05
 144  3502.816
 145  3248.316
 146  4010.375
 147  4488.92
 148  4845.646
 149  4284.387
 150  4295.567
 151  4072.258
 152  3925.562
 153  4111.645
 154  3737.62
 155  3665.03
 156  3544.364
 157  3800.96
 158  3784.378
 159  4096.983
 160  4174.269
 161  3612.097
 162  4073.453
 163  3829.692
 164  3998.156
 165  4113.574
 166  4013.05
 167  4349.203
 168  4386.415
 169  4085.398
 170  3614.563
 171  3794.396
 172  3622.926
 173  3624.206
 174  4063.573
 175  3937.195
 176  3689.943
 177  3457.345
 178  3547.71
 179  4007.737
 180  4452.111
 181  4440.702
 182  4093.577
 183  4812.968
 184  4570.693
 185  3924.825
 186  3640.186
 187  3641.038
 188  3213.136
 189  3207.686
 190  3549.486
 191  3026.932
 192  3793.544
 193  4129.329
 194  4010.272
 195  4211.364
 196  3908.071
 197  3765.721
 198  3565.588
 199  3616.755
 200  3463.336
 201  3931.812
 202  3644.042
 203  3957.304
 204  4197.812
 205  4113.732
 206  3915.78
 207  3557.533
 208  3769.095
 209  3298.635
 210  3520.478
 211  4009.441
 212  3924.442
 213  4259.907
 214  4127.317
 215  4100.674
 216  4236.433
 217  3934.064
 218  3352.207
 219  3154.806
 220  3312.815
 221  3150.537
 222  3963.991
 223  4058.496
 224  3816.529
 225  4037.789
 226  4152.09
 227  4135.922
 228  3516.497
 229  4158.417
 230  4205.735
 231  4317.816
 232  4379.046
 233  4262.103
 234  4115.1
 235  3801.077
 236  3891.439
 237  3798.805
 238  3994.658
 239  3925.161
 240  4364.275
 241  4424.126
 242  3907.343
 243  4031.356
 244  3325.365
 245  3793.99
 246  3963.291
 247  4077.936
 248  4272.537
 249  4003.679
 250  4005.927
 251  3816.025
 252  3654.283
 253  3588.366
 254  4053.609
 255  3976.754
 256  3857.221
 257  4137.906
 258  4043.16
 259  4163.454
 260  3535.698
 261  3492.841
 262  3668.252
 263  3914.64
 264  4202.911
 265  3934.202
 266  4426.591
 267  4326.787
 268  3877.513
 269  3657.189
 270  3969.647
 271  3694.38
 272  3696.922
 273  4045.471
 274  3499.31
 275  3969.822
 276  3870.666
 277  3920.285
 278  3997.651
 279  4002.451
 280  3978.814
 281  3953.109
 282  3870.569
 283  3689.936
 284  3905.73
 285  3305.708
 286  3393.027
 287  4096.486
 288  4039.227
 289  3854.592
 290  3530.108
 291  3977.056
 292  4024.63
 293  3988.843
 294  4677.776
 295  4399.606
 296  5085.684
 297  5268.271
 298  5904.58
 299  5966.188
 300  5514.285
 301  4602.319
 302  3655.22
 303  3574.81
 304  3300.376
 305  3932.3
 306  3667.504
 307  3876.542
 308  3878.376
 309  3689.302
 310  4112.669
 311  4103.281
 312  4817.93
 313  4471.657
 314  4615.842
 315  4390.555
 316  4105.852
 317  3589.556
 318  3531.884
 319  3745.676
 320  3890.164
 321  4283.414
 322  4396.701
 323  4429.559
 324  3955.826
 325  3594.348
 326  3720.811
 327  3607.707
 328  3866.516
 329  4494.022
 330  4228.857
 331  4142.579
 332  3915.676
 333  3977.096
 334  3891.276
 335  3522.383
 336  3448.247
 337  3680.916
 338  3645.01
 339  3597.74
 340  4183.295
 341  4423.356
 342  4434.506
 343  3604.389
 344  3785.762
 345  3544.55
 346  3627.461
 347  4164.815
 348  4309.115
 349  4472.351
 350  4154.209
 351  3775.372
 352  3529.374
 353  3730.496
 354  3658.954
 355  3727.147
 356  3790.74
 357  3508.48
 358  3774.253
 359  3997.243
 360  3652.77
 361  4270.924
 362  3948.143
 363  4101.606
 364  3991.967
 365  3746.647
 366  3332.953
 367  3429.415
 368  3580.721
 369  3355.732
 370  3734.725
 371  3765.291
 372  4092.497
 373  3669.47
 374  3956.989
 375  3551.255
 376  3925.367
 377  4067.833
 378  3841.428
 379  4351.285
 380  3783.763
 381  4079.906
 382  4161.704
 383  4239.59
 384  3525.255
 385  3559.165
 386  4185.997
 387  3697.789
 388  4288.896
 389  3562.735
 390  3471.837
 391  3495.105
 392  3332.77
 393  3749.114
 394  4253.62
 395  4781.126
 396  4286.948
 397  4578.77
 398  4275.122
 399  3860.303
 400  3518.98
 401  3371.529
 402  3502.645
 403  3690.77
 404  4182.293
 405  3938.679
 406  4381.589
 407  4499.524
 408  3782.307
 409  3823.453
 410  3743.222
 411  4021.384
 412  4066.637
 413  3927.462
 414  3893.86
 415  4165.993
 416  4198.278
 417  3950.267
 418  3901.128
 419  3685.462
 420  4089.721
 421  3876.712
 422  3802.701
 423  4148.944
 424  3833.545
 425  3993.502
 426  4300.922
 427  4291.074
 428  4284.027
 429  3825.744
 430  4092.5
 431  4024.592
 432  3956.032
 433  3917.928
 434  3788.505
 435  3547.275
 436  3384.033
 437  3702.983
 438  4052.998
 439  4010.688
 440  3464.277
 441  4118.41
 442  3800.344
 443  3738.783
 444  4285.32
 445  3738.256
 446  4204.458
 447  4280.667
 448  4634.853
 449  4131.935
 450  3923.065
 451  3867.131
 452  3768.026
 453  3806.867
 454  3401.35
 455  3634.938
 456  3423.411
 457  3782.713
 458  3938.646
 459  3964.437
 460  4479.346
 461  3952.809
 462  4049.77
 463  4270.515
 464  4270.494
 465  4071.157
 466  3852.766
 467  3525.856
 468  3657.965
 469  3982.072
 470  3820.455
 471  3752.952
 472  3692.126
 473  3670.599
 474  3512.522
 475  3470.626
 476  3854.543
 477  4130.662
 478  4430.378
 479  4228.642
 480  4192.217
 481  4342.328
 482  3877.899
 483  3686.892
 484  3522.164
 485  3535.945
 486  3570.63
 487  3979.149
 488  3932.527
 489  3922.519
 490  3912.388
 491  3429.821
 492  4193.279
 493  4297.959
 494  4123.366
 495  3955.206
 496  4196.002
 497  4100.475
 498  3998.403
 499  4254.852
 500  3902.397
 501  3940.118
 502  4148.845
 503  4366.982
 504  4285.494
 505  3974.168
 506  3998.631
 507  3550.787
 508  3511.76
 509  3857.048
 510  4346.527
 511  4600.833
