# Input file       =  1212303721.111694-PSRB0329-2ms-sampling-dd.dat
# Candidate        =  PSR_0332+5434
# Telescope        =  AR
# Epoch_topo       =  58275.293288329791
# Epoch_bary       =  N/A
# T_sample         =  0.002
# Data Folded      =  7340032
# Data Avg         =  -2.64320881345329e-10
# Data StdDev      =  3.90805164886452 
# Profile Bins     =  512
# Profile Avg      =  0.231886621838098
# Profile StdDev   =  467.922890235777 
# Reduced chi-sqr  =  1.509
# Prob(Noise)      <  6.98e-13   (~7.1 sigma)
# P_topo (ms)      =  714.511809310777  +/- 0.000472
# P'_topo (s/s)    =  -0                +/- 2.49e-10
# P''_topo (s/s^2) =  0                 +/- 1.1e-13
# P_bary (ms)      =  N/A
# P'_bary (s/s)    =  N/A
# P''_bary (s/s^2) =  N/A
# P_orb (s)        =  N/A
# asin(i)/c (s)    =  N/A
# eccentricity     =  N/A
# w (rad)          =  N/A
# T_peri           =  N/A
######################################################
   0  -485.9025
   1  -131.7116
   2  -247.5627
   3  -456.8818
   4  -613.2946
   5  -457.944
   6  -490.0717
   7  -654.3774
   8  -845.7299
   9  -408.3936
  10  -528.4861
  11  -422.3779
  12  -224.2342
  13  -537.5964
  14  -554.4197
  15  -334.9902
  16  -85.23655
  17  -136.6566
  18  45.60382
  19  155.4689
  20  -198.3637
  21  -94.20018
  22  -152.1939
  23  -576.8482
  24  -594.6612
  25  -414.2938
  26  -404.9336
  27  -437.6908
  28  -319.1777
  29  -424.5797
  30  -547.5659
  31  -597.6982
  32  -540.0348
  33  -415.1496
  34  -355.0644
  35  -346.8107
  36  -365.6044
  37  -443.3432
  38  -366.1034
  39  -617.4274
  40  -510.847
  41  -494.0533
  42  -755.3512
  43  -746.2597
  44  -595.7928
  45  -391.2847
  46  -189.4501
  47  -239.2803
  48  -413.7284
  49  -273.7661
  50  -88.99438
  51  44.90487
  52  51.79486
  53  281.3719
  54  132.0331
  55  -137.1721
  56  86.61068
  57  107.9413
  58  -270.1475
  59  -525.4727
  60  -371.6081
  61  -24.93317
  62  -185.3401
  63  -45.2909
  64  -0.9959753
  65  -54.89367
  66  -336.1887
  67  -136.0857
  68  235.9032
  69  231.1237
  70  81.0074
  71  -100.1997
  72  -275.6909
  73  119.5998
  74  270.5135
  75  50.10139
  76  47.2663
  77  5.088497
  78  132.5547
  79  -38.06205
  80  -177.2484
  81  -281.6805
  82  15.55417
  83  -12.90104
  84  -170.1904
  85  96.67719
  86  171.1654
  87  18.04926
  88  -424.5035
  89  -257.4529
  90  -213.975
  91  47.82026
  92  442.6159
  93  431.3005
  94  270.0644
  95  255.9451
  96  224.5305
  97  -12.61833
  98  -134.7139
  99  -218.7094
 100  -180.6277
 101  -15.69453
 102  347.129
 103  495.441
 104  -54.16777
 105  -284.6492
 106  -96.84409
 107  44.04742
 108  198.5488
 109  396.2546
 110  296.649
 111  159.2602
 112  224.1714
 113  63.84719
 114  -7.440967
 115  139.8014
 116  321.6146
 117  441.9926
 118  265.3865
 119  785.0189
 120  1073.472
 121  784.9522
 122  1485.345
 123  1959.124
 124  1741.686
 125  1142.226
 126  750.8747
 127  553.7878
 128  198.9492
 129  119.6936
 130  -35.27134
 131  44.14305
 132  -34.74612
 133  277.4453
 134  152.0273
 135  170.6047
 136  442.879
 137  102.1592
 138  255.5582
 139  320.6123
 140  15.79415
 141  -56.04092
 142  184.5345
 143  312.639
 144  444.7526
 145  337.9149
 146  -214.0152
 147  -48.1505
 148  120.2268
 149  330.6325
 150  449.4108
 151  147.4146
 152  281.5993
 153  -171.7653
 154  244.7667
 155  7.210217
 156  73.92965
 157  331.8245
 158  -49.98523
 159  -271.7067
 160  -2.773214
 161  -8.976172
 162  -109.2897
 163  -41.61605
 164  -95.97435
 165  214.1362
 166  83.85546
 167  78.64102
 168  288.7948
 169  373.5814
 170  392.3254
 171  46.28762
 172  99.91753
 173  273.0005
 174  237.2086
 175  65.0583
 176  45.68165
 177  -32.74106
 178  109.2891
 179  63.28369
 180  20.16094
 181  262.8847
 182  222.9439
 183  543.1408
 184  552.6839
 185  800.483
 186  597.4323
 187  47.72607
 188  28.69575
 189  138.6885
 190  103.5938
 191  206.3564
 192  418.7314
 193  147.6714
 194  279.427
 195  173.7955
 196  298.9037
 197  22.90282
 198  448.5014
 199  701.1953
 200  213.4014
 201  81.70019
 202  218.7103
 203  552.3467
 204  460.8275
 205  420.3085
 206  485.2873
 207  36.50684
 208  247.9519
 209  757.3785
 210  933.3212
 211  643.4117
 212  149.6085
 213  104.9682
 214  299.5622
 215  480.3179
 216  583.9755
 217  322.736
 218  424.3346
 219  702.1844
 220  402.8942
 221  195.4387
 222  486.7816
 223  347.2307
 224  274.5033
 225  329.2616
 226  566.2042
 227  430.6956
 228  283.8476
 229  191.3472
 230  267.7504
 231  368.135
 232  392.2271
 233  578.6445
 234  532.7044
 235  574.2615
 236  418.3322
 237  117.7173
 238  450.2711
 239  252.0122
 240  306.353
 241  334.3244
 242  454.8673
 243  717.1849
 244  378.6236
 245  580.5304
 246  514.2624
 247  391.9603
 248  425.1166
 249  298.7299
 250  717.6919
 251  781.5176
 252  797.9017
 253  654.02
 254  182.1217
 255  326.3242
 256  378.8951
 257  551.0044
 258  399.9561
 259  501.8232
 260  421.6362
 261  674.2366
 262  355.308
 263  372.748
 264  487.9698
 265  471.9099
 266  703.6936
 267  845.9151
 268  467.1076
 269  194.8114
 270  168.7392
 271  88.50144
 272  361.0632
 273  830.7451
 274  947.2677
 275  431.4738
 276  379.8579
 277  914.5687
 278  668.2411
 279  538.4387
 280  438.382
 281  508.4298
 282  719.7006
 283  520.0209
 284  916.2737
 285  1031.627
 286  486.5201
 287  -100.7928
 288  58.72122
 289  145.1399
 290  283.8822
 291  447.5168
 292  736.3254
 293  671.4725
 294  420.49
 295  648.3445
 296  146.9049
 297  17.17875
 298  438.1929
 299  566.7979
 300  452.1868
 301  475.2623
 302  549.9323
 303  477.9289
 304  49.66063
 305  231.836
 306  226.7996
 307  196.6602
 308  224.3923
 309  287.9438
 310  171.8879
 311  -51.56942
 312  171.4354
 313  189.871
 314  592.764
 315  396.9019
 316  77.69574
 317  77.27341
 318  126.9776
 319  300.6723
 320  -23.6671
 321  131.3917
 322  -108.0176
 323  219.2346
 324  361.5495
 325  158.0203
 326  276.0586
 327  192.9725
 328  314.6115
 329  319.1584
 330  129.8654
 331  119.3271
 332  109.6601
 333  40.18275
 334  233.4749
 335  385.307
 336  196.381
 337  171.8453
 338  -22.33886
 339  -199.0827
 340  -2.674605
 341  -109.643
 342  181.9175
 343  130.6715
 344  -81.80489
 345  -16.81954
 346  9.391514
 347  -148.9982
 348  45.94216
 349  102.7464
 350  371.0433
 351  210.7906
 352  25.64906
 353  -319.49
 354  -192.1637
 355  8.040429
 356  -195.69
 357  -347.3641
 358  -116.213
 359  -311.7042
 360  -150.4931
 361  -297.2645
 362  -640.7076
 363  -546.5273
 364  -318.6007
 365  -184.8034
 366  -55.71295
 367  -150.0546
 368  -291.45
 369  -180.133
 370  -400.4804
 371  -391.3547
 372  -260.6983
 373  83.93967
 374  263.3104
 375  49.61303
 376  -64.63153
 377  -122.9373
 378  -95.2621
 379  -164.5328
 380  -293.255
 381  -253.8679
 382  -296.1443
 383  -202.1505
 384  -27.72113
 385  162.6026
 386  -288.0023
 387  -205.1755
 388  -101.444
 389  -219.89
 390  -199.0469
 391  -302.8751
 392  -199.6324
 393  114.058
 394  -184.0284
 395  -273.1583
 396  47.63924
 397  -76.56932
 398  -161.3543
 399  -455.1747
 400  -163.2359
 401  -267.8948
 402  -456.2827
 403  -268.8612
 404  -244.7187
 405  -249.7666
 406  -617.7247
 407  -373.3703
 408  -101.5243
 409  -266.3892
 410  -375.9417
 411  -272.6339
 412  -390.1577
 413  -90.27439
 414  -65.96315
 415  -151.8542
 416  -478.7705
 417  -588.0476
 418  -444.1003
 419  -557.2806
 420  -590.0004
 421  -623.4277
 422  -462.8238
 423  -659.7659
 424  -778.4077
 425  -452.7067
 426  -409.34
 427  -137.2366
 428  -511.3486
 429  -556.2587
 430  -548.4266
 431  -301.5616
 432  -223.8334
 433  -386.6035
 434  -555.4821
 435  -425.066
 436  -294.7604
 437  -612.2387
 438  -213.5743
 439  -251.2488
 440  -544.2275
 441  -464.4821
 442  -339.07
 443  -550.3746
 444  -714.9255
 445  -421.0083
 446  -434.8527
 447  -282.0858
 448  -114.4755
 449  -46.3676
 450  -467.275
 451  -553.3628
 452  -414.5494
 453  -470.4272
 454  -509.4655
 455  -517.3937
 456  -604.3506
 457  -397.7677
 458  -816.5507
 459  -921.1483
 460  -435.4003
 461  -649.7336
 462  -366.9673
 463  -241.5831
 464  -393.9125
 465  -475.4937
 466  -478.0413
 467  -270.8566
 468  -741.0718
 469  -586.5546
 470  -421.2133
 471  -586.4308
 472  -638.7318
 473  -776.2985
 474  -472.3541
 475  -525.8599
 476  -361.4318
 477  -117.9098
 478  -617.2874
 479  -790.1502
 480  -492.0728
 481  -476.8152
 482  -528.4387
 483  -610.2334
 484  -556.0533
 485  -579.0084
 486  -469.7102
 487  -602.7103
 488  -912.2681
 489  -807.3681
 490  -748.7958
 491  -312.3329
 492  -200.5998
 493  -381.1565
 494  -349.204
 495  -352.9975
 496  -367.6448
 497  -325.413
 498  -183.5057
 499  -490.9482
 500  -530.5282
 501  -328.3977
 502  -72.32175
 503  -244.3164
 504  -345.8995
 505  -264.8114
 506  -411.186
 507  -488.4915
 508  -465.2774
 509  -620.4249
 510  -538.6299
 511  -445.11
