# Input file       =  1212490957.114973_cleaned.dat
# Candidate        =  PSR_0332+5434
# Telescope        =  AR
# Epoch_topo       =  58277.460371701076
# Epoch_bary       =  N/A
# T_sample         =  0.002
# Data Folded      =  7340032
# Data Avg         =  0.0204734451160352
# Data StdDev      =  2.5468387323038  
# Profile Bins     =  512
# Profile Avg      =  293.380173678822 
# Profile StdDev   =  304.940734580688 
# Reduced chi-sqr  =  1.383
# Prob(Noise)      <  1.96e-08   (~5.5 sigma)
# P_topo (ms)      =  714.510056952569  +/- 0.00031
# P'_topo (s/s)    =  -0                +/- 1.63e-10
# P''_topo (s/s^2) =  0                 +/- 7.22e-14
# P_bary (ms)      =  N/A
# P'_bary (s/s)    =  N/A
# P''_bary (s/s^2) =  N/A
# P_orb (s)        =  N/A
# asin(i)/c (s)    =  N/A
# eccentricity     =  N/A
# w (rad)          =  N/A
# T_peri           =  N/A
######################################################
   0  283.0533
   1  253.952
   2  265.5746
   3  263.3925
   4  324.6186
   5  535.7951
   6  453.0227
   7  554.9462
   8  574.9674
   9  790.5103
  10  573.1817
  11  484.9628
  12  424.8786
  13  344.8051
  14  244.1768
  15  -130.7115
  16  -17.07198
  17  81.91394
  18  150.3841
  19  264.6241
  20  469.5023
  21  614.5655
  22  230.3311
  23  -17.2593
  24  -4.867021
  25  -27.78301
  26  -186.954
  27  66.08125
  28  357.8715
  29  189.6112
  30  445.2508
  31  391.4673
  32  -83.29151
  33  179.7168
  34  413.5624
  35  441.0536
  36  51.88507
  37  -137.9859
  38  114.9631
  39  357.6512
  40  -0.09125856
  41  36.70031
  42  568.3301
  43  622.3339
  44  382.9821
  45  143.227
  46  225.4763
  47  181.7691
  48  387.2363
  49  237.5583
  50  -127.894
  51  127.2602
  52  320.0756
  53  254.618
  54  242.8803
  55  417.4694
  56  593.5636
  57  800.5935
  58  573.5499
  59  386.346
  60  284.187
  61  430.3449
  62  411.6514
  63  -33.12637
  64  33.91246
  65  297.8934
  66  237.9871
  67  93.42486
  68  19.58144
  69  441.2763
  70  153.8251
  71  463.5542
  72  -48.17766
  73  10.87823
  74  145.6205
  75  320.3188
  76  267.4281
  77  -1.858494
  78  -18.56446
  79  75.15723
  80  251.5618
  81  167.4524
  82  339.0785
  83  139.1279
  84  235.9136
  85  397.7628
  86  352.6845
  87  437.1577
  88  692.3754
  89  504.5312
  90  230.677
  91  152.9858
  92  190.2494
  93  116.425
  94  92.86869
  95  260.7954
  96  444.6813
  97  379.1315
  98  593.933
  99  514.5636
 100  335.6844
 101  25.665
 102  38.25896
 103  144.5205
 104  19.7174
 105  -114.639
 106  429.7839
 107  241.857
 108  441.4927
 109  684.7627
 110  511.7709
 111  49.41385
 112  276.6524
 113  514.8793
 114  637.2881
 115  370.9919
 116  640.1841
 117  569.6246
 118  353.1607
 119  580.9184
 120  473.0413
 121  208.5377
 122  280.8025
 123  156.1044
 124  454.2322
 125  619.8394
 126  499.786
 127  529.1865
 128  509.4575
 129  528.6762
 130  312.8185
 131  489.8203
 132  232.9933
 133  338.2179
 134  369.7809
 135  452.5615
 136  316.3177
 137  321.2297
 138  170.1134
 139  111.981
 140  108.0258
 141  10.32625
 142  144.2883
 143  273.5185
 144  41.05433
 145  -1.356954
 146  107.7032
 147  174.1001
 148  69.44526
 149  65.15091
 150  16.25478
 151  335.2213
 152  232.5612
 153  372.3115
 154  608.7834
 155  527.9984
 156  226.0716
 157  69.62508
 158  449.3597
 159  330.754
 160  93.63683
 161  315.7216
 162  256.8484
 163  354.6717
 164  190.533
 165  378.6506
 166  280.7071
 167  293.889
 168  383.773
 169  219.759
 170  -89.92199
 171  -32.08695
 172  79.73777
 173  149.6476
 174  385.7851
 175  405.9839
 176  245.5469
 177  205.0686
 178  419.7314
 179  319.4268
 180  405.9294
 181  453.4801
 182  879.4572
 183  673.0561
 184  290.3224
 185  259.1321
 186  485.8419
 187  491.1914
 188  347.1677
 189  314.524
 190  386.7385
 191  414.4973
 192  494.5608
 193  644.6934
 194  562.7734
 195  299.2217
 196  182.9076
 197  508.2972
 198  162.2664
 199  -9.382374
 200  410.5013
 201  634.7126
 202  346.3357
 203  417.2135
 204  448.0969
 205  368.7633
 206  434.4799
 207  600.0016
 208  232.8644
 209  254.4527
 210  729.8615
 211  818.9241
 212  306.3539
 213  335.5049
 214  451.8571
 215  559.4554
 216  480.8761
 217  434.0551
 218  528.2158
 219  327.0713
 220  213.5351
 221  154.2211
 222  229.4352
 223  168.0401
 224  491.1205
 225  362.6891
 226  499.452
 227  416.8493
 228  201.8663
 229  2.455485
 230  66.59087
 231  454.0725
 232  201.0925
 233  -210.7828
 234  -139.1854
 235  315.1258
 236  403.5764
 237  421.3797
 238  420.5995
 239  172.7187
 240  346.4296
 241  435.8465
 242  -136.3983
 243  193.8722
 244  32.85513
 245  162.7169
 246  382.8083
 247  300.0901
 248  412.8336
 249  373.6433
 250  392.1194
 251  625.5
 252  570.1164
 253  781.2076
 254  705.5048
 255  556.875
 256  690.1374
 257  417.9317
 258  153.0279
 259  280.4498
 260  238.5994
 261  530.2635
 262  738.6653
 263  375.5365
 264  260.9701
 265  46.16095
 266  314.7999
 267  612.3408
 268  290.2072
 269  -91.72525
 270  69.69064
 271  349.3082
 272  154.6713
 273  206.126
 274  90.0573
 275  99.0443
 276  311.9448
 277  503.1967
 278  571.5935
 279  836.2144
 280  631.0918
 281  446.7329
 282  517.0578
 283  757.9648
 284  575.8414
 285  477.9782
 286  178.078
 287  209.6011
 288  367.7776
 289  369.6862
 290  155.7755
 291  144.9028
 292  391.1247
 293  560.2184
 294  477.0956
 295  958.1646
 296  1388.501
 297  1599.581
 298  1948.9
 299  1982.308
 300  1495.26
 301  986.9404
 302  454.1108
 303  358.4277
 304  288.4824
 305  409.1153
 306  282.9893
 307  344.4555
 308  115.8115
 309  200.7869
 310  469.5712
 311  447.1311
 312  -6.578162
 313  346.7632
 314  406.9576
 315  -99.35872
 316  -263.5071
 317  -48.69428
 318  190.2129
 319  -53.53574
 320  50.80076
 321  398.9666
 322  274.1353
 323  205.9031
 324  242.7941
 325  134.2281
 326  -191.9731
 327  162.6025
 328  404.1165
 329  389.8956
 330  420.6927
 331  345.1451
 332  480.5168
 333  8.509311
 334  77.11912
 335  549.0894
 336  505.23
 337  413.2973
 338  633.9507
 339  504.4835
 340  -4.752169
 341  -129.0064
 342  -33.0079
 343  -78.77541
 344  169.9644
 345  280.1107
 346  344.9774
 347  233.7954
 348  567.8768
 349  335.1503
 350  400.3301
 351  85.91404
 352  167.2979
 353  487.4151
 354  110.3683
 355  445.6622
 356  535.9521
 357  382.6595
 358  382.4005
 359  189.1023
 360  -9.439613
 361  231.9898
 362  369.6747
 363  364.899
 364  241.1054
 365  211.7247
 366  200.2656
 367  0.6096435
 368  203.9748
 369  278.2283
 370  126.5911
 371  90.82725
 372  26.85074
 373  134.1611
 374  23.8097
 375  15.77018
 376  76.73308
 377  -140.6846
 378  -142.8145
 379  163.3284
 380  272.0883
 381  45.14883
 382  -66.37588
 383  -53.55952
 384  -30.53464
 385  -147.9524
 386  -74.05927
 387  -158.5062
 388  -163.8612
 389  -198.0961
 390  -8.589432
 391  71.02509
 392  -258.7344
 393  224.0885
 394  167.2357
 395  133.6896
 396  -64.64899
 397  75.78146
 398  -11.27375
 399  245.0437
 400  554.8499
 401  247.0025
 402  158.4503
 403  104.1888
 404  -1.307387
 405  -182.8497
 406  -44.49016
 407  332.3232
 408  15.66498
 409  -43.58292
 410  198.6055
 411  -72.93127
 412  172.2196
 413  275.5174
 414  -61.45158
 415  -5.984909
 416  387.1483
 417  394.6911
 418  356.1804
 419  476.8875
 420  412.1023
 421  201.2566
 422  298.1839
 423  224.1339
 424  210.9378
 425  83.37859
 426  -89.02772
 427  10.06295
 428  223.2315
 429  258.9401
 430  238.1767
 431  424.7236
 432  326.087
 433  297.8055
 434  290.8534
 435  31.05864
 436  205.4912
 437  73.32785
 438  76.22022
 439  216.1382
 440  288.071
 441  497.3332
 442  429.5091
 443  -94.53216
 444  -32.93224
 445  211.8551
 446  76.84872
 447  270.6658
 448  382.3127
 449  15.23546
 450  32.57893
 451  222.182
 452  175.4516
 453  88.72013
 454  282.6242
 455  289.7189
 456  805.7323
 457  822.595
 458  227.8295
 459  206.0957
 460  677.5702
 461  533.1013
 462  266.6933
 463  529.5386
 464  706.8575
 465  -1.330389
 466  71.6988
 467  429.6917
 468  35.65205
 469  216.9398
 470  500.2827
 471  411.8512
 472  141.7816
 473  315.8683
 474  203.4174
 475  309.9442
 476  605.1217
 477  532.4404
 478  202.7097
 479  -57.3289
 480  445.8228
 481  642.9015
 482  214.2353
 483  285.1157
 484  558.634
 485  303.9141
 486  303.6764
 487  639.4658
 488  541.7986
 489  203.8554
 490  270.0723
 491  437.9879
 492  450.6742
 493  298.3921
 494  146.456
 495  375.188
 496  310.3221
 497  62.02707
 498  220.5385
 499  60.15782
 500  348.8619
 501  408.6362
 502  413.6879
 503  497.6224
 504  519.2503
 505  381.1494
 506  48.47256
 507  171.6664
 508  148.4385
 509  106.7151
 510  401.0951
 511  495.2776
