# Input file       =  1212030580.120176_cleaned.dat
# Candidate        =  PSR_0332+5434
# Telescope        =  AR
# Epoch_topo       =  58272.131934261299
# Epoch_bary       =  N/A
# T_sample         =  0.002
# Data Folded      =  7208960
# Data Avg         =  1.52737126975765 
# Data StdDev      =  15.9382474467922 
# Profile Bins     =  512
# Profile Avg      =  21505.492983091  
# Profile StdDev   =  1891.2193056297  
# Reduced chi-sqr  =  0.968
# Prob(Noise)      <  0.689   (~0.0 sigma)
# P_topo (ms)      =  714.514858342311  +/- 3.11e-05
# P'_topo (s/s)    =  -0                +/- 1.67e-11
# P''_topo (s/s^2) =  0                 +/- 7.51e-15
# P_bary (ms)      =  N/A
# P'_bary (s/s)    =  N/A
# P''_bary (s/s^2) =  N/A
# P_orb (s)        =  N/A
# asin(i)/c (s)    =  N/A
# eccentricity     =  N/A
# w (rad)          =  N/A
# T_peri           =  N/A
######################################################
   0  20964.24
   1  21452.13
   2  20263.5
   3  21245.87
   4  21791.38
   5  23343.11
   6  23108.86
   7  20910.59
   8  17882.42
   9  18402.78
  10  20565.8
  11  20454.92
  12  22161.18
  13  22326.85
  14  21752.82
  15  20144.38
  16  20197.58
  17  22586.55
  18  23702.18
  19  21764.01
  20  21936.5
  21  21396.44
  22  19494.05
  23  19273.76
  24  20946.51
  25  23059.29
  26  23822.28
  27  23276.2
  28  21391.16
  29  19434.73
  30  19170.36
  31  19922.03
  32  20116.15
  33  22438.01
  34  22562.07
  35  20818.2
  36  19888.46
  37  20076.97
  38  21279.46
  39  21579.76
  40  21126.5
  41  20791.16
  42  20795.39
  43  20627.87
  44  22409.4
  45  25052.37
  46  25887.95
  47  25741.13
  48  24469.32
  49  22166.48
  50  21266.86
  51  21422.18
  52  22720.34
  53  23068.37
  54  23964.74
  55  21683.91
  56  19037.6
  57  19875.29
  58  21357.99
  59  21220.57
  60  23839.66
  61  23844.33
  62  22741.09
  63  20754.41
  64  20408.34
  65  22529.84
  66  22905.74
  67  22343.87
  68  23282.8
  69  22876.28
  70  21789.03
  71  21002.88
  72  21118.46
  73  21797.51
  74  22189.75
  75  22389.91
  76  20157.67
  77  20121.04
  78  22551.65
  79  22008.22
  80  22326.79
  81  22874.34
  82  21459.21
  83  19974.51
  84  19164.16
  85  21387.24
  86  22537.02
  87  23170.04
  88  22300.12
  89  20616.66
  90  20432.67
  91  20887.21
  92  21871.09
  93  20640.54
  94  21667.67
  95  22579.31
  96  21397.06
  97  22663.12
  98  22341.99
  99  22315.62
 100  21150.19
 101  21910.9
 102  21641.9
 103  20264.01
 104  20633
 105  20532.51
 106  21313.67
 107  22524.81
 108  23002.42
 109  21837.56
 110  20257.73
 111  19921.78
 112  20924.73
 113  21124.46
 114  21767.77
 115  21372.64
 116  22814.38
 117  22306.33
 118  21738.58
 119  22061.32
 120  22048.23
 121  22828.67
 122  22956.4
 123  22780.64
 124  22306.85
 125  21396.72
 126  19439.04
 127  20407.02
 128  21108.53
 129  22107.69
 130  21878.81
 131  19964.77
 132  18840.63
 133  20059.24
 134  22370.76
 135  23236.16
 136  22566.17
 137  21768.28
 138  19989.5
 139  19946.39
 140  21930.05
 141  22297.62
 142  21772.34
 143  21557.89
 144  20827.45
 145  20845.24
 146  21537.9
 147  21331.57
 148  21115.73
 149  21798.51
 150  21526.64
 151  21027.51
 152  20795.84
 153  20833.17
 154  19354.63
 155  18981.48
 156  20133.7
 157  20645.27
 158  19303.26
 159  19021.68
 160  19805.42
 161  21398.11
 162  22132.18
 163  22524.8
 164  21273.05
 165  19794.62
 166  20126.56
 167  22189.26
 168  23758.36
 169  24031.97
 170  23550.81
 171  21561.33
 172  20654.41
 173  20373.18
 174  21811.69
 175  21753.04
 176  21626.68
 177  21770.67
 178  22563.89
 179  23058.63
 180  21016.79
 181  20387.24
 182  21399.2
 183  22155.6
 184  22748.55
 185  22878.05
 186  20867.92
 187  21554.92
 188  20572.58
 189  21764.24
 190  23364.9
 191  22706.96
 192  21762.26
 193  21052.38
 194  22600.34
 195  23862.8
 196  23771.08
 197  22165.77
 198  21351.29
 199  20668.24
 200  19404.2
 201  21141.21
 202  21119.87
 203  21039.45
 204  21088.08
 205  19715.27
 206  18622.34
 207  18167.64
 208  17553.49
 209  18672.69
 210  20688.71
 211  22371.74
 212  22128.46
 213  20417.01
 214  19523.47
 215  19657.93
 216  20066.29
 217  21620.25
 218  22924.78
 219  22521.59
 220  20944.35
 221  18965.49
 222  19580.32
 223  21376.67
 224  22830.81
 225  23577.38
 226  22933.88
 227  21929.53
 228  20940.33
 229  20025.11
 230  18718.91
 231  18964.35
 232  18923.38
 233  19633.12
 234  18981.67
 235  19895.04
 236  20551.49
 237  20955.19
 238  22444.06
 239  20743.72
 240  19904.87
 241  20122.85
 242  20799.94
 243  21815.33
 244  22031.67
 245  22834.28
 246  23045.54
 247  21255.62
 248  21007.05
 249  22622.32
 250  24845.17
 251  23024.81
 252  22877.11
 253  23760.81
 254  22391.55
 255  20510.21
 256  22808.51
 257  22631.51
 258  21080.62
 259  21766.02
 260  22118.49
 261  21424.01
 262  20787.37
 263  22000.98
 264  21423.87
 265  22568.9
 266  22519.17
 267  21937.47
 268  20305.5
 269  19292.7
 270  20781.95
 271  21798.91
 272  22920.12
 273  22962.91
 274  20544.1
 275  19507.55
 276  20877.59
 277  22903.31
 278  24919.99
 279  24434.01
 280  23199.98
 281  22182.29
 282  21306.52
 283  21120.39
 284  21480.94
 285  22287.55
 286  21867.33
 287  21305.71
 288  19973.59
 289  18704.94
 290  20700.84
 291  21218.1
 292  21061.85
 293  21667.44
 294  21829.05
 295  21943.88
 296  21070.23
 297  21452.51
 298  24576.62
 299  23736.92
 300  24200.95
 301  22826.95
 302  21502
 303  21970.81
 304  21703.58
 305  22411.19
 306  21183.26
 307  20454.88
 308  19881.06
 309  20973.72
 310  22656.04
 311  22756.4
 312  22856.03
 313  21498.99
 314  21304.63
 315  20464.8
 316  20745.59
 317  21653.95
 318  22283.71
 319  21523.88
 320  21176.96
 321  20742.59
 322  18633.34
 323  19611.95
 324  21393.13
 325  22687.16
 326  22254.58
 327  22463.87
 328  21851.42
 329  19827.07
 330  20824.57
 331  20621.67
 332  21190.54
 333  20384.93
 334  21200.33
 335  22469.48
 336  21264.4
 337  20977.54
 338  21799.31
 339  22762.14
 340  22089.66
 341  21397.84
 342  21789.44
 343  21355.78
 344  20031.21
 345  20731.46
 346  20788.94
 347  21992.17
 348  21775.13
 349  20885.69
 350  19850.96
 351  20085.94
 352  21901.28
 353  21969.21
 354  22003.75
 355  21844.95
 356  21994.81
 357  20467.67
 358  20601.3
 359  22639.65
 360  22728.8
 361  22479.18
 362  21858.34
 363  20786.94
 364  19069.25
 365  19257.84
 366  21002.09
 367  22405.75
 368  20703.13
 369  21094.61
 370  20163.92
 371  18986.18
 372  19513.01
 373  21704.96
 374  22347.38
 375  23024.42
 376  22394.21
 377  20322.9
 378  19813.42
 379  21630.35
 380  23326.7
 381  23727.46
 382  22043.95
 383  21830.74
 384  21025.65
 385  20852.43
 386  22085.4
 387  21828.03
 388  21305.01
 389  21496.22
 390  20889.52
 391  20089.37
 392  21499.6
 393  23841.27
 394  23493.08
 395  22413.96
 396  22378.76
 397  21478.92
 398  22316.42
 399  23300.27
 400  23924
 401  24064.2
 402  23499.24
 403  22507.82
 404  21850.21
 405  21514.83
 406  22252.09
 407  23948.43
 408  23994.18
 409  23801.7
 410  23156.99
 411  19955.14
 412  19608.88
 413  20140.95
 414  21107.17
 415  20511.59
 416  20728.59
 417  19657.68
 418  19365.3
 419  18988.46
 420  20700.39
 421  20296.18
 422  20480.25
 423  22314.07
 424  21885.96
 425  19915.64
 426  19809.08
 427  21352.97
 428  21995.59
 429  22771.65
 430  23759.46
 431  22687.55
 432  20678.62
 433  21409.7
 434  21735.2
 435  21385.81
 436  22094.8
 437  23334.29
 438  21436.15
 439  19712.05
 440  20930.08
 441  22270.57
 442  21554.29
 443  21803.38
 444  20651.6
 445  19249.12
 446  19032.92
 447  20267.69
 448  22562.01
 449  22704.2
 450  22466.74
 451  22120.37
 452  20748.6
 453  20380.43
 454  21312.45
 455  22693.02
 456  23529.64
 457  23003.11
 458  22279.7
 459  20637.49
 460  21651.78
 461  23390.74
 462  22927.32
 463  23421.54
 464  24231.53
 465  22856.97
 466  19975.61
 467  21568.24
 468  21674.51
 469  20248.95
 470  22305.93
 471  22234.55
 472  18717.15
 473  18602.44
 474  19243.22
 475  21475.16
 476  21568.71
 477  21802.76
 478  20996.47
 479  19639.28
 480  20912.04
 481  21113.18
 482  21699.55
 483  21927.95
 484  22596.35
 485  22002.21
 486  19135
 487  18595.09
 488  20998.73
 489  21503.44
 490  23190.19
 491  23655.53
 492  23206.85
 493  21749.49
 494  21342.74
 495  23301.04
 496  23975.57
 497  24502.2
 498  23918.16
 499  22691.62
 500  20422.88
 501  20532.45
 502  21356.79
 503  21471.15
 504  22087.15
 505  20691.4
 506  20138.49
 507  19160.94
 508  20361.71
 509  21781.37
 510  23365.96
 511  22459.42
