# Input file       =  1212404813.114432_cleaned.dat
# Candidate        =  PSR_0332+5434
# Telescope        =  AR
# Epoch_topo       =  58276.463334657776
# Epoch_bary       =  N/A
# T_sample         =  0.002
# Data Folded      =  7340032
# Data Avg         =  0.0118519784500976
# Data StdDev      =  1.00003801043794 
# Profile Bins     =  512
# Profile Avg      =  169.913583361123 
# Profile StdDev   =  119.737587481915 
# Reduced chi-sqr  =  1.976
# Prob(Noise)      <  4.6e-35   (~12.3 sigma)
# P_topo (ms)      =  714.511016018087  +/- 0.000201
# P'_topo (s/s)    =  -0                +/- 1.06e-10
# P''_topo (s/s^2) =  0                 +/- 4.69e-14
# P_bary (ms)      =  N/A
# P'_bary (s/s)    =  N/A
# P''_bary (s/s^2) =  N/A
# P_orb (s)        =  N/A
# asin(i)/c (s)    =  N/A
# eccentricity     =  N/A
# w (rad)          =  N/A
# T_peri           =  N/A
######################################################
   0  -59.95531
   1  50.09905
   2  158.0518
   3  171.4175
   4  199.9369
   5  167.042
   6  191.1629
   7  181.6717
   8  228.3247
   9  130.4907
  10  -29.12642
  11  43.58933
  12  97.87945
  13  102.708
  14  199.7911
  15  199.5527
  16  92.90823
  17  136.248
  18  71.61658
  19  91.31291
  20  130.7937
  21  120.6731
  22  37.42136
  23  96.91262
  24  42.99709
  25  36.81969
  26  32.80144
  27  -78.40596
  28  38.94073
  29  108.8482
  30  -31.60568
  31  62.73557
  32  188.5002
  33  219.7175
  34  300.2368
  35  204.567
  36  111.8146
  37  29.20951
  38  55.40719
  39  117.5594
  40  108.2996
  41  24.99658
  42  56.4589
  43  121.1791
  44  144.4309
  45  119.0504
  46  168.0053
  47  144.8799
  48  143.4964
  49  7.777677
  50  100.4721
  51  82.62122
  52  89.51337
  53  269.8073
  54  123.2109
  55  197.6119
  56  195.8038
  57  55.26659
  58  24.5182
  59  -71.16589
  60  73.29848
  61  345.2065
  62  167.9628
  63  278.5611
  64  299.6749
  65  117.5538
  66  119.3612
  67  84.34972
  68  139.0161
  69  237.4998
  70  112.0385
  71  250.0786
  72  152.6241
  73  137.1386
  74  141.7847
  75  78.35812
  76  173.1818
  77  305.1057
  78  363.1636
  79  380.9721
  80  495.8249
  81  520.4961
  82  654.0831
  83  967.4071
  84  1060.428
  85  1030.566
  86  879.1609
  87  746.5702
  88  416.2753
  89  287.9613
  90  382.1149
  91  242.0728
  92  232.4899
  93  219.9948
  94  204.584
  95  240.7814
  96  355.9144
  97  411.5861
  98  237.0498
  99  224.3828
 100  292.8109
 101  268.0098
 102  211.1472
 103  171.4202
 104  249.6417
 105  228.7221
 106  169.6381
 107  57.15735
 108  116.0949
 109  223.7714
 110  241.2571
 111  232.3858
 112  157.5562
 113  138.3016
 114  226.0068
 115  132.1332
 116  95.35678
 117  215.7295
 118  122.5634
 119  62.60719
 120  170.8475
 121  178.2403
 122  114.3074
 123  21.99174
 124  69.32561
 125  129.4444
 126  206.6017
 127  221.0997
 128  192.2393
 129  253.6425
 130  218.8507
 131  160.9725
 132  155.1586
 133  250.0869
 134  212.5253
 135  152.4945
 136  176.9721
 137  188.4543
 138  181.7018
 139  182.4922
 140  146.1458
 141  307.5489
 142  266.8067
 143  200.1812
 144  216.6133
 145  287.6836
 146  273.7579
 147  233.1135
 148  248.0481
 149  182.7217
 150  26.12848
 151  161.5858
 152  154.7975
 153  115.9406
 154  263.8963
 155  265.3649
 156  223.243
 157  235.5862
 158  181.661
 159  146.5251
 160  121.0317
 161  256.7628
 162  219.5305
 163  200.324
 164  105.9669
 165  -14.77312
 166  115.6927
 167  235.6073
 168  159.2607
 169  195.5209
 170  -6.782595
 171  5.748542
 172  134.0544
 173  226.1878
 174  339.0046
 175  241.646
 176  153.3756
 177  225.4453
 178  143.9228
 179  135.164
 180  155.1212
 181  168.6867
 182  335.3303
 183  195.714
 184  79.94872
 185  66.00851
 186  67.04245
 187  221.9302
 188  285.8564
 189  -53.17241
 190  -30.96179
 191  127.7914
 192  111.3436
 193  136.3235
 194  159.9192
 195  208.4151
 196  34.22957
 197  -5.314778
 198  78.28338
 199  164.0934
 200  131.5804
 201  85.24065
 202  152.5842
 203  226.5534
 204  345.8702
 205  242.7946
 206  240.5467
 207  398.6427
 208  262.1043
 209  213.8518
 210  159.5709
 211  222.5436
 212  244.538
 213  181.9344
 214  145.456
 215  226.8005
 216  258.7935
 217  248.0739
 218  279.1794
 219  262.7148
 220  257.7206
 221  202.801
 222  77.0573
 223  270.0249
 224  270.9151
 225  147.4278
 226  238.5475
 227  320.3162
 228  291.9435
 229  207.5702
 230  217.5237
 231  173.7897
 232  214.6662
 233  88.06351
 234  147.1967
 235  382.0502
 236  352.2202
 237  173.3232
 238  46.35849
 239  122.8446
 240  212.7381
 241  191.4602
 242  160.5956
 243  81.32319
 244  143.1316
 245  243.3047
 246  276.4194
 247  217.5023
 248  250.5744
 249  218.4392
 250  274.6823
 251  246.0041
 252  178.1962
 253  41.61278
 254  185.1604
 255  290.2099
 256  233.5356
 257  201.8446
 258  211.4432
 259  150.4452
 260  97.93684
 261  66.54958
 262  217.1299
 263  236.1938
 264  259.5611
 265  209.7926
 266  173.1498
 267  253.8143
 268  101.6371
 269  111.1572
 270  167.9271
 271  207.6323
 272  270.1347
 273  130.564
 274  53.86538
 275  251.6015
 276  210.9519
 277  134.7176
 278  200.0758
 279  157.2065
 280  40.05756
 281  71.30524
 282  123.5508
 283  258.9683
 284  277.839
 285  260.9789
 286  48.69923
 287  11.94312
 288  95.34454
 289  167.2323
 290  318.6662
 291  215.0122
 292  195.0841
 293  143.6772
 294  203.2015
 295  144.5336
 296  154.6841
 297  146.3107
 298  220.3011
 299  305.5443
 300  203.1944
 301  103.3572
 302  122.9437
 303  109.7698
 304  53.28664
 305  161.6347
 306  170.433
 307  227.8578
 308  189.6667
 309  313.806
 310  220.6593
 311  86.92475
 312  77.06641
 313  108.5708
 314  209.5602
 315  196.5414
 316  123.1262
 317  243.7861
 318  247.2418
 319  97.51715
 320  91.76121
 321  149.1058
 322  130.8347
 323  -5.760382
 324  33.57893
 325  56.22655
 326  41.03777
 327  50.48526
 328  102.0231
 329  167.1655
 330  210.5435
 331  214.2612
 332  122.8102
 333  125.0249
 334  358.9863
 335  165.7758
 336  143.0819
 337  130.258
 338  53.67366
 339  140.0795
 340  175.7704
 341  269.6178
 342  201.7698
 343  32.81939
 344  -21.86419
 345  144.2671
 346  100.3212
 347  135.2748
 348  155.4996
 349  87.03345
 350  160.6101
 351  129.2747
 352  167.636
 353  158.914
 354  141.2693
 355  167.8034
 356  228.1132
 357  335.4797
 358  175.2227
 359  198.9254
 360  197.1729
 361  161.7284
 362  64.14464
 363  -26.50836
 364  146.7368
 365  324.7523
 366  175.5399
 367  36.82133
 368  13.04685
 369  137.5327
 370  239.2788
 371  215.2206
 372  183.1464
 373  69.62757
 374  67.30465
 375  251.8533
 376  211.9638
 377  226.0856
 378  40.03286
 379  38.84429
 380  18.64448
 381  29.1801
 382  241.5896
 383  235.5032
 384  95.00389
 385  119.3916
 386  117.9246
 387  89.41573
 388  50.40582
 389  145.8943
 390  174.0464
 391  81.38208
 392  139.5464
 393  157.1085
 394  183.8438
 395  195.3662
 396  189.8242
 397  72.7812
 398  233.6049
 399  156.4781
 400  242.0237
 401  193.0982
 402  57.57682
 403  90.52325
 404  197.2787
 405  249.9219
 406  143.5564
 407  127.161
 408  200.6206
 409  245.5896
 410  230.7345
 411  192.9718
 412  17.1745
 413  -8.541497
 414  38.16209
 415  87.11329
 416  288.3057
 417  206.2692
 418  84.82542
 419  2.222713
 420  93.19785
 421  177.9913
 422  195.5188
 423  311.8195
 424  325.9237
 425  172.8056
 426  156.3425
 427  171.9014
 428  284.1613
 429  104.4442
 430  174.235
 431  206.7614
 432  188.7603
 433  117.4054
 434  195.0526
 435  317.5144
 436  368.8694
 437  285.4778
 438  209.5338
 439  247.6219
 440  178.5762
 441  226.7745
 442  211.0638
 443  293.7931
 444  244.7605
 445  213.6638
 446  184.7283
 447  169.3086
 448  139.052
 449  175.3411
 450  130.2931
 451  109.4997
 452  109.0618
 453  112.1365
 454  120.0439
 455  161.9755
 456  194.5152
 457  195.2384
 458  237.8229
 459  252.7777
 460  316.0318
 461  85.24031
 462  83.57938
 463  -17.38943
 464  35.15336
 465  -40.61946
 466  9.986165
 467  131.2315
 468  48.7852
 469  44.998
 470  -16.19411
 471  81.34036
 472  168.4356
 473  190.0893
 474  64.20445
 475  31.00967
 476  114.7346
 477  134.8717
 478  212.834
 479  245.7601
 480  104.6279
 481  196.963
 482  226.4764
 483  167.7763
 484  99.57136
 485  194.4833
 486  254.2374
 487  286.6877
 488  294.2792
 489  109.9947
 490  161.7328
 491  129.3884
 492  117.9344
 493  -2.189471
 494  48.71394
 495  139.5823
 496  68.67791
 497  26.52225
 498  24.6105
 499  3.463814
 500  -57.48863
 501  40.87004
 502  74.56882
 503  18.3722
 504  78.86243
 505  40.69781
 506  94.25509
 507  85.14485
 508  -49.85752
 509  203.4391
 510  101.9422
 511  -122.7909
