# Input file       =  1212045231.112183_cleaned.dat
# Candidate        =  PSR_0332+5434
# Telescope        =  AR
# Epoch_topo       =  58272.301505928044
# Epoch_bary       =  N/A
# T_sample         =  0.002
# Data Folded      =  7340032
# Data Avg         =  -0.0520513317375623
# Data StdDev      =  1.0001938971759  
# Profile Bins     =  512
# Profile Avg      =  -746.227488186686
# Profile StdDev   =  119.756252274382 
# Reduced chi-sqr  =  1.201
# Prob(Noise)      <  0.00119   (~3.0 sigma)
# P_topo (ms)      =  714.5147050992    +/- 0.000534
# P'_topo (s/s)    =  -0                +/- 2.82e-10
# P''_topo (s/s^2) =  0                 +/- 1.24e-13
# P_bary (ms)      =  N/A
# P'_bary (s/s)    =  N/A
# P''_bary (s/s^2) =  N/A
# P_orb (s)        =  N/A
# asin(i)/c (s)    =  N/A
# eccentricity     =  N/A
# w (rad)          =  N/A
# T_peri           =  N/A
######################################################
   0  -713.0207
   1  -778.9905
   2  -863.5399
   3  -723.5512
   4  -687.3312
   5  -759.572
   6  -806.4821
   7  -859.6847
   8  -749.4688
   9  -638.413
  10  -685.4354
  11  -716.2662
  12  -732.0312
  13  -736.5326
  14  -635.0953
  15  -667.3984
  16  -742.7951
  17  -813.8173
  18  -753.2765
  19  -908.5872
  20  -881.0789
  21  -784.3403
  22  -740.1932
  23  -711.5626
  24  -789.6828
  25  -766.8843
  26  -838.3273
  27  -848.0956
  28  -910.1382
  29  -854.0246
  30  -799.2144
  31  -831.4121
  32  -803.9879
  33  -797.5423
  34  -788.2888
  35  -770.9756
  36  -819.1769
  37  -856.1123
  38  -857.1279
  39  -809.0035
  40  -852.6947
  41  -865.7889
  42  -807.7087
  43  -849.7111
  44  -895.7763
  45  -817.973
  46  -873.4485
  47  -730.3705
  48  -726.8423
  49  -822.2325
  50  -773.5175
  51  -720.1044
  52  -691.9277
  53  -709.2567
  54  -685.0039
  55  -707.3343
  56  -719.3815
  57  -669.6721
  58  -648.4574
  59  -713.0375
  60  -843.1199
  61  -811.9902
  62  -734.796
  63  -769.2715
  64  -750.7917
  65  -821.5209
  66  -794.6183
  67  -852.5297
  68  -821.1659
  69  -752.1741
  70  -779.3304
  71  -847.3915
  72  -747.1855
  73  -708.6522
  74  -796.3746
  75  -703.8925
  76  -800.9418
  77  -806.5148
  78  -783.8804
  79  -778.3146
  80  -746.7809
  81  -780.217
  82  -854.7722
  83  -822.2639
  84  -722.2039
  85  -823.0188
  86  -841.4212
  87  -830.2963
  88  -770.8723
  89  -727.4369
  90  -733.5037
  91  -748.5519
  92  -799.3853
  93  -874.7492
  94  -890.3255
  95  -854.9313
  96  -724.0779
  97  -782.325
  98  -717.5548
  99  -743.7468
 100  -821.4099
 101  -752.9501
 102  -835.8209
 103  -875.3087
 104  -781.9521
 105  -741.0823
 106  -760.9714
 107  -762.5415
 108  -780.3734
 109  -826.3976
 110  -812.8986
 111  -816.9169
 112  -818.517
 113  -768.1204
 114  -793.3964
 115  -867.1996
 116  -794.0479
 117  -737.7724
 118  -833.7722
 119  -747.4107
 120  -814.4677
 121  -835.0192
 122  -809.2108
 123  -783.0869
 124  -738.2817
 125  -751.2509
 126  -773.945
 127  -771.9556
 128  -697.5725
 129  -726.4196
 130  -763.7703
 131  -788.2079
 132  -857.7358
 133  -827.5879
 134  -661.8535
 135  -694.5631
 136  -731.3515
 137  -694.7856
 138  -772.3405
 139  -756.4209
 140  -711.7677
 141  -773.1699
 142  -826.7272
 143  -789.9728
 144  -799.9925
 145  -799.5627
 146  -704.0002
 147  -787.8956
 148  -831.6918
 149  -747.4459
 150  -791.2144
 151  -777.7257
 152  -770.6111
 153  -802.1934
 154  -837.7933
 155  -868.5966
 156  -794.457
 157  -788.6737
 158  -721.7318
 159  -728.2089
 160  -795.2804
 161  -798.2063
 162  -849.2547
 163  -755.8316
 164  -757.1543
 165  -825.5732
 166  -887.4303
 167  -822.3851
 168  -753.1266
 169  -779.433
 170  -815.6288
 171  -778.5004
 172  -782.5708
 173  -730.79
 174  -692.2339
 175  -696.9337
 176  -696.2527
 177  -680.8979
 178  -729.8426
 179  -671.0956
 180  -663.3778
 181  -740.9666
 182  -758.5163
 183  -775.9124
 184  -790.7897
 185  -678.3999
 186  -767.428
 187  -766.8198
 188  -760.7029
 189  -690.3505
 190  -712.3268
 191  -622.926
 192  -589.6705
 193  -659.1733
 194  -724.2201
 195  -762.6664
 196  -729.5945
 197  -767.6406
 198  -797.51
 199  -861.119
 200  -871.1021
 201  -717.9631
 202  -692.4414
 203  -684.2134
 204  -693.6226
 205  -734.6143
 206  -751.7678
 207  -864.8481
 208  -865.4919
 209  -806.308
 210  -864.8413
 211  -841.09
 212  -790.0034
 213  -745.5759
 214  -752.6468
 215  -765.1586
 216  -774.0627
 217  -788.2391
 218  -788.8044
 219  -706.4198
 220  -656.8979
 221  -715.7559
 222  -722.2581
 223  -743.9277
 224  -729.7497
 225  -747.5245
 226  -819.8018
 227  -825.1732
 228  -817.1104
 229  -830.7722
 230  -881.403
 231  -887.055
 232  -757.4971
 233  -774.4572
 234  -927.1547
 235  -943.2069
 236  -813.9968
 237  -839.5288
 238  -861.6938
 239  -848.1841
 240  -910.5449
 241  -895.7471
 242  -836.5999
 243  -891.8997
 244  -866.9468
 245  -796.9327
 246  -758.8077
 247  -778.4169
 248  -764.3149
 249  -790.4782
 250  -957.684
 251  -901.1063
 252  -810.2449
 253  -739.5424
 254  -720.6678
 255  -717.5522
 256  -746.7935
 257  -949.761
 258  -877.3333
 259  -821.0953
 260  -833.3038
 261  -950.1747
 262  -868.3666
 263  -695.1206
 264  -721.4269
 265  -768.9614
 266  -823.1231
 267  -753.6675
 268  -746.0493
 269  -790.1243
 270  -632.2955
 271  -782.8979
 272  -879.1046
 273  -818.8873
 274  -868.8367
 275  -820.9421
 276  -836.697
 277  -881.2762
 278  -876.5275
 279  -893.0475
 280  -888.8527
 281  -897.3846
 282  -891.9706
 283  -877.1107
 284  -853.9224
 285  -817.5603
 286  -760.535
 287  -784.4077
 288  -729.3198
 289  -746.9255
 290  -863.2443
 291  -838.2139
 292  -829.0856
 293  -794.7636
 294  -731.4315
 295  -700.9453
 296  -735.4846
 297  -837.0079
 298  -858.9068
 299  -727.8853
 300  -779.681
 301  -875.9946
 302  -837.0735
 303  -769.8622
 304  -740.4252
 305  -843.0743
 306  -847.2011
 307  -794.8828
 308  -802.2959
 309  -823.7877
 310  -805.3768
 311  -887.6399
 312  -793.3463
 313  -668.3923
 314  -682.3495
 315  -785.5501
 316  -825.6347
 317  -816.1
 318  -845.9708
 319  -751.2675
 320  -680.4816
 321  -673.4719
 322  -830.8779
 323  -835.8774
 324  -774.1293
 325  -860.8312
 326  -841.6504
 327  -866.33
 328  -835.9293
 329  -735.7078
 330  -721.8644
 331  -782.7649
 332  -786.1651
 333  -837.7767
 334  -828.8937
 335  -805.0927
 336  -769.7093
 337  -832.4207
 338  -793.3322
 339  -759.9553
 340  -724.0416
 341  -798.0002
 342  -869.6655
 343  -738.3096
 344  -723.5427
 345  -617.9589
 346  -701.2693
 347  -647.1388
 348  -573.2237
 349  -592.8005
 350  -737.4777
 351  -830.3029
 352  -648.9447
 353  -645.1729
 354  -608.59
 355  -670.6362
 356  -628.5096
 357  -691.1583
 358  -758.5731
 359  -707.4827
 360  -711.9653
 361  -633.764
 362  -547.8499
 363  -619.7448
 364  -699.5554
 365  -736.8092
 366  -742.3634
 367  -875.2281
 368  -819.9226
 369  -734.4605
 370  -762.4929
 371  -783.6544
 372  -609.2195
 373  -548.2838
 374  -644.5928
 375  -548.4348
 376  -648.6131
 377  -721.2824
 378  -684.9344
 379  -657.9624
 380  -732.561
 381  -758.4556
 382  -695.0911
 383  -701.7111
 384  -777.8021
 385  -659.5294
 386  -651.451
 387  -685.6893
 388  -566.8713
 389  -673.3322
 390  -694.5402
 391  -583.7703
 392  -611.4988
 393  -635.6387
 394  -631.2343
 395  -632.269
 396  -596.1901
 397  -667.0106
 398  -658.8886
 399  -502.9242
 400  -601.3219
 401  -700.3417
 402  -603.1536
 403  -505.3112
 404  -588.7737
 405  -672.7256
 406  -723.9589
 407  -718.0554
 408  -703.509
 409  -669.22
 410  -578.3889
 411  -660.7644
 412  -660.339
 413  -715.0198
 414  -702.5999
 415  -672.0159
 416  -594.7219
 417  -665.9152
 418  -644.9652
 419  -621.3002
 420  -591.7676
 421  -711.1894
 422  -772.439
 423  -685.7766
 424  -717.6266
 425  -579.9286
 426  -559.4711
 427  -568.0407
 428  -442.145
 429  -341.0452
 430  -235.0188
 431  -237.4827
 432  -229.8365
 433  -434.8871
 434  -690.8817
 435  -729.0894
 436  -628.4346
 437  -740.9583
 438  -742.3873
 439  -705.6088
 440  -774.5402
 441  -772.7738
 442  -718.7938
 443  -699.1333
 444  -604.3774
 445  -719.3816
 446  -763.5812
 447  -707.4853
 448  -770.337
 449  -746.4373
 450  -699.0289
 451  -681.2188
 452  -772.2152
 453  -706.6426
 454  -626.4275
 455  -732.5958
 456  -774.3566
 457  -789.1446
 458  -768.0827
 459  -706.4086
 460  -670.4833
 461  -791.1151
 462  -771.0985
 463  -714.7529
 464  -718.3891
 465  -717.6833
 466  -700.3343
 467  -694.3002
 468  -728.9258
 469  -637.8653
 470  -694.8511
 471  -744.9749
 472  -693.2342
 473  -608.987
 474  -539.0778
 475  -576.708
 476  -661.1976
 477  -686.0511
 478  -696.4503
 479  -715.0091
 480  -642.9418
 481  -668.8768
 482  -702.2867
 483  -831.3813
 484  -641.8782
 485  -523.5991
 486  -564.6129
 487  -624.2433
 488  -641.7445
 489  -625.0217
 490  -579.3714
 491  -570.8458
 492  -665.2643
 493  -663.7224
 494  -598.4915
 495  -612.1113
 496  -629.6881
 497  -622.6309
 498  -717.0104
 499  -677.4552
 500  -605.9893
 501  -674.1581
 502  -778.1062
 503  -700.7388
 504  -666.659
 505  -733.7794
 506  -720.6762
 507  -744.1233
 508  -781.1455
 509  -771.2014
 510  -816.0438
 511  -709.3864
